#Wave		#Intensity
1483.837891	10896.749023
1482.740234	10917.231445
1481.640625	11015.268555
1480.542969	11058.668945
1479.443359	11052.013672
1478.343750	11022.619141
1477.244141	11056.899414
1476.144531	11027.516602
1475.044922	10939.051758
1473.943359	10875.617188
1472.843750	11091.657227
1471.744141	11005.502930
1470.642578	10996.598633
1469.541016	10987.698242
1468.439453	11060.530273
1467.339844	11067.509766
1466.236328	11072.218750
1465.134766	10897.679688
1464.033203	11038.529297
1462.931641	11213.346680
1461.828125	10995.795898
1460.726563	11086.668945
1459.623047	11032.433594
1458.519531	11012.214844
1457.416016	11155.150391
1456.312500	11089.606445
1455.208984	11218.882813
1454.105469	11003.885742
1453.001953	11250.870117
1451.896484	10999.727539
1450.792969	11151.558594
1449.687500	10966.156250
1448.582031	11335.136719
1447.478516	11235.728516
1446.373047	11272.056641
1445.267578	11468.918945
1444.160156	11107.290039
1443.054688	11444.251953
1441.949219	11292.939453
1440.841797	11274.995117
1439.736328	11200.581055
1438.628906	11404.011719
1437.521484	11575.750000
1436.414063	11327.469727
1435.306641	11490.128906
1434.199219	11458.627930
1433.091797	11418.112305
1431.982422	11411.454102
1430.875000	11504.049805
1429.765625	11427.464844
1428.658203	11497.473633
1427.548828	11506.587891
1426.439453	11366.933594
1425.330078	11371.561523
1424.220703	11500.112305
1423.111328	11612.844727
1422.000000	11448.500977
1420.890625	11594.979492
1419.781250	11473.479492
1418.669922	11673.923828
1417.558594	11599.717773
1416.447266	11993.581055
1415.335938	11984.586914
1414.224609	11494.232422
1413.113281	11492.082031
1412.001953	11764.251953
1410.890625	11528.250000
1409.777344	11874.484375
1408.666016	11503.713867
1407.552734	11564.475586
1406.439453	11263.541992
1405.326172	11113.202148
1404.212891	11214.422852
1403.099609	11194.368164
1401.986328	11291.046875
1400.871094	11336.071289
1399.757813	11134.248047
1398.642578	11073.840820
1397.529297	11174.957031
1396.414063	11188.572266
1395.298828	11125.946289
1394.183594	11283.041016
1393.068359	11070.248047
1391.953125	11045.775391
1390.837891	11140.062500
1389.720703	11030.460938
1388.605469	11160.551758
1387.488281	11012.918945
1386.373047	11212.370117
1385.255859	10943.905273
1384.138672	10991.106445
1383.021484	11362.749023
1381.904297	11007.154297
1380.785156	11090.106445
1379.667969	11043.317383
1378.550781	11177.660156
1377.431641	11278.418945
1376.312500	11247.266602
1375.195313	11225.065430
1374.076172	11182.763672
1372.957031	10961.764648
1371.837891	11236.682617
1370.716797	11221.198242
1369.597656	11154.369141
1368.478516	11261.679688
1367.357422	11159.158203
1366.238281	11257.502930
1365.117188	11436.126953
1363.996094	11402.778320
1362.875000	11202.178711
1361.753906	11311.590820
1360.632813	11313.953125
1359.511719	11325.230469
1358.388672	11421.187500
1357.267578	11376.738281
1356.144531	11682.053711
1355.021484	11323.525391
1353.900391	11339.244141
1352.777344	11259.218750
1351.654297	11388.472656
1350.531250	11626.734375
1349.406250	11491.069336
1348.283203	11439.998047
1347.160156	11738.176758
1346.035156	11526.950195
1344.910156	11587.079102
1343.787109	11578.267578
1342.662109	11665.038086
1341.537109	11636.213867
1340.412109	11645.172852
1339.287109	11527.501953
1338.160156	11540.919922
1337.035156	11441.077148
1335.908203	11803.092773
1334.783203	11652.180664
1333.656250	11754.343750
1332.529297	11840.936523
1331.402344	11958.557617
1330.275391	11770.017578
1329.148438	11645.864258
1328.021484	11555.018555
1326.894531	11900.958008
1325.765625	11772.416016
1324.638672	11819.000977
1323.509766	11745.915039
1322.380859	11894.394531
1321.251953	12022.884766
1320.123047	11830.215820
1318.994141	11642.044922
1317.865234	11912.190430
1316.736328	11710.793945
1315.605469	11883.457031
1314.476563	11686.564453
1313.345703	11841.471680
1312.214844	11748.609375
1311.083984	11870.278320
1309.953125	11896.833008
1308.822266	11658.119141
1307.691406	11739.955078
1306.560547	11857.115234
1305.429688	11927.837891
1304.296875	11704.754883
1303.166016	11726.892578
1302.033203	11892.545898
1300.900391	11888.148438
1299.767578	11599.019531
1298.634766	11674.124023
1297.501953	11709.484375
1296.369141	11702.917969
1295.234375	11886.035156
1294.101563	11782.409180
1292.966797	11698.664063
1291.833984	11601.722656
1290.699219	11745.051758
1289.564453	11828.830078
1288.429688	11820.044922
1287.294922	11747.382813
1286.160156	12038.136719
1285.025391	11767.284180
1283.888672	11714.484375
1282.753906	11586.864258
1281.617188	11862.028320
1280.480469	11694.821289
1279.343750	11668.471680
1278.208984	11633.333984
1277.070313	11991.852539
1275.933594	11717.006836
1274.796875	11655.498047
1273.660156	11701.709961
1272.521484	11710.546875
1271.384766	11695.211914
1270.246094	11653.522461
1269.107422	11945.685547
1267.968750	11734.879883
1266.830078	11818.347656
1265.691406	11822.761719
1264.552734	11833.757813
1263.414063	11800.863281
1262.273438	11969.817383
1261.134766	11868.912109
1259.994141	11726.375000
1258.853516	11765.881836
1257.712891	11842.641602
1256.572266	11888.687500
1255.431641	11838.291992
1254.291016	12053.032227
1253.150391	11890.900391
1252.007813	11919.379883
1250.867188	11998.214844
1249.724609	11987.253906
1248.582031	12061.668945
1247.441406	12116.358398
1246.298828	12061.615234
1245.156250	12127.223633
1244.011719	11982.812500
1242.869141	12256.178711
1241.726563	12024.331055
1240.582031	12085.523438
1239.439453	12240.684570
1238.294922	12194.728516
1237.150391	12227.449219
1236.005859	12231.757813
1234.861328	12452.302734
1233.716797	12541.737305
1232.572266	12329.825195
1231.427734	12379.953125
1230.281250	12445.341797
1229.136719	12499.793945
1227.990234	12530.225586
1226.843750	12445.030273
1225.697266	12680.476563
1224.550781	12560.394531
1223.404297	12603.872070
1222.257813	12658.233398
1221.111328	12767.059570
1219.962891	12703.702148
1218.816406	12930.124023
1217.667969	12914.680664
1216.519531	12964.576172
1215.373047	12912.114258
1214.224609	12877.087891
1213.074219	12846.425781
1211.925781	12922.411133
1210.777344	13050.586914
1209.628906	13161.311523
1208.478516	12965.316406
1207.330078	13067.317383
1206.179688	13125.794922
1205.029297	13260.334961
1203.878906	13392.651367
1202.728516	13285.885742
1201.578125	13578.921875
1200.427734	13454.782227
1199.275391	13300.282227
1198.125000	13423.782227
1196.972656	13571.116211
1195.822266	13544.746094
1194.669922	13494.511719
1193.517578	13502.880859
1192.365234	13509.077148
1191.212891	13760.372070
1190.058594	13653.749023
1188.906250	13716.286133
1187.753906	13917.541992
1186.599609	13951.831055
1185.445313	13767.234375
1184.292969	13797.203125
1183.138672	13987.462891
1181.984375	14049.867188
1180.830078	13941.176758
1179.673828	14118.312500
1178.519531	14223.949219
1177.365234	14238.647461
1176.208984	14238.193359
1175.054688	14376.200195
1173.898438	14386.534180
1172.742188	14370.912109
1171.585938	14193.125000
1170.429688	14672.611328
1169.273438	14449.441406
1168.115234	14431.656250
1166.958984	14517.587891
1165.800781	14631.572266
1164.644531	14726.074219
1163.486328	14818.381836
1162.328125	14653.723633
1161.169922	14651.026367
1160.011719	15105.887695
1158.853516	15258.475586
1157.695313	14981.664063
1156.535156	15078.132813
1155.376953	15245.736328
1154.216797	15268.804688
1153.058594	15360.853516
1151.898438	15364.491211
1150.738281	15671.998047
1149.578125	15505.352539
1148.417969	15629.601563
1147.255859	15809.805664
1146.095703	15787.510742
1144.933594	15745.845703
1143.773438	16044.327148
1142.611328	16377.135742
1141.449219	16229.937500
1140.287109	16455.009766
1139.125000	16275.582031
1137.962891	16453.244141
1136.800781	16721.156250
1135.638672	16866.419922
1134.474609	16818.169922
1133.312500	17146.039063
1132.148438	16977.421875
1130.984375	17174.089844
1129.820313	17405.050781
1128.656250	17552.169922
1127.492188	17587.582031
1126.328125	17923.529297
1125.162109	17778.558594
1123.998047	17946.957031
1122.832031	18012.304688
1121.667969	17878.121094
1120.501953	18353.113281
1119.335938	18534.144531
1118.169922	18599.330078
1117.003906	18694.501953
1115.837891	18821.785156
1114.669922	18820.451172
1113.503906	19410.427734
1112.335938	18954.873047
1111.169922	19326.158203
1110.001953	19528.146484
1108.833984	19541.664063
1107.666016	20047.478516
1106.498047	19857.587891
1105.330078	19821.822266
1104.160156	20160.439453
1102.992188	20518.181641
1101.822266	20627.724609
1100.654297	20893.308594
1099.484375	21049.769531
1098.314453	20998.855469
1097.144531	21287.722656
1095.974609	20973.992188
1094.804688	21521.224609
1093.632813	21615.484375
1092.462891	21816.472656
1091.291016	22258.630859
1090.121094	22277.988281
1088.949219	22190.632813
1087.777344	22325.214844
1086.605469	22741.345703
1085.433594	22811.785156
1084.261719	22769.173828
1083.087891	23393.937500
1081.916016	23225.457031
1080.742188	23398.054688
1079.570313	23594.029297
1078.396484	23798.449219
1077.222656	23811.078125
1076.048828	24336.976563
1074.875000	24524.107422
1073.701172	24762.263672
1072.525391	24638.468750
1071.351563	24904.177734
1070.175781	24961.261719
1069.001953	24956.628906
1067.826172	25549.687500
1066.650391	25825.658203
1065.474609	25548.705078
1064.298828	26009.517578
1063.123047	26115.208984
1061.945313	26439.738281
1060.769531	26602.673828
1059.591797	26820.777344
1058.416016	26915.613281
1057.238281	27203.648438
1056.060547	26869.515625
1054.882813	27533.162109
1053.705078	27835.771484
1052.525391	27885.763672
1051.347656	28173.341797
1050.169922	28127.800781
1048.990234	28425.826172
1047.810547	28458.703125
1046.632813	28665.396484
1045.453125	28772.394531
1044.273438	29258.673828
1043.093750	28935.417969
1041.912109	29567.646484
1040.732422	29674.388672
1039.550781	29795.914063
1038.371094	29781.894531
1037.189453	30119.257813
1036.007813	30325.279297
1034.826172	30387.337891
1033.644531	30586.882813
1032.462891	30856.152344
1031.281250	31267.009766
1030.099609	31254.833984
1028.916016	31035.490234
1027.734375	31137.494141
1026.550781	31679.001953
1025.367188	31539.982422
1024.183594	31770.685547
1023.000000	31714.066406
1021.816406	32001.660156
1020.632813	32181.470703
1019.447266	32399.208984
1018.263672	32217.988281
1017.078125	32410.312500
1015.892578	32562.480469
1014.707031	32716.697266
1013.521484	32786.500000
1012.335938	32742.417969
1011.150391	32740.509766
1009.964844	32706.986328
1008.777344	32949.527344
1007.591797	32894.906250
1006.404297	32852.937500
1005.218750	33179.554688
1004.031250	33284.945313
1002.843750	33280.820313
1001.656250	33163.027344
1000.466797	33373.582031
999.279297	33150.605469
998.091797	33384.218750
996.902344	33342.207031
995.712891	33306.515625
994.525391	33348.632813
993.335938	33317.152344
992.146484	33510.574219
990.957031	33212.195313
989.765625	32794.175781
988.576172	33428.699219
987.384766	33369.921875
986.195313	33435.054688
985.003906	33160.054688
983.812500	33355.332031
982.621094	33277.714844
981.429688	33298.742188
980.238281	33252.628906
979.046875	33011.468750
977.855469	33105.921875
976.662109	33225.500000
975.470703	32986.570313
974.277344	32913.300781
973.083984	33145.992188
971.890625	33064.335938
970.697266	33051.832031
969.503906	32800.582031
968.308594	32961.921875
967.115234	32825.917969
965.919922	32949.511719
964.726563	32826.117188
963.531250	32941.289063
962.335938	32587.826172
961.140625	32765.740234
959.945313	32701.013672
958.750000	32594.496094
957.552734	32494.287109
956.357422	32471.441406
955.160156	32632.480469
953.964844	32482.175781
952.767578	32331.923828
951.570313	32085.660156
950.373047	32515.992188
949.175781	32758.275391
947.978516	32591.378906
946.779297	32606.093750
945.582031	32099.199219
944.382813	32445.671875
943.183594	32082.902344
941.986328	32639.847656
940.787109	32343.888672
939.585938	32437.828125
938.386719	32738.046875
937.187500	32529.744141
935.988281	32746.498047
934.787109	32404.964844
933.585938	32319.699219
932.386719	32530.117188
931.185547	32322.039063
929.984375	32330.488281
928.783203	32725.974609
927.580078	32262.070313
926.378906	32551.332031
925.175781	32320.558594
923.974609	32027.490234
922.771484	32331.175781
921.568359	31990.406250
920.365234	32059.152344
919.162109	32055.150391
917.958984	32231.875000
916.755859	31748.064453
915.550781	31793.955078
914.347656	31783.767578
913.142578	31387.492188
911.939453	31230.031250
910.734375	31709.642578
909.529297	31319.824219
908.324219	31571.072266
907.117188	31251.931641
905.912109	31183.791016
904.707031	30997.511719
903.500000	31018.562500
902.292969	30890.404297
901.085938	30772.650391
899.878906	30657.011719
898.671875	30326.027344
897.464844	30471.412109
896.257813	30467.681641
895.050781	30441.183594
893.841797	29847.664063
892.632813	29928.878906
891.425781	29840.431641
890.216797	29685.830078
889.007813	29634.679688
887.798828	29471.902344
886.587891	29613.046875
885.378906	29150.662109
884.169922	28905.412109
882.958984	28778.009766
881.748047	28762.191406
880.539063	28674.099609
879.328125	28336.205078
878.117188	28268.867188
876.904297	28170.591797
875.693359	27998.066406
874.482422	27846.234375
873.269531	27752.216797
872.056641	27936.650391
870.845703	27615.830078
869.632813	27606.427734
868.419922	27139.447266
867.207031	27142.500000
865.992188	27236.207031
864.779297	26979.677734
863.566406	27023.945313
862.351563	26390.716797
861.136719	26424.781250
859.921875	26263.283203
858.707031	26354.980469
857.492188	26199.724609
856.277344	26233.792969
855.062500	26551.689453
853.845703	25826.845703
852.630859	26008.996094
851.414063	25724.441406
850.197266	25711.287109
848.982422	25819.373047
847.763672	25682.933594
846.546875	25437.677734
845.330078	25568.339844
844.113281	25684.576172
842.894531	25652.957031
841.677734	25198.533203
840.458984	25169.068359
839.240234	25344.783203
838.021484	25452.736328
836.802734	25361.705078
835.583984	25418.347656
834.363281	25351.955078
833.144531	25008.873047
831.923828	25096.285156
830.703125	25116.044922
829.484375	25445.126953
828.263672	25266.136719
827.042969	25132.263672
825.820313	25514.378906
824.599609	25120.541016
823.378906	25134.121094
822.156250	25385.054688
820.933594	25347.429688
819.712891	25330.273438
818.490234	25552.386719
817.267578	25518.837891
816.044922	25732.648438
814.820313	25474.251953
813.597656	25452.990234
812.373047	25474.638672
811.150391	25600.453125
809.925781	25534.244141
808.701172	25905.017578
807.476563	25628.501953
806.251953	25688.867188
805.027344	25790.019531
803.800781	25758.513672
802.576172	25580.146484
801.349609	25932.113281
800.125000	25606.962891
798.898438	25693.753906
797.671875	25786.625000
796.445313	25559.505859
795.216797	25786.837891
793.990234	25732.958984
792.763672	25666.876953
791.535156	26004.013672
790.306641	25736.343750
789.080078	25941.021484
787.851563	25789.466797
786.621094	25981.843750
785.392578	25704.205078
784.164063	26034.830078
782.935547	25793.888672
781.705078	25990.173828
780.474609	25647.693359
779.246094	26114.234375
778.015625	25741.378906
776.785156	25675.437500
775.552734	25861.388672
774.322266	25874.648438
773.091797	25851.353516
771.859375	25974.226563
770.628906	25816.960938
769.396484	25826.152344
768.164063	25591.876953
766.931641	25787.720703
765.699219	25944.955078
764.464844	25781.755859
763.232422	25752.417969
761.998047	26010.904297
760.765625	26024.085938
759.531250	25599.625000
758.296875	26032.195313
757.062500	25873.207031
755.828125	25503.689453
754.593750	25863.138672
753.357422	25694.150391
752.123047	25766.050781
750.886719	25546.560547
749.652344	26002.814453
748.416016	25928.982422
747.179688	25727.783203
745.943359	25674.248047
744.705078	25792.546875
743.468750	26076.517578
742.232422	25956.261719
740.994141	25640.091797
739.755859	25562.378906
738.517578	25765.390625
737.279297	25770.458984
736.041016	25660.462891
734.802734	25847.185547
733.564453	25969.261719
732.324219	25857.267578
731.085938	25757.419922
729.845703	26083.117188
728.605469	25705.017578
727.365234	25716.123047
726.125000	25572.031250
724.884766	26060.722656
723.642578	25936.763672
722.402344	25802.781250
721.160156	25922.595703
719.919922	26141.023438
718.677734	26091.621094
717.435547	25937.578125
716.193359	25912.380859
714.951172	25985.773438
713.707031	25884.134766
712.464844	26166.658203
711.220703	25958.453125
709.976563	25852.851563
708.734375	26107.070313
707.490234	26252.673828
706.246094	25777.388672
705.000000	26061.597656
703.755859	26303.519531
702.511719	25997.167969
701.265625	26309.269531
700.019531	26290.060547
698.773438	26278.884766
697.527344	26297.806641
696.281250	26288.636719
695.035156	26467.994141
693.789063	26547.019531
692.541016	26104.759766
691.294922	26346.179688
690.046875	26579.486328
688.798828	26808.693359
687.550781	26711.281250
686.302734	26690.011719
685.054688	26714.804688
683.806641	26659.505859
682.556641	26472.115234
681.308594	26839.150391
680.058594	26641.789063
678.808594	27366.732422
677.558594	26821.324219
676.308594	27058.013672
675.058594	26840.765625
673.806641	26667.576172
672.556641	27042.050781
671.304688	26936.822266
670.054688	27149.275391
668.802734	27395.597656
667.550781	27358.253906
666.298828	27594.451172
665.044922	27680.841797
663.792969	27675.390625
662.541016	27572.166016
661.287109	27321.351563
660.033203	27315.968750
658.779297	27797.171875
657.525391	27853.501953
656.271484	27620.763672
655.017578	27866.439453
653.763672	27912.753906
652.507813	28128.388672
651.253906	28051.134766
649.998047	27979.884766
648.742188	28018.167969
647.486328	27921.070313
646.230469	28013.083984
644.974609	28138.888672
643.716797	27964.228516
642.460938	28364.484375
641.203125	28092.398438
639.945313	28233.986328
638.687500	27940.164063
637.429688	28405.689453
636.171875	28610.714844
634.914063	28483.871094
633.656250	28506.052734
632.396484	28641.423828
631.136719	28377.640625
629.878906	28757.154297
628.619141	28753.455078
627.359375	28815.240234
626.097656	28710.343750
624.837891	29099.402344
623.578125	29351.464844
622.316406	29075.998047
621.056641	29254.611328
619.794922	29500.542969
618.533203	29520.466797
617.271484	29368.013672
616.009766	29675.175781
614.746094	30116.886719
613.484375	30243.589844
612.220703	30291.054688
610.958984	30302.871094
609.695313	30399.773438
608.431641	30575.775391
607.167969	30656.757813
605.902344	30994.808594
604.638672	30860.140625
603.375000	31223.714844
602.109375	31423.087891
600.843750	31725.140625
599.580078	31703.048828
598.314453	31789.607422
597.046875	32259.275391
595.781250	32262.751953
594.515625	32621.582031
593.248047	32630.904297
591.982422	32717.183594
590.714844	33113.191406
589.447266	33193.417969
588.179688	33234.167969
586.912109	33535.183594
585.644531	33589.644531
584.375000	33717.011719
583.107422	33284.656250
581.837891	33967.648438
580.568359	34083.042969
579.298828	33889.175781
578.029297	34164.031250
576.759766	34291.121094
575.490234	34583.496094
574.218750	34220.433594
572.949219	34573.699219
571.677734	34413.394531
570.406250	34373.125000
569.134766	34415.457031
567.863281	34477.429688
566.591797	34592.445313
565.320313	34901.972656
564.046875	34403.835938
562.775391	34960.785156
561.501953	34914.558594
560.228516	35029.363281
558.955078	34924.242188
557.681641	35184.246094
556.408203	34833.820313
555.134766	34773.917969
553.859375	35200.539063
552.583984	34871.886719
551.310547	34733.574219
550.035156	35283.453125
548.759766	35266.636719
547.484375	35343.890625
546.207031	35307.468750
544.931641	35717.707031
543.654297	35322.804688
542.378906	35674.125000
541.101563	35316.582031
539.824219	35589.464844
538.546875	35772.210938
537.269531	35534.210938
535.990234	35836.226563
534.712891	36093.132813
533.433594	36367.535156
532.156250	35785.507813
530.876953	36276.828125
529.597656	36210.976563
528.318359	35932.175781
527.039063	36765.031250
525.757813	36283.105469
524.478516	36379.375000
523.197266	36508.796875
521.916016	36739.664063
520.634766	36753.816406
519.353516	37263.558594
518.072266	36971.324219
516.791016	36882.042969
515.509766	37194.500000
514.226563	37292.371094
512.943359	37127.058594
511.662109	37074.839844
510.378906	37427.917969
509.095703	37169.160156
507.810547	37590.246094
506.527344	37522.390625
505.244141	37561.644531
503.958984	37737.132813
502.673828	37392.933594
501.388672	37541.144531
500.103516	37903.281250
498.818359	37804.312500
497.533203	38135.136719
496.248047	37318.757813
494.960938	37748.675781
493.675781	37572.074219
492.388672	37302.281250
491.101563	37294.847656
489.814453	37586.519531
488.527344	37367.367188
487.238281	37482.234375
485.951172	37482.527344
484.662109	37702.121094
483.375000	36982.507813
482.085938	37436.843750
480.796875	36944.496094
479.507813	36768.425781
478.218750	36991.808594
476.927734	36652.972656
475.638672	36806.519531
474.347656	36308.968750
473.058594	36619.437500
471.767578	36178.285156
470.476563	35989.046875
469.185547	36154.183594
467.892578	36177.949219
466.601563	35847.542969
465.308594	35542.421875
464.017578	35490.843750
462.724609	35255.542969
461.431641	35590.789063
460.138672	35485.093750
458.845703	35246.062500
457.550781	35554.050781
456.257813	35017.539063
454.962891	34846.355469
453.669922	35152.304688
452.375000	34903.914063
451.080078	34997.355469
449.785156	34938.261719
448.490234	34956.386719
447.193359	35024.671875
445.898438	34857.574219
444.601563	34356.867188
443.304688	34591.066406
442.007813	34424.152344
440.710938	34691.011719
439.414063	34358.398438
438.117188	34788.945313
436.818359	34371.679688
435.521484	34364.832031
434.222656	34425.382813
432.923828	34614.906250
431.625000	34367.394531
430.326172	34512.585938
429.027344	34409.503906
427.728516	34125.628906
426.427734	34330.402344
425.126953	34002.425781
423.828125	34164.839844
422.527344	34071.535156
421.226563	34356.871094
419.925781	34067.574219
418.623047	33960.894531
417.322266	33861.937500
416.019531	34020.343750
414.718750	34142.207031
413.416016	34239.062500
412.113281	34119.015625
410.810547	33970.234375
409.507813	34118.863281
408.203125	34008.500000
406.900391	33646.964844
405.595703	33768.726563
404.291016	33867.433594
402.988281	33722.707031
401.681641	33486.062500
400.376953	33454.496094
399.072266	33286.949219
397.767578	33171.171875
396.460938	32927.164063
395.154297	33014.410156
393.849609	33124.589844
392.542969	33064.425781
391.236328	33086.546875
389.927734	32838.968750
388.621094	32773.156250
387.314453	32917.683594
386.005859	32974.218750
384.697266	32893.128906
383.388672	32844.554688
382.080078	32604.955078
380.771484	32434.212891
379.462891	32811.609375
378.152344	32728.716797
376.843750	32628.679688
375.533203	32286.298828
374.222656	32568.013672
372.912109	32513.851563
371.601563	32253.712891
370.291016	32533.357422
368.980469	32406.781250
367.667969	32766.345703
366.357422	32517.796875
365.044922	32299.833984
363.732422	32464.882813
362.419922	32121.302734
361.107422	32482.468750
359.794922	32510.294922
358.480469	32507.652344
357.167969	32763.847656
355.853516	32614.636719
354.539063	32634.802734
353.224609	32363.943359
351.910156	32273.851563
350.595703	32545.046875
349.281250	32143.199219
347.964844	32380.101563
346.650391	32352.783203
345.333984	32251.380859
344.017578	32218.400391
342.701172	32191.128906
341.384766	32236.017578
340.066406	32231.531250
338.750000	32215.660156
337.431641	32161.843750
336.115234	31819.673828
334.796875	31891.146484
333.478516	31905.697266
332.160156	31391.238281
330.841797	31299.722656
329.521484	31450.841797
328.203125	31666.330078
326.882813	31483.875000
325.564453	31689.798828
324.244141	31571.798828
322.923828	31457.632813
321.601563	31301.865234
320.281250	31344.890625
318.960938	31244.082031
317.638672	31264.398438
316.318359	31042.583984
314.996094	31096.974609
313.673828	31204.285156
312.351563	31311.552734
311.027344	31114.474609
309.705078	31382.343750
308.382813	31298.689453
307.058594	31541.859375
305.734375	31067.269531
304.410156	31104.572266
303.085938	31041.806641
301.761719	31248.972656
300.437500	31331.507813
299.111328	31117.794922
297.787109	31255.029297
296.460938	31382.777344
295.134766	31310.601563
293.808594	31474.109375
292.482422	31694.099609
291.156250	31499.412109
289.830078	31419.734375
288.501953	31520.927734
287.175781	31482.710938
285.847656	31508.533203
284.519531	31498.572266
283.191406	31200.628906
281.863281	31307.412109
280.533203	31244.816406
279.205078	31182.244141
277.876953	31174.240234
276.546875	31241.457031
275.216797	31209.003906
273.886719	31415.285156
272.556641	31262.533203
271.226563	31083.537109
269.894531	31254.029297
268.564453	30870.380859
267.232422	30858.695313
265.900391	30869.544922
264.570313	30794.044922
263.238281	31107.060547
261.904297	31209.798828
260.572266	31077.996094
259.240234	31533.320313
257.906250	31227.105469
256.572266	30939.761719
