#Wave		#Intensity
1483.837891	11085.644531
1482.740234	11283.642578
1481.640625	11179.098633
1480.542969	10951.745117
1479.443359	11070.209961
1478.343750	11102.212891
1477.244141	11122.836914
1476.144531	11100.260742
1475.044922	11218.608398
1473.943359	11102.855469
1472.843750	11300.676758
1471.744141	11107.721680
1470.642578	11098.797852
1469.541016	11176.163086
1468.439453	11262.580078
1467.339844	11233.205078
1466.236328	11203.841797
1465.134766	11020.202148
1464.033203	11104.315430
1462.931641	11154.376953
1461.828125	11061.557617
1460.726563	11274.847656
1459.623047	11073.236328
1458.519531	11225.251953
1457.416016	11243.521484
1456.312500	11332.014648
1455.208984	11345.726563
1454.105469	11160.146484
1453.001953	11287.097656
1451.896484	11400.417969
1450.792969	11117.608398
1449.687500	11418.742188
1448.582031	11314.773438
1447.478516	11319.424805
1446.373047	11432.633789
1445.267578	11489.269531
1444.160156	11303.978516
1443.054688	11369.659180
1441.949219	11306.499023
1440.841797	11317.925781
1439.736328	11397.122070
1438.628906	11449.184570
1437.521484	11521.551758
1436.414063	11390.688477
1435.306641	11612.028320
1434.199219	11458.627930
1433.091797	11300.772461
1431.982422	11339.258789
1430.875000	11359.684570
1429.765625	11400.401367
1428.658203	11479.435547
1427.548828	11405.138672
1426.439453	11337.631836
1425.330078	11551.848633
1424.220703	11770.490234
1423.111328	11639.877930
1422.000000	11581.387695
1420.890625	11622.002930
1419.781250	11565.789063
1418.669922	11514.099609
1417.558594	11624.474609
1416.447266	11912.574219
1415.335938	11910.343750
1414.224609	11811.392578
1413.113281	11456.099609
1412.001953	11577.625000
1410.890625	11717.089844
1409.777344	11402.471680
1408.666016	11395.845703
1407.552734	11247.671875
1406.439453	11178.177734
1405.326172	11068.282227
1404.212891	11214.422852
1403.099609	11037.207031
1401.986328	11122.691406
1400.871094	11138.570313
1399.757813	11140.980469
1398.642578	11100.762695
1397.529297	11013.456055
1396.414063	10870.116211
1395.298828	11016.077148
1394.183594	10875.031250
1393.068359	11088.178711
1391.953125	11056.980469
1390.837891	10942.893555
1389.720703	10940.855469
1388.605469	10891.784180
1387.488281	10842.731445
1386.373047	11051.169922
1385.255859	10961.813477
1384.138672	10930.678711
1383.021484	10879.417969
1381.904297	10850.548828
1380.785156	11063.264648
1379.667969	10958.334961
1378.550781	10848.970703
1377.431641	10887.195313
1376.312500	10795.766602
1375.195313	10845.161133
1374.076172	10939.222656
1372.957031	11071.225586
1371.837891	10827.954102
1370.716797	10993.424805
1369.597656	10890.915039
1368.478516	10908.985352
1367.357422	10902.498047
1366.238281	10987.500977
1365.117188	10891.761719
1363.996094	10976.735352
1362.875000	10983.621094
1361.753906	10914.692383
1360.632813	11019.678711
1359.511719	11035.468750
1358.388672	11077.995117
1357.267578	11049.206055
1356.144531	11078.347656
1355.021484	11018.386719
1353.900391	10882.734375
1352.777344	11081.102539
1351.654297	10936.583984
1350.531250	11208.313477
1349.406250	11110.555664
1348.283203	11121.849609
1347.160156	11066.406250
1346.035156	11142.199219
1344.910156	11291.342773
1343.787109	11358.173828
1342.662109	11200.481445
1341.537109	11131.740234
1340.412109	11085.245117
1339.287109	11060.981445
1338.160156	11112.244141
1337.035156	11187.916016
1335.908203	11199.171875
1334.783203	11050.590820
1333.656250	11357.057617
1332.529297	11399.342773
1331.402344	11148.748047
1330.275391	11319.713867
1329.148438	11282.139648
1328.021484	11040.575195
1326.894531	11233.635742
1325.765625	11200.530273
1324.638672	11395.706055
1323.509766	11251.793945
1322.380859	11333.903320
1321.251953	11349.532227
1320.123047	11172.489258
1318.994141	11334.277344
1317.865234	11305.622070
1316.736328	11288.044922
1315.605469	11367.842773
1314.476563	11228.571289
1313.345703	11361.441406
1312.214844	11390.312500
1311.083984	11381.580078
1309.953125	11271.149414
1308.822266	11286.756836
1307.691406	11096.821289
1306.560547	11359.938477
1305.429688	11302.614258
1304.296875	11278.445313
1303.166016	11207.906250
1302.033203	11309.621094
1300.900391	10971.977539
1299.767578	11170.816406
1298.634766	11193.035156
1297.501953	11067.416016
1296.369141	11091.851563
1295.234375	11257.436523
1294.101563	10975.303711
1292.966797	11215.812500
1291.833984	11092.507813
1290.699219	10951.615234
1289.564453	10969.433594
1288.429688	10907.929688
1287.294922	11046.901367
1286.160156	11040.464844
1285.025391	11060.454102
1283.888672	11133.273438
1282.753906	11175.249023
1281.617188	11193.000977
1280.480469	11135.934570
1279.343750	11096.488281
1278.208984	10984.471680
1277.070313	11217.758789
1275.933594	10962.843750
1274.796875	10963.027344
1273.660156	11022.553711
1272.521484	11044.700195
1271.384766	10998.728516
1270.246094	11067.001953
1269.107422	11223.101563
1267.968750	10972.903320
1266.830078	11082.857422
1265.691406	10988.626953
1264.552734	11037.085938
1263.414063	11142.578125
1262.273438	11011.091797
1261.134766	11109.968750
1259.994141	11007.045898
1258.853516	11044.492188
1257.712891	11068.770508
1256.572266	10915.499023
1255.431641	10926.642578
1254.291016	11086.774414
1253.150391	10951.107422
1252.007813	11111.174805
1250.867188	11122.273438
1249.724609	11157.451172
1248.582031	11288.934570
1247.441406	11122.711914
1246.298828	11346.058594
1245.156250	11346.163086
1244.011719	11271.893555
1242.869141	11239.205078
1241.726563	11440.498047
1240.582031	11514.916016
1239.439453	11230.828125
1238.294922	11436.381836
1237.150391	11318.475586
1236.005859	11589.475586
1234.861328	11517.452148
1233.716797	11506.601563
1232.572266	11681.346680
1231.427734	11401.957031
1230.281250	11504.628906
1229.136719	11639.996094
1227.990234	11738.222656
1226.843750	11655.354492
1225.697266	11561.611328
1224.550781	11729.577148
1223.404297	11738.324219
1222.257813	11723.088867
1221.111328	11853.880859
1219.962891	11823.376953
1218.816406	11917.064453
1217.667969	11912.698242
1216.519531	11882.198242
1215.373047	11925.742188
1214.224609	11923.551758
1213.074219	12132.494141
1211.925781	12130.265625
1210.777344	12182.433594
1209.628906	12188.897461
1208.478516	12167.083008
1207.330078	12149.625977
1206.179688	12069.122070
1205.029297	12327.763672
1203.878906	12332.019531
1202.728516	12264.563477
1201.578125	12347.041992
1200.427734	12275.262695
1199.275391	12494.534180
1198.125000	12605.152344
1196.972656	12511.653320
1195.822266	12594.008789
1194.669922	12682.844727
1193.517578	12541.644531
1192.365234	12561.034180
1191.212891	12719.234375
1190.058594	12721.234375
1188.906250	12818.634766
1187.753906	12876.978516
1186.599609	12842.099609
1185.445313	13028.272461
1184.292969	12846.045898
1183.138672	12969.326172
1181.984375	13049.244141
1180.830078	13111.808594
1179.673828	13193.834961
1178.519531	13033.388672
1177.365234	13225.775391
1176.208984	13437.565430
1175.054688	13179.805664
1173.898438	13460.743164
1172.742188	13503.683594
1171.585938	13490.387695
1170.429688	13451.154297
1169.273438	13565.399414
1168.115234	13584.514648
1166.958984	13499.909180
1165.800781	13713.453125
1164.644531	13600.776367
1163.486328	13879.005859
1162.328125	13800.883789
1161.169922	13923.547852
1160.011719	14037.533203
1158.853516	14075.949219
1157.695313	14118.665039
1156.535156	14185.092773
1155.376953	14223.458984
1154.216797	14434.314453
1153.058594	14334.640625
1151.898438	14459.175781
1150.738281	14682.799805
1149.578125	14473.242188
1148.417969	14537.360352
1147.255859	14758.690430
1146.095703	15162.988281
1144.933594	15033.160156
1143.773438	14978.723633
1142.611328	15208.416016
1141.449219	15517.644531
1140.287109	15484.663086
1139.125000	15628.086914
1137.962891	15433.789063
1136.800781	15678.234375
1135.638672	15851.640625
1134.474609	15891.708008
1133.312500	16026.324219
1132.148438	16223.204102
1130.984375	16220.211914
1129.820313	16427.720703
1128.656250	16446.166016
1127.492188	16840.361328
1126.328125	16914.539063
1125.162109	16844.878906
1123.998047	17007.011719
1122.832031	17175.519531
1121.667969	17247.431641
1120.501953	17291.433594
1119.335938	17404.039063
1118.169922	17750.300781
1117.003906	17890.644531
1115.837891	17801.611328
1114.669922	18164.746094
1113.503906	18099.259766
1112.335938	18080.921875
1111.169922	18520.900391
1110.001953	18403.992188
1108.833984	18394.167969
1107.666016	18791.033203
1106.498047	18956.625000
1105.330078	19134.990234
1104.160156	18962.451172
1102.992188	19313.996094
1101.822266	19800.136719
1100.654297	19736.607422
1099.484375	20060.021484
1098.314453	19996.466797
1097.144531	20321.847656
1095.974609	20454.824219
1094.804688	20510.849609
1093.632813	20690.722656
1092.462891	20968.753906
1091.291016	20973.412109
1090.121094	21067.714844
1088.949219	21422.347656
1087.777344	21467.455078
1086.605469	21614.945313
1085.433594	21933.015625
1084.261719	22012.121094
1083.087891	22359.845703
1081.916016	22426.050781
1080.742188	22801.275391
1079.570313	22816.226563
1078.396484	22731.035156
1077.222656	23178.416016
1076.048828	23419.042969
1074.875000	23495.615234
1073.701172	23640.287109
1072.525391	23648.671875
1071.351563	23940.103516
1070.175781	24212.275391
1069.001953	24867.277344
1067.826172	24709.517578
1066.650391	24687.916016
1065.474609	25170.238281
1064.298828	25305.867188
1063.123047	25566.847656
1061.945313	25693.849609
1060.769531	25920.662109
1059.591797	26204.744141
1058.416016	26265.712891
1057.238281	26258.708984
1056.060547	26493.734375
1054.882813	27008.861328
1053.705078	27103.585938
1052.525391	27242.833984
1051.347656	27498.708984
1050.169922	27491.472656
1048.990234	27834.152344
1047.810547	28276.355469
1046.632813	28129.060547
1045.453125	28412.078125
1044.273438	28271.164063
1043.093750	28496.841797
1041.912109	28855.886719
1040.732422	28922.521484
1039.550781	29372.406250
1038.371094	29703.558594
1037.189453	29655.689453
1036.007813	30022.640625
1034.826172	30093.218750
1033.644531	30195.503906
1032.462891	30473.306641
1031.281250	30617.773438
1030.099609	30760.068359
1028.916016	30967.843750
1027.734375	30642.912109
1026.550781	31057.720703
1025.367188	31115.308594
1024.183594	31025.003906
1023.000000	31355.023438
1021.816406	31657.464844
1020.632813	32021.017578
1019.447266	31947.490234
1018.263672	31985.839844
1017.078125	32382.882813
1015.892578	32351.515625
1014.707031	32680.839844
1013.521484	32773.847656
1012.335938	32407.171875
1011.150391	32464.353516
1009.964844	32557.341797
1008.777344	32555.464844
1007.591797	32882.261719
1006.404297	33029.882813
1005.218750	33002.640625
1004.031250	33240.726563
1002.843750	32882.914063
1001.656250	33133.558594
1000.466797	33278.878906
999.279297	33255.808594
998.091797	33024.480469
996.902344	32854.230469
995.712891	33209.781250
994.525391	33382.273438
993.335938	33390.726563
992.146484	33504.265625
990.957031	33443.347656
989.765625	33355.136719
988.576172	33098.910156
987.384766	33170.406250
986.195313	33201.976563
985.003906	32987.902344
983.812500	33126.539063
982.621094	33193.769531
981.429688	33214.812500
980.238281	33321.855469
979.046875	33021.957031
977.855469	32959.128906
976.662109	32902.617188
975.470703	32971.894531
974.277344	32919.585938
973.083984	33552.511719
971.890625	33039.195313
970.697266	33368.128906
969.503906	33074.933594
968.308594	32974.484375
967.115234	32606.103516
965.919922	33127.425781
964.726563	32957.957031
963.531250	32769.718750
962.335938	32769.820313
961.140625	32617.242188
959.945313	32807.660156
958.750000	32613.312500
957.552734	32657.332031
956.357422	32511.150391
955.160156	32208.302734
953.964844	32486.353516
952.767578	32212.863281
951.570313	32382.208984
950.373047	32495.111328
949.175781	32205.068359
947.978516	32194.814453
946.779297	32439.150391
945.582031	32382.949219
944.382813	32295.478516
943.183594	32251.835938
941.986328	32103.947266
940.787109	32366.822266
939.585938	32256.482422
938.386719	32575.492188
937.187500	32683.931641
935.988281	32452.759766
934.787109	32321.650391
933.585938	32586.253906
932.386719	32022.093750
931.185547	32147.177734
929.984375	32257.642578
928.783203	32378.468750
927.580078	32045.701172
926.378906	31995.949219
925.175781	32112.587891
923.974609	31738.466797
922.771484	31936.183594
921.568359	31761.769531
920.365234	31672.623047
919.162109	31504.552734
917.958984	31789.404297
916.755859	31523.755859
915.550781	31544.769531
914.347656	31511.792969
913.142578	30974.416016
911.939453	31163.619141
910.734375	30900.406250
909.529297	30593.724609
908.324219	30874.148438
907.117188	30665.050781
905.912109	31057.314453
904.707031	30709.365234
903.500000	30458.960938
902.292969	30264.597656
901.085938	30097.240234
899.878906	30110.156250
898.671875	30038.154297
897.464844	29456.802734
896.257813	29757.591797
895.050781	29207.556641
893.841797	29208.203125
892.632813	28850.900391
891.425781	28944.701172
890.216797	28668.242188
889.007813	28623.490234
887.798828	28374.072266
886.587891	28434.808594
885.378906	28264.052734
884.169922	28000.375000
882.958984	27835.958984
881.748047	27432.005859
880.539063	27476.333984
879.328125	27130.410156
878.117188	27061.236328
876.904297	27023.046875
875.693359	26700.101563
874.482422	26719.757813
873.269531	26170.087891
872.056641	26352.761719
870.845703	26034.306641
869.632813	25775.757813
868.419922	25659.525391
867.207031	25263.070313
865.992188	25350.955078
864.779297	25269.886719
863.566406	24538.013672
862.351563	24784.539063
861.136719	24672.736328
859.921875	24600.085938
858.707031	24317.542969
857.492188	24496.013672
856.277344	24061.359375
855.062500	24069.089844
853.845703	24039.798828
852.630859	23959.117188
851.414063	23751.013672
850.197266	23855.388672
848.982422	23659.708984
847.763672	23361.380859
846.546875	23414.414063
845.330078	23335.986328
844.113281	23015.300781
842.894531	23216.171875
841.677734	23082.406250
840.458984	22866.605469
839.240234	22915.558594
838.021484	22937.822266
836.802734	22519.126953
835.583984	22976.167969
834.363281	22912.296875
833.144531	22407.753906
831.923828	22604.281250
830.703125	22774.093750
829.484375	22521.835938
828.263672	22617.861328
827.042969	22525.455078
825.820313	22547.734375
824.599609	22510.640625
823.378906	22555.423828
822.156250	22561.308594
820.933594	22771.771484
819.712891	22793.972656
818.490234	22758.904297
817.267578	22744.294922
816.044922	22690.847656
814.820313	22821.365234
813.597656	22686.183594
812.373047	22978.046875
811.150391	22714.197266
809.925781	22652.630859
808.701172	22889.197266
807.476563	22807.203125
806.251953	23200.806641
805.027344	23169.796875
803.800781	23030.662109
802.576172	23101.687500
801.349609	23284.855469
800.125000	23233.457031
798.898438	23116.835938
797.671875	23271.353516
796.445313	23330.029297
795.216797	23425.353516
793.990234	23459.527344
792.763672	23314.453125
791.535156	23171.470703
790.306641	23262.673828
789.080078	23231.707031
787.851563	23487.708984
786.621094	23214.570313
785.392578	23309.757813
784.164063	23270.664063
782.935547	23807.083984
781.705078	23469.027344
780.474609	23468.542969
779.246094	23518.867188
778.015625	23599.650391
776.785156	23540.218750
775.552734	23665.650391
774.322266	23750.414063
773.091797	23810.777344
771.859375	23676.232422
770.628906	23586.390625
769.396484	23975.484375
768.164063	23820.693359
766.931641	23663.931641
765.699219	23971.654297
764.464844	23991.328125
763.232422	23781.910156
761.998047	24030.646484
760.765625	23955.046875
759.531250	24017.250000
758.296875	23864.701172
757.062500	23843.857422
755.828125	24124.728516
754.593750	23956.048828
753.357422	23971.626953
752.123047	23813.156250
750.886719	23907.664063
749.652344	24111.369141
748.416016	24054.085938
747.179688	24035.246094
745.943359	23911.279297
744.705078	24418.021484
743.468750	24158.621094
742.232422	24204.425781
740.994141	24155.261719
739.755859	24069.759766
738.517578	23875.242188
737.279297	24011.914063
736.041016	24324.148438
734.802734	24170.054688
733.564453	24350.974609
732.324219	24057.730469
731.085938	24264.820313
729.845703	24421.412109
728.605469	24317.845703
727.365234	24113.527344
726.125000	24415.164063
724.884766	24313.669922
723.642578	24369.357422
722.402344	24255.822266
721.160156	24341.703125
719.919922	24417.482422
718.677734	24281.857422
717.435547	24198.611328
716.193359	24586.275391
714.951172	24283.701172
713.707031	24435.847656
712.464844	24286.263672
711.220703	24327.753906
709.976563	24427.527344
708.734375	24497.111328
707.490234	24383.796875
706.246094	24485.505859
705.000000	24416.427734
703.755859	24556.244141
702.511719	24627.734375
701.265625	24642.982422
700.019531	24754.566406
698.773438	24589.169922
697.527344	24748.871094
696.281250	24623.656250
695.035156	24526.566406
693.789063	24978.943359
692.541016	24613.173828
691.294922	24654.443359
690.046875	24886.080078
688.798828	24795.037109
687.550781	24886.324219
686.302734	24785.298828
685.054688	24978.673828
683.806641	25119.916016
682.556641	25104.972656
681.308594	24875.894531
680.058594	25049.083984
678.808594	25126.179688
677.558594	25057.236328
676.308594	25026.314453
675.058594	24929.423828
673.806641	25018.468750
672.556641	25271.357422
671.304688	25392.267578
670.054688	25325.339844
668.802734	25502.113281
667.550781	25355.310547
666.298828	25486.083984
665.044922	25828.398438
663.792969	25480.039063
662.541016	25285.460938
661.287109	25348.308594
660.033203	25790.103516
658.779297	25583.607422
657.525391	25702.183594
656.271484	25639.308594
655.017578	25771.771484
653.763672	25940.050781
652.507813	26056.462891
651.253906	25786.408203
649.998047	25948.603516
648.742188	25973.351563
647.486328	25888.601563
646.230469	25953.152344
644.974609	25850.527344
643.716797	25859.351563
642.460938	25953.701172
641.203125	26077.843750
639.945313	25826.144531
638.687500	26304.109375
637.429688	25899.421875
636.171875	26420.896484
634.914063	26373.955078
633.656250	26581.283203
632.396484	26681.287109
631.136719	26868.615234
629.878906	26587.365234
628.619141	26762.724609
627.359375	27146.373047
626.097656	27041.806641
624.837891	26976.951172
623.578125	27370.242188
622.316406	27172.496094
621.056641	27319.767578
619.794922	27482.835938
618.533203	27931.193359
617.271484	27929.628906
616.009766	27856.751953
614.746094	28116.621094
613.484375	28172.437500
612.220703	28519.242188
610.958984	28608.601563
609.695313	28945.287109
608.431641	29151.253906
607.167969	29188.998047
605.902344	29351.324219
604.638672	29307.939453
603.375000	29608.558594
602.109375	29940.681641
600.843750	29999.960938
599.580078	30092.802734
598.314453	30302.154297
597.046875	30454.146484
595.781250	30876.593750
594.515625	31425.220703
593.248047	31357.800781
591.982422	31430.519531
590.714844	31664.994141
589.447266	32195.269531
588.179688	31908.826172
586.912109	32247.568359
585.644531	32276.656250
584.375000	32364.863281
583.107422	32121.960938
581.837891	32840.648438
580.568359	32975.964844
579.298828	32827.613281
578.029297	32982.566406
576.759766	33135.484375
575.490234	33518.632813
574.218750	33557.238281
572.949219	33818.160156
571.677734	33573.421875
570.406250	33792.929688
569.134766	33837.343750
567.863281	33696.933594
566.591797	33759.035156
565.320313	33986.187500
564.046875	33902.808594
562.775391	33901.964844
561.501953	34168.226563
560.228516	34214.453125
558.955078	34154.648438
557.681641	34485.468750
556.408203	34229.378906
555.134766	34277.515625
553.859375	34633.613281
552.583984	34175.625000
551.310547	34225.699219
550.035156	34354.167969
548.759766	34219.925781
547.484375	34734.410156
546.207031	34835.265625
544.931641	34900.820313
543.654297	34527.625000
542.378906	34571.667969
541.101563	34705.750000
539.824219	34867.183594
538.546875	35091.171875
537.269531	35221.152344
535.990234	35161.324219
534.712891	34952.875000
533.433594	35170.796875
532.156250	35384.718750
530.876953	35696.289063
529.597656	35499.617188
528.318359	35916.546875
527.039063	35528.460938
525.757813	35537.011719
524.478516	35486.976563
523.197266	35854.761719
521.916016	35486.511719
520.634766	35711.679688
519.353516	36184.558594
518.072266	36070.058594
516.791016	36380.792969
515.509766	36129.796875
514.226563	36415.042969
512.943359	36154.390625
511.662109	36240.730469
510.378906	36330.937500
509.095703	36395.777344
507.810547	36324.253906
506.527344	36714.265625
505.244141	36771.199219
503.958984	36721.050781
502.673828	36719.574219
501.388672	36541.031250
500.103516	36654.363281
498.818359	36512.855469
497.533203	36348.070313
496.248047	36558.578125
494.960938	36784.546875
493.675781	36629.519531
492.388672	36247.214844
491.101563	36651.832031
489.814453	36566.835938
488.527344	36365.363281
487.238281	36313.460938
485.951172	36201.406250
484.662109	36229.125000
483.375000	36229.664063
482.085938	36111.867188
480.796875	35932.050781
479.507813	35959.792969
478.218750	35904.156250
476.927734	35608.179688
475.638672	35360.773438
474.347656	35390.539063
473.058594	35286.625000
471.767578	35060.726563
470.476563	34807.808594
469.185547	34835.718750
467.892578	34822.968750
466.601563	34788.933594
465.308594	34257.640625
464.017578	34579.679688
462.724609	34000.281250
461.431641	34507.886719
460.138672	33951.929688
458.845703	34182.921875
457.550781	34212.828125
456.257813	34043.703125
454.962891	33988.621094
453.669922	33709.511719
452.375000	33573.414063
451.080078	33553.207031
449.785156	33857.296875
448.490234	33671.070313
447.193359	33917.125000
445.898438	33485.957031
444.601563	33326.914063
443.304688	33399.335938
442.007813	33371.472656
440.710938	33565.292969
439.414063	33271.449219
438.117188	33397.769531
436.818359	33635.777344
435.521484	33282.382813
434.222656	33410.550781
432.923828	33128.574219
431.625000	33098.878906
430.326172	33165.414063
429.027344	32979.863281
427.728516	32909.808594
426.427734	32901.332031
425.126953	32914.007813
423.828125	32943.980469
422.527344	33064.289063
421.226563	32805.941406
419.925781	32736.000000
418.623047	32783.269531
417.322266	33120.546875
416.019531	32605.070313
414.718750	32990.246094
413.416016	32647.753906
412.113281	32585.599609
410.810547	32456.310547
409.507813	32816.265625
408.203125	32608.339844
406.900391	32293.109375
405.595703	32810.093750
404.291016	32650.214844
402.988281	32147.343750
401.681641	32160.109375
400.376953	32377.851563
399.072266	32145.398438
397.767578	31775.158203
396.460938	32000.501953
395.154297	31923.310547
393.849609	31817.443359
392.542969	31784.326172
391.236328	31642.177734
389.927734	31985.908203
388.621094	31845.685547
387.314453	31764.789063
386.005859	31668.630859
384.697266	31717.759766
383.388672	31550.949219
382.080078	31577.156250
380.771484	31511.669922
379.462891	31814.771484
378.152344	31510.603516
376.843750	31557.791016
375.533203	31574.423828
374.222656	31425.042969
372.912109	31653.455078
371.601563	31586.132813
370.291016	31366.277344
368.980469	31238.025391
367.667969	31790.351563
366.357422	31282.798828
365.044922	31335.660156
363.732422	31498.994141
362.419922	31235.605469
361.107422	31488.398438
359.794922	31453.591797
358.480469	31628.193359
357.167969	31214.630859
355.853516	31256.011719
354.539063	31365.863281
353.224609	31563.166016
351.910156	31587.335938
350.595703	31757.896484
349.281250	31536.794922
347.964844	31433.615234
346.650391	31547.099609
345.333984	31421.160156
344.017578	31224.990234
342.701172	31439.097656
341.384766	31544.892578
340.066406	31214.033203
338.750000	30938.345703
337.431641	31235.832031
336.115234	31136.685547
334.796875	31212.085938
333.478516	30982.130859
332.160156	30807.250000
330.841797	30837.173828
329.521484	30620.695313
328.203125	31082.689453
326.882813	30816.988281
325.564453	31165.107422
324.244141	30694.962891
322.923828	30910.429688
321.601563	30978.150391
320.281250	30695.697266
318.960938	30706.664063
317.638672	31005.201172
316.318359	30280.281250
314.996094	31009.978516
313.673828	30860.154297
312.351563	30508.111328
311.027344	30692.988281
309.705078	30993.064453
308.382813	30896.261719
307.058594	31192.402344
305.734375	30761.318359
304.410156	30860.992188
303.085938	31166.404297
301.761719	31109.298828
300.437500	30988.056641
299.111328	30885.728516
297.787109	31151.279297
296.460938	31377.119141
295.134766	31278.546875
293.808594	31110.257813
292.482422	31179.529297
291.156250	31418.378906
289.830078	31052.328125
288.501953	31392.832031
287.175781	31390.425781
285.847656	31367.306641
284.519531	31571.996094
283.191406	31292.861328
281.863281	31314.941406
280.533203	31480.007813
279.205078	31251.847656
277.876953	31631.273438
276.546875	31611.900391
275.216797	31586.896484
273.886719	31601.373047
272.556641	31679.744141
271.226563	31731.777344
269.894531	31391.166016
268.564453	31400.037109
267.232422	31339.425781
265.900391	31479.726563
264.570313	31618.097656
263.238281	31668.207031
261.904297	31350.527344
260.572266	32109.800781
259.240234	31756.523438
257.906250	32117.863281
256.572266	31560.355469
