#Wave		#Intensity
1483.837891	5198.031738
1482.740234	5229.893555
1481.640625	5212.968750
1480.542969	5155.100586
1479.443359	5120.000488
1478.343750	4989.400879
1477.244141	5177.166504
1476.144531	5048.879395
1475.044922	5197.924805
1473.943359	5112.857910
1472.843750	5250.475098
1471.744141	5106.371582
1470.642578	5150.823242
1469.541016	5192.987793
1468.439453	5083.030762
1467.339844	5143.350586
1466.236328	5155.991211
1465.134766	5195.854004
1464.033203	5158.572754
1462.931641	5085.017090
1461.828125	5186.097168
1460.726563	5119.365723
1459.623047	5202.267578
1458.519531	5196.750000
1457.416016	5200.298828
1456.312500	5174.394531
1455.208984	5236.837891
1454.105469	5192.819824
1453.001953	5205.423340
1451.896484	5304.046875
1450.792969	5162.716797
1449.687500	5136.849609
1448.582031	5235.430176
1447.478516	5349.808105
1446.373047	5226.669922
1445.267578	5270.908691
1444.160156	5358.085938
1443.054688	5298.306641
1441.949219	5276.968750
1440.841797	5158.479980
1439.736328	5159.767578
1438.628906	5296.574707
1437.521484	5397.199219
1436.414063	5305.871094
1435.306641	5322.932129
1434.199219	5396.411133
1433.091797	5300.621582
1431.982422	5297.369629
1430.875000	5388.857422
1429.765625	5401.376953
1428.658203	5321.442871
1427.548828	5196.450684
1426.439453	5319.445801
1425.330078	5131.400391
1424.220703	5448.132813
1423.111328	5366.012695
1422.000000	5310.951172
1420.890625	5431.558105
1419.781250	5329.224121
1418.669922	5436.275879
1417.558594	5349.733887
1416.447266	5693.013184
1415.335938	5673.949219
1414.224609	5391.717285
1413.113281	5500.906738
1412.001953	5376.208984
1410.890625	5480.864258
1409.777344	5387.684570
1408.666016	5458.589844
1407.552734	5190.196289
1406.439453	5218.429688
1405.326172	5098.416992
1404.212891	5113.184082
1403.099609	5078.552246
1401.986328	5144.946289
1400.871094	5128.275879
1399.757813	5008.392090
1398.642578	5034.379883
1397.529297	4896.613770
1396.414063	5030.259766
1395.298828	5018.110840
1394.183594	5079.946777
1393.068359	5083.482910
1391.953125	4934.631348
1390.837891	5027.815918
1389.720703	4890.230957
1388.605469	4902.758789
1387.488281	5065.315918
1386.373047	5059.895508
1385.255859	5058.954102
1384.138672	4941.633789
1383.021484	4994.417969
1381.904297	5018.099121
1380.785156	4974.666504
1379.667969	4911.123047
1378.550781	4943.750000
1377.431641	4839.995605
1376.312500	4903.915527
1375.195313	5061.670898
1374.076172	4998.169922
1372.957031	5053.089844
1371.837891	4931.543457
1370.716797	5042.281738
1369.597656	5003.391113
1368.478516	4966.746582
1367.357422	4972.520996
1366.238281	4944.821777
1365.117188	4988.524902
1363.996094	4989.830566
1362.875000	4968.833984
1361.753906	5070.482422
1360.632813	4973.680664
1359.511719	5115.411133
1358.388672	4996.352051
1357.267578	5082.322754
1356.144531	4943.264160
1355.021484	4868.848633
1353.900391	4970.383301
1352.777344	5145.354004
1351.654297	4988.578125
1350.531250	5014.362793
1349.406250	5002.309082
1348.283203	4983.584961
1347.160156	5109.454590
1346.035156	5021.773926
1344.910156	5116.459473
1343.787109	4902.088867
1342.662109	5107.899414
1341.537109	5082.509766
1340.412109	4968.251465
1339.287109	5011.764160
1338.160156	5068.587402
1337.035156	4992.146973
1335.908203	5146.645508
1334.783203	5114.616699
1333.656250	5158.062012
1332.529297	5121.604492
1331.402344	5147.282715
1330.275391	5073.130371
1329.148438	5072.194336
1328.021484	4887.211914
1326.894531	5167.871582
1325.765625	5153.618164
1324.638672	4997.533691
1323.509766	5001.043457
1322.380859	5159.628418
1321.251953	5032.423340
1320.123047	5000.491699
1318.994141	4997.355469
1317.865234	5036.281738
1316.736328	4986.660156
1315.605469	5094.174805
1314.476563	5117.573730
1313.345703	5036.994141
1312.214844	5007.313965
1311.083984	4986.489746
1309.953125	5009.891113
1308.822266	5048.756836
1307.691406	4979.314453
1306.560547	5097.719727
1305.429688	5037.130859
1304.296875	5053.874023
1303.166016	4946.937988
1302.033203	5005.644531
1300.900391	4907.586914
1299.767578	5061.189941
1298.634766	5066.878906
1297.501953	4920.322266
1296.369141	5087.074219
1295.234375	4975.857422
1294.101563	4855.860840
1292.966797	4916.701660
1291.833984	5048.061035
1290.699219	4888.445313
1289.564453	4933.821289
1288.429688	4939.522949
1287.294922	4945.223145
1286.160156	4889.254395
1285.025391	4969.827637
1283.888672	5012.944824
1282.753906	4930.580566
1281.617188	4995.696289
1280.480469	4913.365234
1279.343750	4980.660156
1278.208984	4871.967285
1277.070313	4994.222656
1275.933594	4845.990234
1274.796875	4807.728027
1273.660156	4892.562988
1272.521484	4955.392090
1271.384766	4800.683594
1270.246094	5015.078613
1269.107422	4862.611816
1267.968750	4912.224121
1266.830078	4911.321777
1265.691406	4855.541992
1264.552734	4905.127441
1263.414063	5053.437500
1262.273438	5019.601074
1261.134766	4867.328613
1259.994141	4938.806152
1258.853516	4843.613770
1257.712891	4936.991699
1256.572266	5047.870117
1255.431641	4963.667480
1254.291016	4947.417969
1253.150391	4834.785645
1252.007813	4890.844238
1250.867188	4999.438965
1249.724609	5031.362305
1248.582031	4916.607910
1247.441406	4970.420898
1246.298828	4962.943359
1245.156250	5005.788574
1244.011719	4987.370117
1242.869141	4951.461426
1241.726563	5011.777832
1240.582031	4986.809082
1239.439453	5044.910645
1238.294922	5140.143555
1237.150391	5200.380371
1236.005859	5044.316406
1234.861328	5135.127930
1233.716797	5228.089844
1232.572266	5117.958008
1231.427734	5186.875000
1230.281250	5188.105469
1229.136719	5259.166016
1227.990234	5277.836914
1226.843750	5204.880371
1225.697266	5328.243164
1224.550781	5368.696289
1223.404297	5225.996094
1222.257813	5253.374023
1221.111328	5378.815430
1219.962891	5340.784668
1218.816406	5304.945801
1217.667969	5489.120117
1216.519531	5485.934570
1215.373047	5452.265625
1214.224609	5473.034180
1213.074219	5476.382324
1211.925781	5542.839355
1210.777344	5535.293945
1209.628906	5492.943848
1208.478516	5639.836914
1207.330078	5599.657715
1206.179688	5792.134766
1205.029297	5658.467285
1203.878906	5633.520508
1202.728516	5632.485352
1201.578125	5811.778809
1200.427734	5845.466797
1199.275391	5818.330566
1198.125000	5765.147461
1196.972656	5831.390137
1195.822266	5884.584473
1194.669922	5703.373535
1193.517578	5932.328125
1192.365234	5991.981934
1191.212891	6010.402344
1190.058594	6037.489746
1188.906250	5934.473145
1187.753906	5894.360840
1186.599609	6016.821777
1185.445313	6212.916992
1184.292969	5971.276855
1183.138672	6175.972656
1181.984375	6209.491211
1180.830078	6240.831055
1179.673828	6319.790527
1178.519531	6266.676758
1177.365234	6334.780762
1176.208984	6333.615723
1175.054688	6386.537598
1173.898438	6445.928711
1172.742188	6470.694824
1171.585938	6363.553711
1170.429688	6502.904785
1169.273438	6451.994629
1168.115234	6692.847656
1166.958984	6633.278320
1165.800781	6677.423340
1164.644531	6607.078613
1163.486328	6707.358398
1162.328125	6829.191895
1161.169922	6845.204590
1160.011719	6768.404785
1158.853516	6734.790039
1157.695313	6830.637695
1156.535156	6969.591797
1155.376953	6808.712402
1154.216797	6910.961426
1153.058594	7144.683105
1151.898438	7078.702148
1150.738281	7236.876953
1149.578125	7226.924805
1148.417969	7344.081543
1147.255859	7431.039551
1146.095703	7453.359375
1144.933594	7264.663574
1143.773438	7334.365234
1142.611328	7559.008789
1141.449219	7678.124512
1140.287109	7610.011719
1139.125000	7845.234863
1137.962891	7987.889160
1136.800781	7833.741211
1135.638672	7984.943848
1134.474609	8082.351563
1133.312500	8145.335938
1132.148438	8395.239258
1130.984375	8352.872070
1129.820313	8366.367188
1128.656250	8377.708984
1127.492188	8477.081055
1126.328125	8460.489258
1125.162109	8564.101563
1123.998047	8755.660156
1122.832031	8739.025391
1121.667969	8909.028320
1120.501953	8993.175781
1119.335938	8918.605469
1118.169922	9037.023438
1117.003906	9264.721680
1115.837891	9288.729492
1114.669922	9404.869141
1113.503906	9311.006836
1112.335938	9690.569336
1111.169922	9630.954102
1110.001953	9659.152344
1108.833984	9873.592773
1107.666016	10008.756836
1106.498047	10143.870117
1105.330078	10079.944336
1104.160156	10358.324219
1102.992188	10352.130859
1101.822266	10482.801758
1100.654297	10594.181641
1099.484375	10592.221680
1098.314453	10812.540039
1097.144531	10846.866211
1095.974609	11041.416992
1094.804688	11013.740234
1093.632813	10979.666016
1092.462891	11396.154297
1091.291016	11423.933594
1090.121094	11362.051758
1088.949219	11714.211914
1087.777344	11735.513672
1086.605469	11859.207031
1085.433594	12117.228516
1084.261719	12155.501953
1083.087891	12372.860352
1081.916016	12370.567383
1080.742188	12583.541992
1079.570313	12555.637695
1078.396484	12508.567383
1077.222656	12983.407227
1076.048828	12980.999023
1074.875000	12972.203125
1073.701172	13172.050781
1072.525391	13373.952148
1071.351563	13356.573242
1070.175781	13620.069336
1069.001953	13798.371094
1067.826172	13866.001953
1066.650391	13867.680664
1065.474609	14152.145508
1064.298828	14049.603516
1063.123047	14374.310547
1061.945313	14539.518555
1060.769531	14817.270508
1059.591797	14742.292969
1058.416016	14626.989258
1057.238281	14997.999023
1056.060547	15135.333008
1054.882813	15276.861328
1053.705078	15371.645508
1052.525391	15689.190430
1051.347656	15754.159180
1050.169922	16179.689453
1048.990234	15987.936523
1047.810547	16196.992188
1046.632813	16391.128906
1045.453125	16392.316406
1044.273438	16312.976563
1043.093750	16627.748047
1041.912109	16787.763672
1040.732422	16757.103516
1039.550781	16751.863281
1038.371094	17011.269531
1037.189453	17357.363281
1036.007813	17464.177734
1034.826172	17397.443359
1033.644531	17533.828125
1032.462891	17663.814453
1031.281250	17751.457031
1030.099609	17750.259766
1028.916016	17935.093750
1027.734375	17883.134766
1026.550781	18129.154297
1025.367188	18201.832031
1024.183594	18139.287109
1023.000000	18444.255859
1021.816406	18540.056641
1020.632813	18469.035156
1019.447266	18465.585938
1018.263672	18449.472656
1017.078125	18680.240234
1015.892578	18830.753906
1014.707031	18844.109375
1013.521484	18967.117188
1012.335938	18931.945313
1011.150391	18827.216797
1009.964844	19390.662109
1008.777344	18976.113281
1007.591797	19318.091797
1006.404297	19049.058594
1005.218750	19026.539063
1004.031250	19406.216797
1002.843750	19392.056641
1001.656250	19289.494141
1000.466797	19344.806641
999.279297	19294.892578
998.091797	19390.154297
996.902344	19386.519531
995.712891	19086.371094
994.525391	19448.636719
993.335938	19278.919922
992.146484	19437.140625
990.957031	19341.035156
989.765625	19121.005859
988.576172	19235.050781
987.384766	19328.050781
986.195313	19242.531250
985.003906	19369.082031
983.812500	19247.900391
982.621094	19328.230469
981.429688	19150.449219
980.238281	19144.753906
979.046875	19053.064453
977.855469	18915.273438
976.662109	19048.000000
975.470703	18977.339844
974.277344	19124.671875
973.083984	19047.734375
971.890625	19067.197266
970.697266	19071.990234
969.503906	19026.515625
968.308594	19037.591797
967.115234	18879.089844
965.919922	19001.123047
964.726563	19056.140625
963.531250	18845.412109
962.335938	18754.001953
961.140625	18819.490234
959.945313	18803.396484
958.750000	18864.666016
957.552734	18702.244141
956.357422	18865.914063
955.160156	18755.789063
953.964844	18486.927734
952.767578	18470.908203
951.570313	18517.544922
950.373047	18825.158203
949.175781	18729.751953
947.978516	18398.527344
946.779297	18635.033203
945.582031	18310.208984
944.382813	18319.267578
943.183594	18582.763672
941.986328	18385.328125
940.787109	18275.527344
939.585938	18363.787109
938.386719	18447.843750
937.187500	18579.792969
935.988281	18511.697266
934.787109	18545.687500
933.585938	18336.015625
932.386719	18280.494141
931.185547	17881.515625
929.984375	18569.113281
928.783203	18353.347656
927.580078	18293.699219
926.378906	18119.666016
925.175781	18091.277344
923.974609	18177.257813
922.771484	18271.521484
921.568359	18135.033203
920.365234	17957.033203
919.162109	17928.695313
917.958984	17846.355469
916.755859	17778.583984
915.550781	17737.832031
914.347656	17682.562500
913.142578	17722.796875
911.939453	17451.710938
910.734375	17423.496094
909.529297	17557.109375
908.324219	17474.955078
907.117188	17394.904297
905.912109	17217.433594
904.707031	17176.845703
903.500000	17177.726563
902.292969	17128.871094
901.085938	16823.128906
899.878906	17267.355469
898.671875	16559.919922
897.464844	16598.181641
896.257813	16669.550781
895.050781	16455.253906
893.841797	16321.744141
892.632813	16260.702148
891.425781	16135.553711
890.216797	16122.137695
889.007813	16168.694336
887.798828	15855.491211
886.587891	15771.851563
885.378906	15566.308594
884.169922	15666.655273
882.958984	15463.274414
881.748047	15416.948242
880.539063	15159.997070
879.328125	15142.650391
878.117188	15207.882813
876.904297	14891.260742
875.693359	15133.977539
874.482422	14867.004883
873.269531	14713.583984
872.056641	14615.904297
870.845703	14444.029297
869.632813	14488.684570
868.419922	14368.427734
867.207031	14266.762695
865.992188	14076.538086
864.779297	13937.885742
863.566406	13834.298828
862.351563	13827.532227
861.136719	13627.240234
859.921875	13628.748047
858.707031	13562.339844
857.492188	13504.185547
856.277344	13310.276367
855.062500	13396.169922
853.845703	13303.119141
852.630859	13327.297852
851.414063	13176.735352
850.197266	13024.174805
848.982422	13126.474609
847.763672	13072.594727
846.546875	13002.301758
845.330078	13032.665039
844.113281	13180.053711
842.894531	12890.118164
841.677734	12840.435547
840.458984	12710.738281
839.240234	12786.261719
838.021484	12588.929688
836.802734	12799.806641
835.583984	12871.165039
834.363281	12680.078125
833.144531	12714.535156
831.923828	12769.471680
830.703125	12701.449219
829.484375	12553.557617
828.263672	12917.762695
827.042969	12628.588867
825.820313	12572.925781
824.599609	12521.376953
823.378906	12956.935547
822.156250	12956.485352
820.933594	12710.540039
819.712891	12667.182617
818.490234	12754.720703
817.267578	12966.947266
816.044922	12829.528320
814.820313	12933.333008
813.597656	12787.797852
812.373047	12856.836914
811.150391	12766.522461
809.925781	12958.072266
808.701172	12937.194336
807.476563	12910.199219
806.251953	12956.691406
805.027344	13043.978516
803.800781	13169.997070
802.576172	12998.141602
801.349609	13050.696289
800.125000	13084.876953
798.898438	13108.850586
797.671875	13140.966797
796.445313	13034.492188
795.216797	13178.671875
793.990234	12960.186523
792.763672	12921.017578
791.535156	13146.586914
790.306641	13062.604492
789.080078	13102.821289
787.851563	13212.217773
786.621094	13138.441406
785.392578	12965.009766
784.164063	13178.098633
782.935547	13051.496094
781.705078	13236.019531
780.474609	13253.781250
779.246094	12956.513672
778.015625	13000.737305
776.785156	13073.384766
775.552734	13192.720703
774.322266	12950.524414
773.091797	13185.570313
771.859375	12862.266602
770.628906	12835.413086
769.396484	13123.102539
768.164063	13039.399414
766.931641	12965.871094
765.699219	13026.221680
764.464844	12954.749023
763.232422	13268.485352
761.998047	12903.094727
760.765625	13099.181641
759.531250	13240.486328
758.296875	13160.934570
757.062500	12907.237305
755.828125	12943.198242
754.593750	12766.571289
753.357422	12974.594727
752.123047	12789.933594
750.886719	12929.076172
749.652344	12892.168945
748.416016	12822.913086
747.179688	12992.297852
745.943359	12973.591797
744.705078	12952.871094
743.468750	12867.487305
742.232422	12976.110352
740.994141	12935.196289
739.755859	13043.761719
738.517578	12776.677734
737.279297	12640.930664
736.041016	12882.714844
734.802734	13138.531250
733.564453	12768.724609
732.324219	12850.963867
731.085938	12959.390625
729.845703	13061.724609
728.605469	12801.094727
727.365234	12885.275391
726.125000	12977.483398
724.884766	12829.863281
723.642578	12996.587891
722.402344	12844.991211
721.160156	13142.546875
719.919922	13117.828125
718.677734	12998.502930
717.435547	12985.897461
716.193359	13061.835938
714.951172	12896.315430
713.707031	12929.999023
712.464844	13094.390625
711.220703	12914.882813
709.976563	12870.136719
708.734375	13108.808594
707.490234	12979.639648
706.246094	12959.014648
705.000000	12954.466797
703.755859	13014.187500
702.511719	13079.907227
701.265625	13292.153320
700.019531	13106.893555
698.773438	13186.601563
697.527344	13045.574219
696.281250	12972.804688
695.035156	13245.028320
693.789063	13362.742188
692.541016	13195.724609
691.294922	13319.413086
690.046875	13234.632813
688.798828	13310.175781
687.550781	13445.786133
686.302734	13455.162109
685.054688	13532.618164
683.806641	13439.866211
682.556641	13565.332031
681.308594	13502.627930
680.058594	13417.937500
678.808594	13399.295898
677.558594	13580.670898
676.308594	13544.004883
675.058594	13601.320313
673.806641	13672.605469
672.556641	13689.900391
671.304688	13815.087891
670.054688	13826.353516
668.802734	13753.724609
667.550781	14046.566406
666.298828	13842.148438
665.044922	13873.357422
663.792969	13928.502930
662.541016	13971.653320
661.287109	13978.875977
660.033203	13836.500977
658.779297	13991.316406
657.525391	14146.070313
656.271484	14023.676758
655.017578	14120.563477
653.763672	14077.926758
652.507813	14095.073242
651.253906	13968.799805
649.998047	14310.565430
648.742188	14190.270508
647.486328	14123.769531
646.230469	13985.644531
644.974609	14193.811523
643.716797	14254.673828
642.460938	14249.871094
641.203125	14426.041016
639.945313	14238.280273
638.687500	14285.166992
637.429688	14409.546875
636.171875	14309.332031
634.914063	14437.629883
633.656250	14508.272461
632.396484	14408.093750
631.136719	14770.589844
629.878906	14634.664063
628.619141	14635.741211
627.359375	14745.958008
626.097656	14812.482422
624.837891	15045.601563
623.578125	14780.842773
622.316406	15095.169922
621.056641	15038.658203
619.794922	15140.731445
618.533203	15220.963867
617.271484	15215.970703
616.009766	15272.385742
614.746094	15291.148438
613.484375	15666.314453
612.220703	15463.265625
610.958984	15877.833984
609.695313	15660.968750
608.431641	15790.427734
607.167969	15971.264648
605.902344	16243.003906
604.638672	16297.128906
603.375000	16388.792969
602.109375	16707.722656
600.843750	16593.746094
599.580078	16882.871094
598.314453	16909.154297
597.046875	16961.103516
595.781250	17024.876953
594.515625	17064.933594
593.248047	17397.095703
591.982422	17906.732422
590.714844	17605.255859
589.447266	17814.808594
588.179688	17929.607422
586.912109	17937.882813
585.644531	18078.240234
584.375000	17985.955078
583.107422	18327.253906
581.837891	18045.806641
580.568359	18331.798828
579.298828	18286.800781
578.029297	18505.679688
576.759766	18803.220703
575.490234	18618.400391
574.218750	18610.767578
572.949219	18819.566406
571.677734	18837.468750
570.406250	18904.531250
569.134766	18918.472656
567.863281	18981.558594
566.591797	19042.652344
565.320313	18938.642578
564.046875	18877.900391
562.775391	18935.046875
561.501953	19027.521484
560.228516	19214.212891
558.955078	19082.783203
557.681641	19059.361328
556.408203	19096.783203
555.134766	19387.298828
553.859375	19246.126953
552.583984	19461.964844
551.310547	19354.167969
550.035156	19540.488281
548.759766	19622.847656
547.484375	19758.087891
546.207031	19540.587891
544.931641	19679.705078
543.654297	19665.998047
542.378906	19652.294922
541.101563	19527.001953
539.824219	19691.453125
538.546875	19793.212891
537.269531	20041.679688
535.990234	19906.623047
534.712891	20284.050781
533.433594	20062.958984
532.156250	20133.257813
530.876953	20264.123047
529.597656	20379.300781
528.318359	20258.009766
527.039063	20652.494141
525.757813	20533.148438
524.478516	20341.597656
523.197266	20706.539063
521.916016	20848.814453
520.634766	20793.921875
519.353516	20830.755859
518.072266	20707.609375
516.791016	21124.771484
515.509766	21140.064453
514.226563	20989.632813
512.943359	21133.593750
511.662109	20889.675781
510.378906	20869.927734
509.095703	21134.603516
507.810547	21196.615234
506.527344	21112.552734
505.244141	21400.382813
503.958984	21320.205078
502.673828	21491.109375
501.388672	21167.724609
500.103516	21461.146484
498.818359	21281.824219
497.533203	21265.916016
496.248047	21355.000000
494.960938	21181.632813
493.675781	21294.017578
492.388672	21107.128906
491.101563	21262.218750
489.814453	21174.464844
488.527344	21214.908203
487.238281	21323.287109
485.951172	21109.398438
484.662109	21145.947266
483.375000	21073.820313
482.085938	21050.220703
480.796875	20974.263672
479.507813	20861.490234
478.218750	20915.494141
476.927734	20529.462891
475.638672	20573.822266
474.347656	20410.837891
473.058594	20451.324219
471.767578	20360.091797
470.476563	20410.253906
469.185547	20127.390625
467.892578	20131.123047
466.601563	20343.863281
465.308594	20128.902344
464.017578	20128.759766
462.724609	19867.507813
461.431641	19871.281250
460.138672	19749.386719
458.845703	19892.357422
457.550781	19911.583984
456.257813	19911.478516
454.962891	19913.306641
453.669922	19579.060547
452.375000	19501.777344
451.080078	19465.070313
449.785156	19723.710938
448.490234	19511.349609
447.193359	19783.382813
445.898438	19455.345703
444.601563	19395.535156
443.304688	19254.755859
442.007813	19412.869141
440.710938	19160.339844
439.414063	19382.007813
438.117188	19474.486328
436.818359	19166.228516
435.521484	19212.486328
434.222656	19071.935547
432.923828	19204.832031
431.625000	19152.882813
430.326172	19177.935547
429.027344	19272.246094
427.728516	19201.076172
426.427734	19079.925781
425.126953	19145.353516
423.828125	19116.544922
422.527344	18974.337891
421.226563	19085.869141
419.925781	18997.525391
418.623047	19178.166016
417.322266	18859.351563
416.019531	18773.023438
414.718750	18830.722656
413.416016	18874.962891
412.113281	18800.195313
410.810547	18884.718750
409.507813	18786.957031
408.203125	18877.201172
406.900391	19026.855469
405.595703	18743.148438
404.291016	18760.503906
402.988281	18480.794922
401.681641	18496.277344
400.376953	18793.369141
399.072266	18559.787109
397.767578	18328.212891
396.460938	18259.470703
395.154297	18506.599609
393.849609	18543.109375
392.542969	18526.027344
391.236328	18375.037109
389.927734	18275.748047
388.621094	18245.341797
387.314453	18224.507813
386.005859	18150.158203
384.697266	18307.087891
383.388672	18303.449219
382.080078	18162.261719
380.771484	18468.076172
379.462891	18206.603516
378.152344	18187.712891
376.843750	18054.294922
375.533203	18086.968750
374.222656	18255.109375
372.912109	18415.548828
371.601563	18318.431641
370.291016	18318.607422
368.980469	18130.027344
367.667969	18328.490234
366.357422	18267.675781
365.044922	18189.736328
363.732422	18121.351563
362.419922	17906.332031
361.107422	18127.490234
359.794922	18266.691406
358.480469	18027.023438
357.167969	18244.220703
355.853516	18177.808594
354.539063	18257.912109
353.224609	17978.488281
351.910156	18075.714844
350.595703	18129.171875
349.281250	18000.115234
347.964844	18182.804688
346.650391	18205.804688
345.333984	18126.203125
344.017578	18304.958984
342.701172	18016.472656
341.384766	17855.312500
340.066406	18233.339844
338.750000	18038.037109
337.431641	17930.099609
336.115234	18099.195313
334.796875	18103.199219
333.478516	18033.242188
332.160156	17881.781250
330.841797	17900.992188
329.521484	17755.302734
328.203125	17789.689453
326.882813	17854.376953
325.564453	17790.232422
324.244141	17697.707031
322.923828	17762.373047
321.601563	17842.158203
320.281250	17931.375000
318.960938	17630.738281
317.638672	17859.964844
316.318359	17703.220703
314.996094	17486.019531
313.673828	17926.912109
312.351563	17721.095703
311.027344	17732.718750
309.705078	17715.992188
308.382813	17916.544922
307.058594	17775.117188
305.734375	17881.148438
304.410156	17917.275391
303.085938	17909.968750
301.761719	17719.578125
300.437500	17919.894531
299.111328	17893.722656
297.787109	18033.560547
296.460938	17824.437500
295.134766	17990.632813
293.808594	17881.517578
292.482422	18123.031250
291.156250	18079.890625
289.830078	17961.400391
288.501953	17884.402344
287.175781	18024.021484
285.847656	18003.531250
284.519531	17932.216797
283.191406	17960.691406
281.863281	18175.462891
280.533203	18089.103516
279.205078	18190.896484
277.876953	18095.166016
276.546875	18112.296875
275.216797	17956.457031
273.886719	18219.849609
272.556641	18116.671875
271.226563	17953.406250
269.894531	18150.894531
268.564453	18226.220703
267.232422	18166.312500
265.900391	17866.111328
264.570313	17736.843750
263.238281	18114.349609
261.904297	18112.677734
260.572266	18050.976563
259.240234	18345.669922
257.906250	18087.042969
256.572266	18019.757813
