#Wave		#Intensity
1483.837891	10198.064453
1482.740234	10084.272461
1481.640625	10073.248047
1480.542969	10160.052734
1479.443359	10249.098633
1478.343750	10272.162109
1477.244141	10224.733398
1476.144531	10222.787109
1475.044922	10277.663086
1473.943359	10184.813477
1472.843750	10132.894531
1471.744141	10378.564453
1470.642578	10113.146484
1469.541016	10147.556641
1468.439453	10320.437500
1467.339844	10195.910156
1466.236328	10257.517578
1465.134766	10382.631836
1464.033203	10212.794922
1462.931641	10174.570313
1461.828125	10256.544922
1460.726563	10333.955078
1459.623047	10275.328125
1458.519531	10246.187500
1457.416016	10142.282227
1456.312500	10385.037109
1455.208984	10342.301758
1454.105469	10528.311523
1453.001953	10306.693359
1451.896484	10424.726563
1450.792969	10443.127930
1449.687500	10359.690430
1448.582031	10400.722656
1447.478516	10387.450195
1446.373047	10347.041992
1445.267578	10297.605469
1444.160156	10368.009766
1443.054688	10273.379883
1441.949219	10452.240234
1440.841797	10339.554688
1439.736328	10441.526367
1438.628906	10283.712891
1437.521484	10462.436523
1436.414063	10609.484375
1435.306641	10381.749023
1434.199219	10461.047852
1433.091797	10418.462891
1431.982422	10484.189453
1430.875000	10525.077148
1429.765625	10396.805664
1428.658203	10505.340820
1427.548828	10359.084961
1426.439453	10312.060547
1425.330078	10420.551758
1424.220703	10652.924805
1423.111328	10759.058594
1422.000000	10637.668945
1420.890625	10649.186523
1419.781250	10419.792969
1418.669922	10658.702148
1417.558594	10611.693359
1416.447266	10798.723633
1415.335938	10753.956055
1414.224609	10515.760742
1413.113281	10414.839844
1412.001953	10403.897461
1410.890625	10422.184570
1409.777344	10505.648438
1408.666016	10553.124023
1407.552734	10279.284180
1406.439453	10358.235352
1405.326172	10160.898438
1404.212891	10066.932617
1403.099609	10159.349609
1401.986328	10267.445313
1400.871094	10218.398438
1399.757813	10041.467773
1398.642578	9987.994141
1397.529297	9903.138672
1396.414063	9937.173828
1395.298828	9868.054688
1394.183594	9886.391602
1393.068359	9978.688477
1391.953125	10066.468750
1390.837891	10095.961914
1389.720703	9932.791016
1388.605469	9843.592773
1387.488281	10000.751953
1386.373047	9947.396484
1385.255859	10064.184570
1384.138672	9981.742188
1383.021484	10076.104492
1381.904297	10051.858398
1380.785156	10070.121094
1379.667969	9958.666016
1378.550781	10028.367188
1377.431641	9885.663086
1376.312500	9803.361328
1375.195313	9978.083984
1374.076172	9962.825195
1372.957031	9882.789063
1371.837891	9981.461914
1370.716797	10008.639648
1369.597656	9910.777344
1368.478516	10058.499023
1367.357422	9978.519531
1366.238281	9916.420898
1365.117188	10037.287109
1363.996094	10120.188477
1362.875000	10104.931641
1361.753906	10230.155273
1360.632813	10067.746094
1359.511719	9996.784180
1358.388672	10021.674805
1357.267578	10006.450195
1356.144531	10178.357422
1355.021484	10265.564453
1353.900391	10098.875000
1352.777344	10021.305664
1351.654297	10063.972656
1350.531250	10286.899414
1349.406250	10149.257813
1348.283203	10076.186523
1347.160156	10143.279297
1346.035156	10325.995117
1344.910156	10252.930664
1343.787109	10342.185547
1342.662109	10340.273438
1341.537109	10193.910156
1340.412109	10245.352539
1339.287109	10116.832031
1338.160156	10046.108398
1337.035156	10193.040039
1335.908203	10193.377930
1334.783203	10056.082031
1333.656250	10440.414063
1332.529297	10385.229492
1331.402344	10250.192383
1330.275391	10292.665039
1329.148438	10426.053711
1328.021484	10193.517578
1326.894531	10439.942383
1325.765625	10360.435547
1324.638672	10207.822266
1323.509766	10420.871094
1322.380859	10232.857422
1321.251953	10401.523438
1320.123047	10428.394531
1318.994141	10388.831055
1317.865234	10311.648438
1316.736328	10252.201172
1315.605469	10166.219727
1314.476563	10363.473633
1313.345703	10169.109375
1312.214844	10262.339844
1311.083984	10244.969727
1309.953125	10309.409180
1308.822266	10296.458008
1307.691406	10175.216797
1306.560547	10308.132813
1305.429688	10341.583008
1304.296875	10277.831055
1303.166016	10090.428711
1302.033203	10258.589844
1300.900391	10216.963867
1299.767578	10378.418945
1298.634766	10149.205078
1297.501953	10379.011719
1296.369141	9980.018555
1295.234375	10344.313477
1294.101563	10150.557617
1292.966797	10234.676758
1291.833984	10122.574219
1290.699219	10354.334961
1289.564453	10365.651367
1288.429688	10218.335938
1287.294922	10148.169922
1286.160156	10223.386719
1285.025391	10302.979492
1283.888672	10142.572266
1282.753906	10213.345703
1281.617188	10072.820313
1280.480469	10103.973633
1279.343750	9976.719727
1278.208984	10144.250000
1277.070313	10201.761719
1275.933594	9999.801758
1274.796875	10162.837891
1273.660156	10149.980469
1272.521484	10082.189453
1271.384766	10073.745117
1270.246094	10129.008789
1269.107422	10124.951172
1267.968750	10076.976563
1266.830078	10081.711914
1265.691406	9928.397461
1264.552734	10099.954102
1263.414063	10212.201172
1262.273438	10304.662109
1261.134766	10261.092773
1259.994141	10169.291016
1258.853516	10062.174805
1257.712891	10213.785156
1256.572266	10102.315430
1255.431641	10032.524414
1254.291016	10124.897461
1253.150391	10315.816406
1252.007813	10309.541016
1250.867188	10193.774414
1249.724609	10336.406250
1248.582031	10183.463867
1247.441406	10234.121094
1246.298828	10223.488281
1245.156250	10333.190430
1244.011719	10501.914063
1242.869141	10405.942383
1241.726563	10463.070313
1240.582031	10375.885742
1239.439453	10459.227539
1238.294922	10442.008789
1237.150391	10569.008789
1236.005859	10363.896484
1234.861328	10656.865234
1233.716797	10578.473633
1232.572266	10528.496094
1231.427734	10685.923828
1230.281250	10697.056641
1229.136719	10684.181641
1227.990234	10647.310547
1226.843750	10494.836914
1225.697266	10673.934570
1224.550781	10739.573242
1223.404297	10663.473633
1222.257813	10816.282227
1221.111328	10676.993164
1219.962891	10925.619141
1218.816406	10871.326172
1217.667969	10738.635742
1216.519531	10900.000977
1215.373047	10991.627930
1214.224609	10913.413086
1213.074219	11052.889648
1211.925781	11109.617188
1210.777344	11183.730469
1209.628906	11312.201172
1208.478516	11012.145508
1207.330078	11107.980469
1206.179688	11032.016602
1205.029297	11319.108398
1203.878906	11080.125977
1202.728516	11388.833008
1201.578125	11304.180664
1200.427734	11419.404297
1199.275391	11456.399414
1198.125000	11606.294922
1196.972656	11345.809570
1195.822266	11374.113281
1194.669922	11382.875000
1193.517578	11441.538086
1192.365234	11296.252930
1191.212891	11565.306641
1190.058594	11552.337891
1188.906250	11539.373047
1187.753906	11582.777344
1186.599609	11550.303711
1185.445313	11682.537109
1184.292969	11520.057617
1183.138672	11793.053711
1181.984375	11769.227539
1180.830078	11974.946289
1179.673828	11994.395508
1178.519531	11974.873047
1177.365234	11786.544922
1176.208984	11886.078125
1175.054688	11916.344727
1173.898438	11994.186523
1172.742188	12035.233398
1171.585938	12158.430664
1170.429688	11916.226563
1169.273438	12093.436523
1168.115234	11987.480469
1166.958984	12095.469727
1165.800781	12140.770508
1164.644531	12345.884766
1163.486328	12360.888672
1162.328125	12367.250000
1161.169922	12775.125000
1160.011719	12569.894531
1158.853516	12533.053711
1157.695313	12401.296875
1156.535156	12854.162109
1155.376953	12655.535156
1154.216797	12711.425781
1153.058594	12836.283203
1151.898438	12816.675781
1150.738281	12805.694336
1149.578125	13025.271484
1148.417969	13100.427734
1147.255859	13233.711914
1146.095703	13220.505859
1144.933594	13263.286133
1143.773438	13364.173828
1142.611328	13251.941406
1141.449219	13492.668945
1140.287109	13711.791016
1139.125000	13464.032227
1137.962891	13706.736328
1136.800781	13674.104492
1135.638672	13834.979492
1134.474609	13817.381836
1133.312500	13941.633789
1132.148438	14089.476563
1130.984375	14127.697266
1129.820313	14200.270508
1128.656250	14442.474609
1127.492188	14390.424805
1126.328125	14355.567383
1125.162109	14348.625977
1123.998047	14803.074219
1122.832031	14637.276367
1121.667969	14840.514648
1120.501953	14754.126953
1119.335938	14940.111328
1118.169922	15048.840820
1117.003906	15262.567383
1115.837891	15328.332031
1114.669922	15424.070313
1113.503906	15412.651367
1112.335938	15281.282227
1111.169922	15565.438477
1110.001953	15780.968750
1108.833984	15867.967773
1107.666016	16064.096680
1106.498047	16138.169922
1105.330078	16130.906250
1104.160156	16202.798828
1102.992188	16458.605469
1101.822266	16201.083008
1100.654297	16491.003906
1099.484375	16823.568359
1098.314453	16831.142578
1097.144531	16697.677734
1095.974609	17038.564453
1094.804688	16892.292969
1093.632813	17006.628906
1092.462891	17176.441406
1091.291016	17158.316406
1090.121094	17379.263672
1088.949219	17732.445313
1087.777344	17475.246094
1086.605469	17627.744141
1085.433594	17692.732422
1084.261719	17821.671875
1083.087891	18020.923828
1081.916016	18288.316406
1080.742188	18220.984375
1079.570313	18219.738281
1078.396484	18576.425781
1077.222656	18713.574219
1076.048828	18590.835938
1074.875000	18642.751953
1073.701172	19031.027344
1072.525391	19155.210938
1071.351563	19362.349609
1070.175781	19292.792969
1069.001953	19495.572266
1067.826172	19383.474609
1066.650391	19703.123047
1065.474609	19767.501953
1064.298828	19814.851563
1063.123047	19985.457031
1061.945313	19958.369141
1060.769531	20269.109375
1059.591797	20343.939453
1058.416016	20187.240234
1057.238281	20618.798828
1056.060547	20396.289063
1054.882813	20944.392578
1053.705078	20707.046875
1052.525391	21076.646484
1051.347656	20970.894531
1050.169922	21253.341797
1048.990234	21251.507813
1047.810547	21582.560547
1046.632813	21627.302734
1045.453125	21629.634766
1044.273438	21795.136719
1043.093750	21937.271484
1041.912109	22267.880859
1040.732422	22507.296875
1039.550781	22500.986328
1038.371094	22416.341797
1037.189453	22329.611328
1036.007813	22759.304688
1034.826172	22926.455078
1033.644531	22936.988281
1032.462891	23095.580078
1031.281250	23345.046875
1030.099609	23258.232422
1028.916016	23329.996094
1027.734375	23361.574219
1026.550781	23841.138672
1025.367188	23788.093750
1024.183594	23760.417969
1023.000000	23872.142578
1021.816406	24173.869141
1020.632813	24228.468750
1019.447266	24188.060547
1018.263672	24219.417969
1017.078125	24398.466797
1015.892578	24457.197266
1014.707031	24469.500000
1013.521484	24730.642578
1012.335938	24626.919922
1011.150391	24887.931641
1009.964844	24756.816406
1008.777344	24722.683594
1007.591797	24903.462891
1006.404297	24928.294922
1005.218750	24902.568359
1004.031250	24900.011719
1002.843750	25038.511719
1001.656250	24928.576172
1000.466797	25426.888672
999.279297	25104.402344
998.091797	25278.515625
996.902344	25309.535156
995.712891	25571.867188
994.525391	25152.869141
993.335938	25219.626953
992.146484	25631.048828
990.957031	25321.542969
989.765625	25592.019531
988.576172	25396.066406
987.384766	25225.384766
986.195313	25413.832031
985.003906	25369.171875
983.812500	25744.330078
982.621094	25559.013672
981.429688	25547.919922
980.238281	25492.773438
979.046875	25557.197266
977.855469	25554.492188
976.662109	25717.419922
975.470703	25526.019531
974.277344	25449.960938
973.083984	25600.240234
971.890625	25647.800781
970.697266	25852.443359
969.503906	25749.148438
968.308594	25446.970703
967.115234	25519.640625
965.919922	25650.886719
964.726563	25817.658203
963.531250	25791.873047
962.335938	25617.570313
961.140625	25631.568359
959.945313	25833.759766
958.750000	25632.361328
957.552734	25840.744141
956.357422	25689.576172
955.160156	25864.433594
953.964844	25723.759766
952.767578	25672.955078
951.570313	25958.394531
950.373047	25826.128906
949.175781	25614.583984
947.978516	25862.296875
946.779297	25753.074219
945.582031	25867.134766
944.382813	25691.197266
943.183594	25563.292969
941.986328	25754.472656
940.787109	25949.748047
939.585938	25959.433594
938.386719	26360.912109
937.187500	26012.126953
935.988281	26019.705078
934.787109	25898.144531
933.585938	26241.013672
932.386719	26213.144531
931.185547	26291.449219
929.984375	26221.953125
928.783203	26133.751953
927.580078	26116.320313
926.378906	26061.451172
925.175781	26081.468750
923.974609	25928.896484
922.771484	25963.480469
921.568359	25971.031250
920.365234	25914.152344
919.162109	25547.714844
917.958984	25765.142578
916.755859	25905.640625
915.550781	25487.492188
914.347656	25812.761719
913.142578	26112.998047
911.939453	25582.974609
910.734375	25783.537109
909.529297	25484.050781
908.324219	25578.769531
907.117188	25522.064453
905.912109	25724.554688
904.707031	25332.013672
903.500000	25511.658203
902.292969	25100.654297
901.085938	25402.509766
899.878906	24962.679688
898.671875	24873.017578
897.464844	24582.537109
896.257813	24795.232422
895.050781	24469.685547
893.841797	24332.582031
892.632813	24553.474609
891.425781	24221.949219
890.216797	23905.025391
889.007813	23952.166016
887.798828	23724.312500
886.587891	24019.517578
885.378906	23769.001953
884.169922	23491.716797
882.958984	23392.205078
881.748047	23323.710938
880.539063	23137.529297
879.328125	22798.628906
878.117188	22984.195313
876.904297	22721.814453
875.693359	22729.857422
874.482422	22168.466797
873.269531	22329.250000
872.056641	22162.058594
870.845703	22116.582031
869.632813	21640.255859
868.419922	21732.994141
867.207031	21491.847656
865.992188	21324.966797
864.779297	21368.267578
863.566406	21203.529297
862.351563	20898.828125
861.136719	20962.767578
859.921875	20604.707031
858.707031	20611.050781
857.492188	20430.148438
856.277344	20325.429688
855.062500	20239.261719
853.845703	20029.738281
852.630859	19921.041016
851.414063	19964.501953
850.197266	19722.261719
848.982422	19681.492188
847.763672	19566.775391
846.546875	19509.615234
845.330078	19672.218750
844.113281	19348.128906
842.894531	19215.082031
841.677734	19133.398438
840.458984	19154.347656
839.240234	19320.960938
838.021484	19003.396484
836.802734	18913.605469
835.583984	18700.816406
834.363281	18775.126953
833.144531	18669.029297
831.923828	18653.142578
830.703125	18696.679688
829.484375	18543.539063
828.263672	18499.005859
827.042969	18503.636719
825.820313	18616.775391
824.599609	18496.511719
823.378906	18480.669922
822.156250	18714.468750
820.933594	18539.015625
819.712891	18461.808594
818.490234	18484.835938
817.267578	18419.933594
816.044922	18510.417969
814.820313	18784.808594
813.597656	18683.099609
812.373047	18550.783203
811.150391	18637.080078
809.925781	18635.525391
808.701172	18968.833984
807.476563	18899.845703
806.251953	18847.210938
805.027344	18743.578125
803.800781	19029.675781
802.576172	18942.363281
801.349609	19097.783203
800.125000	19226.632813
798.898438	19171.949219
797.671875	19274.234375
796.445313	19080.980469
795.216797	19270.853516
793.990234	19405.648438
792.763672	19408.003906
791.535156	19371.666016
790.306641	19431.031250
789.080078	19394.699219
787.851563	19539.509766
786.621094	19588.628906
785.392578	19633.660156
784.164063	19564.767578
782.935547	19652.486328
781.705078	19831.664063
780.474609	19815.623047
779.246094	19785.359375
778.015625	20350.482422
776.785156	19850.822266
775.552734	20066.341797
774.322266	20295.992188
773.091797	20464.638672
771.859375	20314.503906
770.628906	20349.123047
769.396484	20404.019531
768.164063	20467.007813
766.931641	20422.462891
765.699219	20710.535156
764.464844	20552.408203
763.232422	20811.958984
761.998047	20826.154297
760.765625	20854.529297
759.531250	21018.638672
758.296875	20698.542969
757.062500	21095.525391
755.828125	21008.398438
754.593750	21008.359375
753.357422	21048.800781
752.123047	21267.312500
750.886719	21062.861328
749.652344	21107.310547
748.416016	21010.162109
747.179688	21341.744141
745.943359	21386.109375
744.705078	21299.064453
743.468750	21492.966797
742.232422	21359.460938
740.994141	21545.193359
739.755859	21316.794922
738.517578	21686.224609
737.279297	21472.017578
736.041016	21677.761719
734.802734	21554.457031
733.564453	21685.443359
732.324219	21606.564453
731.085938	21652.771484
729.845703	21632.410156
728.605469	21751.175781
727.365234	21569.531250
726.125000	21609.656250
724.884766	21863.361328
723.642578	21814.765625
722.402344	21812.513672
721.160156	21921.027344
719.919922	21888.550781
718.677734	21709.130859
717.435547	21942.382813
716.193359	21855.583984
714.951172	21947.878906
713.707031	21883.238281
712.464844	22082.078125
711.220703	22047.593750
709.976563	21978.945313
708.734375	21992.730469
707.490234	21883.925781
706.246094	21931.876953
705.000000	21726.703125
703.755859	21838.929688
702.511719	21987.255859
701.265625	22133.513672
700.019531	21944.513672
698.773438	21651.232422
697.527344	21990.078125
696.281250	21849.357422
695.035156	21728.746094
693.789063	22095.445313
692.541016	22042.994141
691.294922	21844.238281
690.046875	22016.304688
688.798828	21905.789063
687.550781	22264.074219
686.302734	21987.314453
685.054688	22015.033203
683.806641	22040.740234
682.556641	21938.326172
681.308594	21944.021484
680.058594	21891.687500
678.808594	21947.398438
677.558594	22037.087891
676.308594	22166.734375
675.058594	22362.306641
673.806641	21926.140625
672.556641	21863.871094
671.304688	22301.156250
670.054688	22196.880859
668.802734	22238.451172
667.550781	22256.039063
666.298828	22261.640625
665.044922	22676.453125
663.792969	22480.392578
662.541016	22324.316406
661.287109	22204.208984
660.033203	22331.478516
658.779297	22680.050781
657.525391	22434.330078
656.271484	22513.632813
655.017578	22479.298828
653.763672	22982.988281
652.507813	22767.279297
651.253906	22617.384766
649.998047	22770.248047
648.742188	22769.740234
647.486328	22765.248047
646.230469	22864.250000
644.974609	23170.158203
643.716797	22813.447266
642.460938	23164.992188
641.203125	22927.740234
639.945313	22937.132813
638.687500	23071.757813
637.429688	23238.126953
636.171875	23169.949219
634.914063	23475.304688
633.656250	23653.410156
632.396484	23714.273438
631.136719	23302.546875
629.878906	23951.060547
628.619141	23872.890625
627.359375	23806.656250
626.097656	23988.443359
624.837891	23803.193359
623.578125	24183.228516
622.316406	24527.419922
621.056641	24401.640625
619.794922	24301.675781
618.533203	24489.085938
617.271484	24947.853516
616.009766	24705.212891
614.746094	25191.478516
613.484375	25269.654297
612.220703	25415.107422
610.958984	25461.537109
609.695313	25604.912109
608.431641	25722.509766
607.167969	25921.160156
605.902344	26137.531250
604.638672	26075.009766
603.375000	26307.076172
602.109375	26505.447266
600.843750	26842.070313
599.580078	26755.744141
598.314453	27070.451172
597.046875	27308.007813
595.781250	27723.179688
594.515625	27636.742188
593.248047	27826.667969
591.982422	27996.785156
590.714844	27975.447266
589.447266	28289.464844
588.179688	28378.521484
586.912109	28682.470703
585.644531	28722.123047
584.375000	29016.027344
583.107422	29053.623047
581.837891	29317.787109
580.568359	29449.859375
579.298828	29310.087891
578.029297	29264.888672
576.759766	29682.351563
575.490234	29672.523438
574.218750	30003.148438
572.949219	29859.460938
571.677734	29955.824219
570.406250	29979.375000
569.134766	30105.167969
567.863281	30232.875000
566.591797	30181.660156
565.320313	30330.914063
564.046875	30533.158203
562.775391	30232.427734
561.501953	30357.302734
560.228516	30482.179688
558.955078	30607.054688
557.681641	30624.525391
556.408203	30585.076172
555.134766	30441.650391
553.859375	30871.093750
552.583984	30562.914063
551.310547	30725.476563
550.035156	30695.839844
548.759766	30613.289063
547.484375	30967.792969
546.207031	30802.925781
544.931641	31016.203125
543.654297	30757.376953
542.378906	30964.701172
541.101563	31074.048828
539.824219	31075.697266
538.546875	30666.369141
537.269531	31016.371094
535.990234	31151.048828
534.712891	31105.732422
533.433594	31134.740234
532.156250	31101.171875
530.876953	31098.890625
529.597656	31354.574219
528.318359	31352.240234
527.039063	31781.632813
525.757813	31400.306641
524.478516	31470.210938
523.197266	31424.898438
521.916016	31664.587891
520.634766	31589.976563
519.353516	31765.146484
518.072266	31639.822266
516.791016	31551.603516
515.509766	31516.070313
514.226563	31860.724609
512.943359	31932.347656
511.662109	31961.068359
510.378906	32030.691406
509.095703	31965.869141
507.810547	32076.361328
506.527344	31990.132813
505.244141	32067.476563
503.958984	32146.734375
502.673828	31998.261719
501.388672	32291.531250
500.103516	32290.933594
498.818359	32337.013672
497.533203	32083.609375
496.248047	32384.398438
494.960938	32335.181641
493.675781	32437.568359
492.388672	32339.783203
491.101563	32257.574219
489.814453	32408.468750
488.527344	32157.335938
487.238281	32205.287109
485.951172	32022.230469
484.662109	31784.904297
483.375000	32021.109375
482.085938	32117.542969
480.796875	31967.615234
479.507813	31866.226563
478.218750	31483.751953
476.927734	31388.312500
475.638672	31422.753906
474.347656	31495.933594
473.058594	31489.654297
471.767578	31353.609375
470.476563	30857.437500
469.185547	31139.761719
467.892578	30930.308594
466.601563	30871.890625
465.308594	30548.410156
464.017578	30671.935547
462.724609	30656.152344
461.431641	30369.646484
460.138672	30446.728516
458.845703	30353.675781
457.550781	30363.085938
456.257813	30250.763672
454.962891	30182.916016
453.669922	30132.476563
452.375000	29769.224609
451.080078	29940.914063
449.785156	29948.458984
448.490234	29871.083984
447.193359	29905.652344
445.898438	29768.511719
444.601563	29762.578125
443.304688	29621.662109
442.007813	29810.486328
440.710938	29658.048828
439.414063	29794.751953
438.117188	29613.474609
436.818359	29536.294922
435.521484	29671.013672
434.222656	29707.466797
432.923828	29724.652344
431.625000	29763.003906
430.326172	29612.734375
429.027344	29783.857422
427.728516	29372.009766
426.427734	29454.634766
425.126953	29823.751953
423.828125	29414.064453
422.527344	28973.781250
421.226563	29310.099609
419.925781	29454.136719
418.623047	29377.191406
417.322266	29617.191406
416.019531	29440.386719
414.718750	29323.167969
413.416016	29121.537109
412.113281	29111.900391
410.810547	29044.703125
409.507813	29236.517578
408.203125	29293.994141
406.900391	29272.822266
405.595703	29021.585938
404.291016	29284.173828
402.988281	28852.884766
401.681641	28747.503906
400.376953	28983.167969
399.072266	28692.013672
397.767578	28657.580078
396.460938	28418.298828
395.154297	28318.849609
393.849609	28428.046875
392.542969	28472.142578
391.236328	28468.394531
389.927734	28470.384766
388.621094	28567.988281
387.314453	28178.009766
386.005859	28332.978516
384.697266	28367.480469
383.388672	28306.429688
382.080078	28044.808594
380.771484	28291.359375
379.462891	28006.927734
378.152344	27839.076172
376.843750	28169.509766
375.533203	27946.343750
374.222656	28026.658203
372.912109	28139.371094
371.601563	28248.226563
370.291016	28107.218750
368.980469	28183.623047
367.667969	28294.308594
366.357422	28176.246094
365.044922	28225.912109
363.732422	28109.814453
362.419922	28172.804688
361.107422	28388.119141
359.794922	28176.857422
358.480469	28045.630859
357.167969	28224.679688
355.853516	28161.996094
354.539063	28342.853516
353.224609	28316.310547
351.910156	28261.251953
350.595703	28267.056641
349.281250	27959.203125
347.964844	28198.835938
346.650391	28337.664063
345.333984	28079.373047
344.017578	28081.406250
342.701172	27918.222656
341.384766	28178.509766
340.066406	28072.318359
338.750000	27808.640625
337.431641	27888.525391
336.115234	27981.658203
334.796875	27841.447266
333.478516	27985.755859
332.160156	27610.486328
330.841797	27893.169922
329.521484	27616.621094
328.203125	27559.996094
326.882813	27537.496094
325.564453	27577.511719
324.244141	27528.503906
322.923828	27729.447266
321.601563	27587.667969
320.281250	27582.216797
318.960938	27631.644531
317.638672	27769.974609
316.318359	27459.947266
314.996094	27668.230469
313.673828	27630.625000
312.351563	27627.062500
311.027344	27689.652344
309.705078	27871.269531
308.382813	27947.013672
307.058594	27964.167969
305.734375	27716.914063
304.410156	27550.951172
303.085938	27755.070313
301.761719	28113.882813
300.437500	27940.390625
299.111328	27904.699219
297.787109	28293.449219
296.460938	28404.808594
295.134766	28254.023438
293.808594	28208.871094
292.482422	28429.503906
291.156250	28299.531250
289.830078	28348.603516
288.501953	28265.792969
287.175781	28729.197266
285.847656	28450.511719
284.519531	28168.169922
283.191406	28431.798828
281.863281	28635.103516
280.533203	28554.216797
279.205078	28317.224609
277.876953	28772.460938
276.546875	28565.605469
275.216797	28353.191406
273.886719	28810.031250
272.556641	28659.671875
271.226563	28569.498047
269.894531	28687.880859
268.564453	28860.687500
267.232422	28537.673828
265.900391	28879.416016
264.570313	28920.685547
263.238281	28903.759766
261.904297	28669.181641
260.572266	28946.847656
259.240234	28944.933594
257.906250	29033.033203
256.572266	28965.480469
