#Wave		#Intensity
1483.837891	9931.791016
1482.740234	9963.652344
1481.640625	9788.821289
1480.542969	10119.103516
1479.443359	9880.623047
1478.343750	9878.741211
1477.244141	9835.934570
1476.144531	9745.406250
1475.044922	9948.105469
1473.943359	10066.649414
1472.843750	10048.832031
1471.744141	9956.061523
1470.642578	9951.899414
1469.541016	9847.830078
1468.439453	10113.846680
1467.339844	10114.197266
1466.236328	10021.503906
1465.134766	10040.023438
1464.033203	9902.009766
1462.931641	9952.298828
1461.828125	9886.918945
1460.726563	9957.597656
1459.623047	10121.187500
1458.519531	10055.813477
1457.416016	9965.540039
1456.312500	10047.477539
1455.208984	10029.722656
1454.105469	9959.886719
1453.001953	10019.138672
1451.896484	10103.269531
1450.792969	10114.941406
1449.687500	10006.673828
1448.582031	9995.735352
1447.478516	10075.283203
1446.373047	10055.290039
1445.267578	10062.438477
1444.160156	10105.756836
1443.054688	10065.425781
1441.949219	9884.994141
1440.841797	10163.312500
1439.736328	10073.293945
1438.628906	10161.744141
1437.521484	10356.298828
1436.414063	10241.459961
1435.306641	10237.276367
1434.199219	10278.233398
1433.091797	10301.123047
1431.982422	10186.380859
1430.875000	10191.234375
1429.765625	10166.767578
1428.658203	10227.994141
1427.548828	10165.204102
1426.439453	10165.550781
1425.330078	10089.275391
1424.220703	10314.951172
1423.111328	10466.203125
1422.000000	10448.474609
1420.890625	10376.708008
1419.781250	10295.961914
1418.669922	10431.346680
1417.558594	10400.134766
1416.447266	10557.952148
1415.335938	10407.490234
1414.224609	10113.125000
1413.113281	10284.401367
1412.001953	10217.270508
1410.890625	10210.863281
1409.777344	10105.561523
1408.666016	10292.442383
1407.552734	10126.500000
1406.439453	9816.848633
1405.326172	9990.202148
1404.212891	9822.164063
1403.099609	9966.265625
1401.986328	9971.139648
1400.871094	9949.080078
1399.757813	10079.614258
1398.642578	10048.568359
1397.529297	9954.728516
1396.414063	9773.460938
1395.298828	9856.843750
1394.183594	9985.032227
1393.068359	9859.894531
1391.953125	9707.912109
1390.837891	9674.736328
1389.720703	9630.372070
1388.605469	9868.229492
1387.488281	9846.239258
1386.373047	9777.240234
1385.255859	9737.367188
1384.138672	9690.794922
1383.021484	9796.399414
1381.904297	9734.172852
1380.785156	9871.044922
1379.667969	9844.610352
1378.550781	9654.958008
1377.431641	9825.302734
1376.312500	9637.959961
1375.195313	9709.916016
1374.076172	9650.020508
1372.957031	9728.649414
1371.837891	9653.138672
1370.716797	9738.437500
1369.597656	9727.699219
1368.478516	9810.719727
1367.357422	9875.855469
1366.238281	9998.983398
1365.117188	9787.415039
1363.996094	9825.750977
1362.875000	9641.054688
1361.753906	9864.473633
1360.632813	9784.619141
1359.511719	9785.035156
1358.388672	9760.937500
1357.267578	9852.709961
1356.144531	9904.350586
1355.021484	9853.516602
1353.900391	9816.062500
1352.777344	9731.866211
1351.654297	9759.003906
1350.531250	10111.074219
1349.406250	10044.671875
1348.283203	10029.464844
1347.160156	9998.693359
1346.035156	10010.187500
1344.910156	9886.040039
1343.787109	10046.503906
1342.662109	10086.878906
1341.537109	10131.683594
1340.412109	9974.276367
1339.287109	10010.199219
1338.160156	10203.807617
1337.035156	10044.252930
1335.908203	10200.039063
1334.783203	10211.474609
1333.656250	10074.201172
1332.529297	10240.990234
1331.402344	10341.157227
1330.275391	10172.879883
1329.148438	10060.110352
1328.021484	10104.820313
1326.894531	10116.257813
1325.765625	10105.525391
1324.638672	10090.363281
1323.509766	9993.223633
1322.380859	10068.918945
1321.251953	10115.791016
1320.123047	10311.022461
1318.994141	10092.133789
1317.865234	10132.334961
1316.736328	10070.707031
1315.605469	10108.683594
1314.476563	10155.496094
1313.345703	10076.201172
1312.214844	10149.541992
1311.083984	10251.603516
1309.953125	10119.272461
1308.822266	10115.197266
1307.691406	9947.578125
1306.560547	10168.923828
1305.429688	10058.796875
1304.296875	10114.375000
1303.166016	10024.174805
1302.033203	9916.342773
1300.900391	10009.446289
1299.767578	10100.307617
1298.634766	10089.621094
1297.501953	9984.062500
1296.369141	10081.495117
1295.234375	9978.182617
1294.101563	10000.603516
1292.966797	10049.473633
1291.833984	9897.726563
1290.699219	9893.701172
1289.564453	10088.000000
1288.429688	9779.903320
1287.294922	9793.523438
1286.160156	9921.662109
1285.025391	9851.577148
1283.888672	10017.083984
1282.753906	9977.822266
1281.617188	9951.779297
1280.480469	9978.553711
1279.343750	9899.721680
1278.208984	10001.280273
1277.070313	10085.207031
1275.933594	9887.666992
1274.796875	9910.031250
1273.660156	9901.616211
1272.521484	9853.648438
1271.384766	9744.178711
1270.246094	9742.388672
1269.107422	9854.805664
1267.968750	9879.345703
1266.830078	9925.831055
1265.691406	9869.129883
1264.552734	9792.697266
1263.414063	10019.103516
1262.273438	9900.987305
1261.134766	9886.007813
1259.994141	9956.563477
1258.853516	9860.449219
1257.712891	9979.212891
1256.572266	9806.414063
1255.431641	9940.483398
1254.291016	10100.795898
1253.150391	9991.598633
1252.007813	9976.622070
1250.867188	10044.864258
1249.724609	10056.156250
1248.582031	9866.050781
1247.441406	9886.125977
1246.298828	10372.289063
1245.156250	10083.776367
1244.011719	10108.173828
1242.869141	10110.691406
1241.726563	10312.192383
1240.582031	10150.703125
1239.439453	10223.157227
1238.294922	10306.511719
1237.150391	10263.103516
1236.005859	10136.695313
1234.861328	10215.650391
1233.716797	10148.258789
1232.572266	10281.768555
1231.427734	10288.612305
1230.281250	10374.028320
1229.136719	10247.736328
1227.990234	10614.583008
1226.843750	10527.557617
1225.697266	10364.228516
1224.550781	10562.942383
1223.404297	10611.148438
1222.257813	10672.414063
1221.111328	10524.432617
1219.962891	10712.075195
1218.816406	10766.751953
1217.667969	10614.477539
1216.519531	10825.954102
1215.373047	10484.288086
1214.224609	10826.332031
1213.074219	10813.460938
1211.925781	10833.237305
1210.777344	10763.796875
1209.628906	10890.169922
1208.478516	10820.743164
1207.330078	10868.772461
1206.179688	10888.517578
1205.029297	10958.253906
1203.878906	11006.229492
1202.728516	11067.225586
1201.578125	10893.554688
1200.427734	11052.297852
1199.275391	11111.079102
1198.125000	11152.465820
1196.972656	11015.812500
1195.822266	11150.538086
1194.669922	11131.127930
1193.517578	11289.649414
1192.365234	11335.302734
1191.212891	11268.148438
1190.058594	11257.403320
1188.906250	11424.457031
1187.753906	11472.216797
1186.599609	11483.113281
1185.445313	11350.979492
1184.292969	11331.559570
1183.138672	11652.248047
1181.984375	11424.857422
1180.830078	11706.430664
1179.673828	11596.025391
1178.519531	11816.852539
1177.365234	11706.466797
1176.208984	11665.364258
1175.054688	11754.084961
1173.898438	11963.903320
1172.742188	11849.244141
1171.585938	11855.713867
1170.429688	11851.371094
1169.273438	11764.893555
1168.115234	11747.601563
1166.958984	11972.310547
1165.800781	12095.404297
1164.644531	12086.699219
1163.486328	12170.854492
1162.328125	12293.840820
1161.169922	12159.898438
1160.011719	12166.293945
1158.853516	12107.949219
1157.695313	12351.674805
1156.535156	12476.669922
1155.376953	12472.215820
1154.216797	12504.419922
1153.058594	12450.375977
1151.898438	12859.785156
1150.738281	12659.146484
1149.578125	12816.263672
1148.417969	12596.316406
1147.255859	12850.313477
1146.095703	12873.788086
1144.933594	12989.838867
1143.773438	12922.863281
1142.611328	13090.516602
1141.449219	13271.018555
1140.287109	13231.996094
1139.125000	13345.719727
1137.962891	13216.365234
1136.800781	13667.653320
1135.638672	13546.885742
1134.474609	13729.250000
1133.312500	13926.589844
1132.148438	13866.004883
1130.984375	14007.388672
1129.820313	14049.912109
1128.656250	14120.337891
1127.492188	14132.762695
1126.328125	14261.109375
1125.162109	14213.403320
1123.998047	14388.897461
1122.832031	14420.571289
1121.667969	14578.799805
1120.501953	14779.864258
1119.335938	14624.882813
1118.169922	14892.328125
1117.003906	15110.371094
1115.837891	15276.894531
1114.669922	14959.077148
1113.503906	15296.959961
1112.335938	15289.850586
1111.169922	15753.902344
1110.001953	15652.494141
1108.833984	15557.544922
1107.666016	15648.849609
1106.498047	15705.877930
1105.330078	15852.750977
1104.160156	16003.846680
1102.992188	15940.999023
1101.822266	16158.313477
1100.654297	16322.094727
1099.484375	16443.060547
1098.314453	16549.021484
1097.144531	16605.792969
1095.974609	16788.593750
1094.804688	16644.503906
1093.632813	16694.816406
1092.462891	16888.173828
1091.291016	17040.896484
1090.121094	17261.865234
1088.949219	17715.371094
1087.777344	17637.410156
1086.605469	17469.876953
1085.433594	17483.703125
1084.261719	17796.080078
1083.087891	18020.923828
1081.916016	17998.396484
1080.742188	18067.527344
1079.570313	18273.011719
1078.396484	18433.677734
1077.222656	18415.349609
1076.048828	18484.345703
1074.875000	18593.775391
1073.701172	18805.353516
1072.525391	18967.894531
1071.351563	18872.863281
1070.175781	19071.501953
1069.001953	19310.486328
1067.826172	19234.583984
1066.650391	19322.457031
1065.474609	19610.162109
1064.298828	19865.871094
1063.123047	19694.273438
1061.945313	19854.242188
1060.769531	19995.029297
1059.591797	20080.533203
1058.416016	20074.675781
1057.238281	20338.501953
1056.060547	20398.412109
1054.882813	20551.697266
1053.705078	20764.347656
1052.525391	20802.923828
1051.347656	20832.998047
1050.169922	21136.681641
1048.990234	21204.851563
1047.810547	21128.816406
1046.632813	21110.044922
1045.453125	21398.607422
1044.273438	21604.416016
1043.093750	21551.664063
1041.912109	21782.785156
1040.732422	22261.617188
1039.550781	22005.482422
1038.371094	22266.025391
1037.189453	22448.150391
1036.007813	22225.982422
1034.826172	22661.958984
1033.644531	22554.070313
1032.462891	22721.195313
1031.281250	22953.812500
1030.099609	22991.818359
1028.916016	22930.453125
1027.734375	23446.119141
1026.550781	23403.705078
1025.367188	23433.142578
1024.183594	23335.822266
1023.000000	23597.580078
1021.816406	23561.498047
1020.632813	23527.541016
1019.447266	23727.898438
1018.263672	23850.091797
1017.078125	23993.337891
1015.892578	24016.279297
1014.707031	24290.212891
1013.521484	24287.781250
1012.335938	24394.988281
1011.150391	24285.021484
1009.964844	24213.035156
1008.777344	24733.218750
1007.591797	24669.597656
1006.404297	24612.320313
1005.218750	24673.001953
1004.031250	24687.333984
1002.843750	24758.503906
1001.656250	24785.441406
1000.466797	25123.837891
999.279297	24881.363281
998.091797	25089.179688
996.902344	24819.457031
995.712891	25071.365234
994.525391	25100.306641
993.335938	25251.160156
992.146484	25189.677734
990.957031	25018.945313
989.765625	25159.218750
988.576172	25026.363281
987.384766	25179.181641
986.195313	25250.046875
985.003906	25518.230469
983.812500	25402.191406
982.621094	25344.957031
981.429688	25233.187500
980.238281	25335.435547
979.046875	25144.003906
977.855469	25216.869141
976.662109	25197.453125
975.470703	24991.476563
974.277344	25074.802734
973.083984	25568.808594
971.890625	25283.259766
970.697266	25471.212891
969.503906	25192.070313
968.308594	25193.611328
967.115234	25375.189453
965.919922	25552.511719
964.726563	25549.792969
963.531250	25373.412109
962.335938	25148.982422
961.140625	25535.357422
959.945313	25323.525391
958.750000	25561.277344
957.552734	25111.216797
956.357422	25376.083984
955.160156	25352.494141
953.964844	25500.220703
952.767578	25434.835938
951.570313	25517.748047
950.373047	25423.150391
949.175781	25516.466797
947.978516	25277.886719
946.779297	25540.222656
945.582031	25355.968750
944.382813	25630.703125
943.183594	25325.533203
941.986328	25779.494141
940.787109	25539.039063
939.585938	25586.320313
938.386719	25848.240234
937.187500	25860.021484
935.988281	25665.554688
934.787109	25902.310547
933.585938	25826.605469
932.386719	25723.861328
931.185547	25616.990234
929.984375	25578.839844
928.783203	25909.017578
927.580078	25889.546875
926.378906	25847.201172
925.175781	25461.720703
923.974609	25693.935547
922.771484	25788.853516
921.568359	25601.054688
920.365234	25749.982422
919.162109	25529.015625
917.958984	25578.183594
916.755859	25542.175781
915.550781	25531.099609
914.347656	25569.853516
913.142578	25347.044922
911.939453	25140.921875
910.734375	25175.572266
909.529297	25162.492188
908.324219	25433.578125
907.117188	25065.832031
905.912109	25432.205078
904.707031	25023.136719
903.500000	24916.822266
902.292969	24704.863281
901.085938	24662.871094
899.878906	24664.394531
898.671875	24564.433594
897.464844	24563.900391
896.257813	24074.789063
895.050781	24225.443359
893.841797	23958.011719
892.632813	23754.818359
891.425781	23770.980469
890.216797	23464.484375
889.007813	23668.867188
887.798828	23352.167969
886.587891	23517.216797
885.378906	23345.330078
884.169922	23113.585938
882.958984	23127.769531
881.748047	23135.750000
880.539063	22819.501953
879.328125	22550.863281
878.117188	22633.259766
876.904297	22443.183594
875.693359	22389.373047
874.482422	21900.257813
873.269531	22087.908203
872.056641	21984.695313
870.845703	21588.720703
869.632813	21487.701172
868.419922	21164.109375
867.207031	21256.919922
865.992188	21073.599609
864.779297	20820.308594
863.566406	20616.544922
862.351563	20738.210938
861.136719	20678.652344
859.921875	20444.150391
858.707031	20343.509766
857.492188	20263.480469
856.277344	20132.050781
855.062500	19875.201172
853.845703	19564.982422
852.630859	19738.052734
851.414063	19802.103516
850.197266	19438.636719
848.982422	19231.476563
847.763672	19334.619141
846.546875	19287.773438
845.330078	19134.154297
844.113281	18873.820313
842.894531	18964.628906
841.677734	18749.580078
840.458984	18668.000000
839.240234	18600.810547
838.021484	18845.445313
836.802734	18484.962891
835.583984	18467.056641
834.363281	18330.248047
833.144531	18218.085938
831.923828	18454.355469
830.703125	18297.134766
829.484375	18437.013672
828.263672	18275.755859
827.042969	18083.843750
825.820313	18004.609375
824.599609	18222.216797
823.378906	18478.625000
822.156250	18313.416016
820.933594	18342.619141
819.712891	18193.861328
818.490234	18218.984375
817.267578	18221.607422
816.044922	18416.382813
814.820313	18355.603516
813.597656	18525.755859
812.373047	18450.675781
811.150391	18465.498047
809.925781	18627.357422
808.701172	18580.882813
807.476563	18520.134766
806.251953	18622.693359
805.027344	18704.804688
803.800781	18848.091797
802.576172	18824.050781
801.349609	18675.609375
800.125000	19012.527344
798.898438	19080.207031
797.671875	19037.789063
796.445313	19023.917969
795.216797	19183.240234
793.990234	19238.605469
792.763672	19131.009766
791.535156	19159.886719
790.306641	19178.574219
789.080078	19101.580078
787.851563	19276.974609
786.621094	19322.076172
785.392578	19230.855469
784.164063	19511.884766
782.935547	19554.875000
781.705078	19469.757813
780.474609	19421.261719
779.246094	19492.695313
778.015625	19832.322266
776.785156	19751.273438
775.552734	19808.378906
774.322266	19942.630859
773.091797	19693.078125
771.859375	20062.781250
770.628906	19843.744141
769.396484	20050.931641
768.164063	20239.777344
766.931641	20316.984375
765.699219	20229.886719
764.464844	20386.140625
763.232422	20511.923828
761.998047	20552.527344
760.765625	20674.171875
759.531250	20726.882813
758.296875	20722.849609
757.062500	20676.287109
755.828125	20779.583984
754.593750	20737.074219
753.357422	20994.150391
752.123047	20664.242188
750.886719	20834.224609
749.652344	20838.259766
748.416016	20900.945313
747.179688	21177.951172
745.943359	20908.974609
744.705078	21074.693359
743.468750	21187.802734
742.232422	21209.939453
740.994141	21462.365234
739.755859	21312.755859
738.517578	21169.259766
737.279297	21163.111328
736.041016	21443.603516
734.802734	21623.076172
733.564453	21544.197266
732.324219	21505.693359
731.085938	21370.388672
729.845703	21394.447266
728.605469	21642.298828
727.365234	21418.343750
726.125000	21920.037109
724.884766	21345.492188
723.642578	21472.271484
722.402344	21584.902344
721.160156	21832.416016
719.919922	21703.310547
718.677734	21664.843750
717.435547	21634.439453
716.193359	21487.333984
714.951172	21456.974609
713.707031	21774.617188
712.464844	21553.154297
711.220703	21772.123047
709.976563	21601.003906
708.734375	21522.404297
707.490234	21510.150391
706.246094	21696.806641
705.000000	21841.203125
703.755859	21770.646484
702.511719	21898.904297
701.265625	21812.300781
700.019531	21673.542969
698.773438	21580.994141
697.527344	21582.781250
696.281250	21801.212891
695.035156	21778.884766
693.789063	21521.955078
692.541016	21760.314453
691.294922	21695.910156
690.046875	21779.828125
688.798828	21817.628906
687.550781	21683.132813
686.302734	21785.025391
685.054688	21652.589844
683.806641	21800.492188
682.556641	21922.314453
681.308594	21689.859375
680.058594	21717.611328
678.808594	21703.337891
677.558594	21889.080078
676.308594	21758.794922
675.058594	22008.427734
673.806641	21814.201172
672.556641	21921.828125
671.304688	21961.472656
670.054688	21965.142578
668.802734	22002.763672
667.550781	22050.353516
666.298828	22165.806641
665.044922	22257.257813
663.792969	22280.814453
662.541016	21959.162109
661.287109	22032.640625
660.033203	22141.992188
658.779297	22424.792969
657.525391	22314.703125
656.271484	22354.160156
655.017578	22453.390625
653.763672	22269.626953
652.507813	22326.994141
651.253906	22352.470703
649.998047	22332.128906
648.742188	22662.222656
647.486328	22448.732422
646.230469	22541.826172
644.974609	22547.326172
643.716797	22662.246094
642.460938	22395.212891
641.203125	22593.638672
639.945313	22632.919922
638.687500	22793.449219
637.429688	22782.984375
636.171875	23003.031250
634.914063	23034.248047
633.656250	23059.492188
632.396484	23060.894531
631.136719	23092.076172
629.878906	23331.689453
628.619141	23368.757813
627.359375	23707.435547
626.097656	23903.132813
624.837891	23531.439453
623.578125	24209.009766
622.316406	23853.263672
621.056641	23785.107422
619.794922	24063.832031
618.533203	24304.794922
617.271484	24555.566406
616.009766	24421.951172
614.746094	24627.046875
613.484375	24917.203125
612.220703	24888.513672
610.958984	25237.878906
609.695313	25128.000000
608.431641	25564.228516
607.167969	25404.873047
605.902344	26135.552734
604.638672	25728.978516
603.375000	25951.228516
602.109375	26238.615234
600.843750	26543.671875
599.580078	26597.683594
598.314453	26622.042969
597.046875	27112.484375
595.781250	27233.482422
594.515625	27141.218750
593.248047	27806.931641
591.982422	27554.740234
590.714844	27632.142578
589.447266	28131.654297
588.179688	27978.156250
586.912109	28146.128906
585.644531	28369.234375
584.375000	28657.292969
583.107422	28279.148438
581.837891	28768.078125
580.568359	28908.140625
579.298828	28957.548828
578.029297	29140.833984
576.759766	29448.074219
575.490234	29231.617188
574.218750	29452.125000
572.949219	29397.087891
571.677734	29615.505859
570.406250	29806.300781
569.134766	29916.396484
567.863281	29843.609375
566.591797	29865.199219
565.320313	30275.888672
564.046875	30136.265625
562.775391	30020.269531
561.501953	30379.613281
560.228516	30120.265625
558.955078	30061.271484
557.681641	30451.794922
556.408203	30151.371094
555.134766	30306.267578
553.859375	30476.792969
552.583984	30492.308594
551.310547	30203.873047
550.035156	30448.814453
548.759766	30593.689453
547.484375	30334.796875
546.207031	30546.251953
544.931641	30385.417969
543.654297	30612.443359
542.378906	30576.980469
541.101563	30285.060547
539.824219	30327.968750
538.546875	30621.357422
537.269531	30511.564453
535.990234	31074.755859
534.712891	30839.738281
533.433594	30714.316406
532.156250	31030.789063
530.876953	30817.417969
529.597656	31145.466797
528.318359	31229.146484
527.039063	31144.789063
525.757813	31083.900391
524.478516	30886.343750
523.197266	31073.476563
521.916016	30766.687500
520.634766	31369.449219
519.353516	31236.376953
518.072266	31038.978516
516.791016	31452.132813
515.509766	31352.269531
514.226563	31837.330078
512.943359	31347.578125
511.662109	31581.042969
510.378906	31568.906250
509.095703	31747.685547
507.810547	31867.958984
506.527344	31810.980469
505.244141	31814.378906
503.958984	31809.986328
502.673828	31692.720703
501.388672	31666.947266
500.103516	31808.486328
498.818359	32105.562500
497.533203	32013.603516
496.248047	31810.861328
494.960938	32179.675781
493.675781	31924.507813
492.388672	31548.968750
491.101563	31869.046875
489.814453	31802.486328
488.527344	31778.671875
487.238281	31871.353516
485.951172	31459.312500
484.662109	31573.367188
483.375000	31834.837891
482.085938	31589.882813
480.796875	31649.531250
479.507813	31204.972656
478.218750	31235.589844
476.927734	31370.865234
475.638672	31318.101563
474.347656	30858.457031
473.058594	30987.912109
471.767578	30935.251953
470.476563	30754.804688
469.185547	30601.533203
467.892578	30752.224609
466.601563	30569.982422
465.308594	30293.001953
464.017578	30374.017578
462.724609	30108.789063
461.431641	30011.902344
460.138672	30338.458984
458.845703	30137.181641
457.550781	29918.587891
456.257813	29829.541016
454.962891	29663.253906
453.669922	29755.845703
452.375000	29477.634766
451.080078	29614.630859
449.785156	29429.210938
448.490234	29757.220703
447.193359	29519.748047
445.898438	29448.273438
444.601563	29349.826172
443.304688	29243.701172
442.007813	29262.937500
440.710938	29440.228516
439.414063	29249.349609
438.117188	29147.181641
436.818359	29125.962891
435.521484	29222.240234
434.222656	29054.662109
432.923828	29122.033203
431.625000	29555.113281
430.326172	29091.187500
429.027344	29210.460938
427.728516	29137.310547
426.427734	29316.152344
425.126953	29244.929688
423.828125	29252.564453
422.527344	28787.324219
421.226563	28944.949219
419.925781	28871.933594
418.623047	28881.552734
417.322266	29094.761719
416.019531	28954.546875
414.718750	28764.466797
413.416016	29031.316406
412.113281	28764.531250
410.810547	28825.960938
409.507813	28910.388672
408.203125	28772.291016
406.900391	28728.210938
405.595703	28757.003906
404.291016	29057.982422
402.988281	28659.318359
401.681641	28588.466797
400.376953	28385.457031
399.072266	28753.304688
397.767578	28226.710938
396.460938	27953.052734
395.154297	28353.306641
393.849609	28202.214844
392.542969	28382.210938
391.236328	28242.652344
389.927734	28370.923828
388.621094	28059.314453
387.314453	27984.906250
386.005859	27908.615234
384.697266	27948.935547
383.388672	27951.023438
382.080078	27916.810547
380.771484	27821.492188
379.462891	27920.994141
378.152344	27798.980469
376.843750	27724.738281
375.533203	27715.412109
374.222656	27576.337891
372.912109	27650.986328
371.601563	27744.679688
370.291016	27529.400391
368.980469	27670.742188
367.667969	27678.593750
366.357422	27999.000000
365.044922	27745.730469
363.732422	27738.318359
362.419922	27330.916016
361.107422	27900.605469
359.794922	27860.798828
358.480469	27645.876953
357.167969	27981.068359
355.853516	27764.304688
354.539063	27732.164063
353.224609	27941.599609
351.910156	27818.154297
350.595703	27907.707031
349.281250	27985.816406
347.964844	27894.744141
346.650391	27967.125000
345.333984	27724.105469
344.017578	27502.076172
342.701172	27610.572266
341.384766	27834.845703
340.066406	27774.283203
338.750000	27531.541016
337.431641	27446.392578
336.115234	27353.689453
334.796875	27384.314453
333.478516	27335.277344
332.160156	27187.664063
330.841797	27407.873047
329.521484	27199.652344
328.203125	27455.775391
326.882813	27312.042969
325.564453	27215.722656
324.244141	27450.857422
322.923828	27475.726563
321.601563	27174.978516
320.281250	27305.882813
318.960938	27219.119141
317.638672	27524.021484
316.318359	27403.201172
314.996094	27238.929688
313.673828	27418.853516
312.351563	27109.078125
311.027344	27302.187500
309.705078	27491.439453
308.382813	27759.968750
307.058594	27639.267578
305.734375	27777.349609
304.410156	27728.443359
303.085938	27411.484375
301.761719	27698.638672
300.437500	27542.212891
299.111328	27997.148438
297.787109	27908.632813
296.460938	27952.171875
295.134766	27969.296875
293.808594	27801.658203
292.482422	27897.970703
291.156250	28133.695313
289.830078	28045.259766
288.501953	28105.673828
287.175781	28207.500000
285.847656	28111.568359
284.519531	28139.929688
283.191406	28478.855469
281.863281	28166.509766
280.533203	28319.025391
279.205078	28072.673828
277.876953	28700.990234
276.546875	28281.660156
275.216797	28140.744141
273.886719	28242.365234
272.556641	28362.738281
271.226563	28133.580078
269.894531	28248.292969
268.564453	28338.542969
267.232422	28601.521484
265.900391	28391.271484
264.570313	28363.183594
263.238281	28460.847656
261.904297	28813.664063
260.572266	28659.818359
259.240234	28742.363281
257.906250	28901.763672
256.572266	28837.986328
