#Wave		#Intensity
1392.214844	4367.632813
1391.101563	4293.566895
1389.986328	4211.963379
1388.873047	4294.171387
1387.757813	4257.461426
1386.642578	4240.950684
1385.527344	4307.410156
1384.414063	4288.654297
1383.296875	4303.526855
1382.181641	4358.731934
1381.066406	4380.307617
1379.951172	4321.229980
1378.833984	4266.654297
1377.718750	4216.578613
1376.601563	4329.958496
1375.484375	4358.234863
1374.367188	4390.976563
1373.250000	4193.234863
1372.132813	4349.040039
1371.015625	4287.822266
1369.896484	4262.409180
1368.779297	4353.271484
1367.660156	4274.204590
1366.541016	4273.394043
1365.423828	4368.672852
1364.304688	4332.097656
1363.185547	4259.796387
1362.066406	4341.623535
1360.945313	4407.789063
1359.826172	4355.607422
1358.707031	4276.660645
1357.585938	4385.202637
1356.464844	4393.298828
1355.343750	4470.546387
1354.224609	4347.030273
1353.103516	4399.728027
1351.980469	4445.717773
1350.859375	4467.169434
1349.738281	4406.151367
1348.617188	4351.841309
1347.494141	4364.387207
1346.371094	4283.376465
1345.250000	4460.730469
1344.126953	4281.761230
1343.003906	4447.918457
1341.880859	4435.951660
1340.755859	4306.046387
1339.632813	4351.958984
1338.509766	4264.384277
1337.384766	4434.836426
1336.261719	4434.002441
1335.136719	4344.238281
1334.011719	4381.209473
1332.886719	4307.046387
1331.761719	4421.780762
1330.636719	4469.825195
1329.511719	4466.764160
1328.384766	4392.641113
1327.259766	4442.883789
1326.132813	4417.630859
1325.005859	4432.338379
1323.880859	4424.850098
1322.753906	4430.676270
1321.626953	4387.698730
1320.498047	4289.291504
1319.371094	4490.272949
1318.244141	4276.599121
1317.115234	4450.908691
1315.988281	4447.858887
1314.859375	4462.536621
1313.730469	4428.471191
1312.601563	4403.278320
1311.472656	4422.384766
1310.343750	4326.351563
1309.214844	4449.508789
1308.085938	4397.771484
1306.955078	4343.840820
1305.826172	4371.791016
1304.695313	4428.486816
1303.564453	4445.352539
1302.435547	4400.298340
1301.304688	4386.211914
1300.171875	4498.122559
1299.041016	4417.724121
1297.910156	4503.072754
1296.779297	4475.722656
1295.646484	4371.077637
1294.513672	4352.596191
1293.382813	4389.318848
1292.250000	4335.520996
1291.117188	4469.345215
1289.984375	4316.251953
1288.851563	4361.779297
1287.716797	4420.524902
1286.583984	4285.169922
1285.451172	4295.396973
1284.316406	4340.894531
1283.181641	4329.065430
1282.046875	4281.980469
1280.912109	4371.522461
1279.777344	4260.560547
1278.642578	4283.996094
1277.507813	4333.849609
1276.373047	4280.201660
1275.236328	4429.097168
1274.101563	4322.629395
1272.964844	4288.818359
1271.828125	4224.218262
1270.691406	4260.828613
1269.554688	4275.432617
1268.417969	4377.986328
1267.281250	4385.967285
1266.144531	4281.843750
1265.005859	4377.746582
1263.869141	4304.424805
1262.730469	4336.578613
1261.591797	4311.613281
1260.453125	4326.186035
1259.314453	4334.166016
1258.175781	4355.314941
1257.037109	4343.533203
1255.898438	4423.920898
1254.757813	4431.876953
1253.619141	4424.475098
1252.478516	4351.280273
1251.339844	4449.148926
1250.199219	4463.671387
1249.058594	4368.590332
1247.917969	4453.252441
1246.777344	4364.781738
1245.634766	4315.776855
1244.494141	4435.447266
1243.351563	4353.598145
1242.210938	4462.269531
1241.068359	4362.933105
1239.925781	4462.807129
1238.783203	4505.748047
1237.640625	4474.283691
1236.498047	4541.269043
1235.355469	4472.628906
1234.212891	4493.668945
1233.068359	4435.994629
1231.925781	4629.718750
1230.781250	4600.451660
1229.636719	4643.303223
1228.492188	4594.382324
1227.347656	4617.560547
1226.203125	4631.994629
1225.058594	4635.505859
1223.912109	4711.056641
1222.767578	4708.003906
1221.621094	4772.602539
1220.476563	4730.266113
1219.330078	4661.767578
1218.183594	4822.304688
1217.037109	4677.491699
1215.890625	4790.000977
1214.744141	4758.599121
1213.597656	4790.412598
1212.449219	4870.152832
1211.302734	4799.538086
1210.154297	4914.099121
1209.005859	4900.125488
1207.857422	4827.366211
1206.708984	4863.485352
1205.560547	4934.416992
1204.412109	5003.146484
1203.263672	5041.388672
1202.115234	5092.668945
1200.964844	5035.179688
1199.814453	5112.537598
1198.666016	5081.156250
1197.515625	5132.391113
1196.365234	5242.289551
1195.214844	5167.440430
1194.064453	5366.369141
1192.914063	5258.941406
1191.761719	5323.126953
1190.611328	5504.545410
1189.458984	5351.559570
1188.306641	5478.640137
1187.156250	5436.396484
1186.003906	5489.640625
1184.851563	5540.695313
1183.699219	5487.618164
1182.544922	5484.438965
1181.392578	5505.110840
1180.240234	5733.886230
1179.085938	5674.309570
1177.931641	5519.406250
1176.779297	5800.050781
1175.625000	5604.022461
1174.470703	5507.694336
1173.316406	5757.869629
1172.160156	5860.730957
1171.005859	5602.061035
1169.851563	5754.689941
1168.695313	5658.421875
1167.539063	5817.474609
1166.384766	6021.892090
1165.228516	5875.886719
1164.072266	5900.751953
1162.916016	6046.670898
1161.757813	5998.006348
1160.601563	6040.123047
1159.445313	6123.276855
1158.287109	6210.720215
1157.130859	6116.703125
1155.972656	6277.536621
1154.814453	6151.156250
1153.656250	6387.476563
1152.498047	6407.883789
1151.339844	6311.758301
1150.179688	6427.100098
1149.021484	6421.603516
1147.863281	6506.688965
1146.703125	6458.053223
1145.542969	6644.426758
1144.382813	6623.804688
1143.222656	6680.772949
1142.062500	6828.217285
1140.902344	6857.121094
1139.742188	6905.398926
1138.582031	6968.733398
1137.419922	6945.919922
1136.259766	6998.459473
1135.097656	7149.985840
1133.935547	7193.860352
1132.773438	7209.749023
1131.611328	7219.177734
1130.449219	7342.591797
1129.287109	7429.404297
1128.123047	7447.386230
1126.960938	7549.193848
1125.796875	7631.621582
1124.632813	7718.315918
1123.470703	7774.900879
1122.306641	7932.419434
1121.142578	7894.450684
1119.978516	7905.880859
1118.812500	7983.856445
1117.648438	8119.755371
1116.484375	8341.443359
1115.318359	8264.812500
1114.152344	8409.165039
1112.988281	8386.168945
1111.822266	8721.296875
1110.656250	8683.243164
1109.488281	8666.639648
1108.322266	8680.046875
1107.156250	8755.590820
1105.988281	8876.097656
1104.822266	8778.071289
1103.654297	9042.019531
1102.486328	9025.365234
1101.320313	9085.789063
1100.152344	8996.356445
1098.982422	9230.107422
1097.814453	9166.357422
1096.646484	9267.354492
1095.476563	9287.037109
1094.308594	9469.236328
1093.138672	9525.221680
1091.968750	9638.902344
1090.800781	9788.875977
1089.630859	9784.936523
1088.458984	9892.096680
1087.289063	10044.075195
1086.119141	10082.803711
1084.947266	10311.562500
1083.777344	10241.344727
1082.605469	10301.359375
1081.435547	10318.668945
1080.263672	10478.933594
1079.091797	10532.470703
1077.919922	10722.497070
1076.746094	10722.653320
1075.574219	10748.395508
1074.402344	10703.778320
1073.228516	11064.144531
1072.054688	10814.907227
1070.882813	10853.394531
1069.708984	11226.314453
1068.535156	11288.139648
1067.361328	11286.057617
1066.185547	11379.783203
1065.011719	11511.790039
1063.837891	11407.509766
1062.662109	11747.993164
1061.488281	11679.874023
1060.312500	11839.377930
1059.136719	12003.076172
1057.960938	11924.314453
1056.785156	12164.467773
1055.609375	12079.328125
1054.431641	12236.482422
1053.255859	12351.084961
1052.078125	12556.990234
1050.902344	12478.209961
1049.724609	12628.802734
1048.546875	12577.637695
1047.369141	12658.103516
1046.191406	12831.923828
1045.013672	12933.531250
1043.833984	12941.750000
1042.656250	12998.753906
1041.476563	13079.063477
1040.298828	13320.496094
1039.119141	13375.275391
1037.939453	13262.583008
1036.759766	13573.780273
1035.580078	13435.665039
1034.400391	13858.993164
1033.220703	13735.701172
1032.039063	13737.396484
1030.859375	14240.888672
1029.677734	14170.514648
1028.496094	14053.602539
1027.314453	14218.176758
1026.132813	14234.587891
1024.951172	14263.684570
1023.769531	14265.276367
1022.587891	14457.174805
1021.404297	14498.897461
1020.222656	14496.213867
1019.039063	14594.972656
1017.855469	14583.819336
1016.671875	14872.657227
1015.488281	14738.947266
1014.304688	14983.299805
1013.121094	14809.500000
1011.937500	14722.315430
1010.751953	15015.078125
1009.568359	15204.329102
1008.382813	15275.357422
1007.197266	15152.287109
1006.011719	15529.112305
1004.826172	15346.996094
1003.640625	15350.476563
1002.455078	15284.393555
1001.267578	15528.138672
1000.082031	15508.402344
998.894531	15623.502930
997.708984	15561.627930
996.521484	15501.880859
995.333984	15656.921875
994.146484	15782.431641
992.958984	15775.292969
991.771484	15896.524414
990.582031	15853.597656
989.394531	16021.046875
988.205078	16079.065430
987.015625	15722.805664
985.828125	15846.031250
984.638672	15780.027344
983.449219	15737.165039
982.259766	15872.923828
981.068359	15970.816406
979.878906	15875.427734
978.687500	15834.675781
977.498047	16039.602539
976.306641	15992.535156
975.115234	15895.110352
973.923828	16162.864258
972.732422	16229.096680
971.541016	16148.461914
970.349609	16191.599609
969.156250	16060.671875
967.964844	16267.340820
966.771484	16193.042969
965.578125	16202.603516
964.386719	16346.265625
963.193359	16517.107422
961.998047	16503.558594
960.804688	16456.505859
959.611328	16574.884766
958.417969	16404.320313
957.222656	16564.521484
956.027344	16433.781250
954.833984	16621.117188
953.638672	16517.607422
952.443359	16585.638672
951.248047	16703.832031
950.050781	16604.542969
948.855469	16563.820313
947.660156	16587.898438
946.462891	16777.042969
945.265625	16865.835938
944.068359	16739.449219
942.873047	16707.087891
941.675781	16929.472656
940.476563	16753.039063
939.279297	16973.242188
938.082031	16836.515625
936.882813	16799.988281
935.685547	17065.949219
934.486328	16881.306641
933.287109	17161.748047
932.087891	16945.882813
930.888672	17117.812500
929.689453	17164.628906
928.490234	17186.423828
927.289063	17101.958984
926.089844	17073.765625
924.888672	17053.910156
923.687500	17115.265625
922.486328	17305.664063
921.287109	17260.798828
920.083984	17299.185547
918.882813	17202.320313
917.681641	17209.498047
916.478516	17241.630859
915.277344	17236.322266
914.074219	17191.511719
912.871094	17076.042969
911.669922	17268.197266
910.466797	17015.615234
909.261719	17120.453125
908.058594	16843.068359
906.855469	16873.134766
905.650391	17004.929688
904.447266	16958.144531
903.242188	16683.068359
902.037109	16657.109375
900.832031	16620.787109
899.626953	16468.312500
898.421875	16647.728516
897.216797	16511.892578
896.009766	16456.960938
894.804688	16358.519531
893.597656	16258.041992
892.390625	16234.265625
891.183594	16152.492188
889.976563	16014.824219
888.769531	15699.113281
887.562500	15882.501953
886.355469	15891.934570
885.146484	15653.000000
883.939453	15559.005859
882.730469	15417.459961
881.521484	15288.377930
880.312500	15227.591797
879.103516	15061.373047
877.894531	14948.966797
876.685547	15020.560547
875.476563	14711.877930
874.265625	14702.907227
873.054688	14530.741211
871.845703	14596.159180
870.634766	14504.611328
869.423828	14415.162109
868.212891	14005.789063
867.001953	13986.635742
865.789063	14039.709961
864.578125	13808.059570
863.365234	13696.131836
862.154297	13575.995117
860.941406	13408.480469
859.728516	13564.682617
858.515625	13158.142578
857.302734	13170.081055
856.087891	13324.176758
854.875000	12969.408203
853.662109	12690.975586
852.447266	12859.486328
851.232422	12723.233398
850.017578	12751.703125
848.802734	12432.358398
847.587891	12357.989258
846.373047	12242.502930
845.158203	12415.015625
843.941406	12546.333984
842.726563	12373.305664
841.509766	12438.798828
840.292969	12276.130859
839.078125	12257.365234
837.859375	12380.366211
836.642578	12182.879883
835.425781	11985.466797
834.208984	12221.379883
832.990234	12161.579102
831.773438	11954.017578
830.554688	12109.765625
829.335938	12127.984375
828.117188	12240.559570
826.898438	12061.850586
825.679688	12123.128906
824.458984	12059.320313
823.240234	12124.672852
822.019531	12058.836914
820.800781	12115.967773
819.580078	12087.032227
818.359375	12135.940430
817.138672	11988.234375
815.917969	12149.752930
814.697266	12176.100586
813.474609	12014.141602
812.253906	11997.531250
811.031250	11997.293945
809.808594	12179.107422
808.585938	12256.548828
807.363281	12154.021484
806.140625	12405.208008
804.917969	12319.041992
803.695313	12490.399414
802.470703	12426.722656
801.248047	12583.692383
800.023438	12401.560547
798.798828	12568.683594
797.574219	12621.410156
796.349609	12676.157227
795.125000	12828.843750
793.900391	12675.400391
792.673828	13029.995117
791.449219	12937.760742
790.222656	12988.312500
788.996094	12802.329102
787.769531	12903.848633
786.542969	13123.539063
785.316406	13212.729492
784.089844	13214.278320
782.861328	13411.374023
781.634766	13258.103516
780.406250	13638.370117
779.179688	13546.186523
777.951172	13918.108398
776.722656	13754.678711
775.494141	13868.969727
774.263672	13983.260742
773.035156	14097.551758
771.806641	14211.842773
770.576172	14255.880859
769.345703	14131.188477
768.115234	14087.834961
766.884766	14357.409180
765.654297	14297.773438
764.423828	14490.019531
763.193359	14763.419922
761.960938	14470.249023
760.730469	14749.635742
759.498047	14596.618164
758.265625	14837.317383
757.033203	14960.252930
755.800781	15095.311523
754.568359	15189.755859
753.335938	14992.187500
752.103516	15153.511719
750.869141	15144.519531
749.634766	15151.741211
748.402344	15339.277344
747.167969	15364.687500
745.933594	15586.538086
744.699219	15652.385742
743.462891	15716.182617
742.228516	15642.314453
740.992188	15615.019531
739.757813	15607.966797
738.521484	15770.842773
737.285156	15654.541992
736.048828	15714.213867
734.812500	16002.321289
733.576172	15720.287109
732.339844	15822.348633
731.101563	15716.248047
729.863281	15796.046875
728.626953	15728.366211
727.388672	15907.081055
726.150391	15940.355469
724.912109	15888.832031
723.673828	16174.376953
722.433594	16092.557617
721.195313	16139.887695
719.955078	16096.428711
718.716797	15980.384766
717.476563	16138.602539
716.236328	16077.022461
714.996094	16059.806641
713.755859	16066.778320
712.513672	16216.792969
711.273438	16084.738281
710.031250	16045.375000
708.791016	16074.489258
707.548828	16323.029297
706.306641	16112.550781
705.064453	16228.165039
703.822266	16045.952148
702.578125	16322.463867
701.335938	16355.504883
700.091797	16328.206055
698.849609	16164.205078
697.605469	16207.304688
696.361328	16153.920898
695.117188	16072.426758
693.873047	16513.281250
692.628906	16325.293945
691.382813	16083.159180
690.138672	16152.318359
688.892578	16313.787109
687.646484	16170.133789
686.400391	16385.710938
685.154297	16330.369141
683.908203	16331.209961
682.662109	16342.076172
681.414063	16362.961914
680.167969	16319.690430
678.919922	16338.565430
677.671875	16277.278320
676.425781	16550.591797
675.177734	16441.210938
673.927734	16233.740234
672.679688	16578.980469
671.431641	16461.646484
670.181641	16546.511719
668.933594	16451.238281
667.683594	16498.054688
666.433594	16514.847656
665.183594	16439.632813
663.933594	16830.345703
662.683594	16847.058594
661.431641	16398.046875
660.181641	16816.513672
658.929688	16571.476563
657.677734	16692.099609
656.425781	16712.810547
655.173828	16729.521484
653.921875	16915.919922
652.669922	16804.833984
651.417969	16909.320313
650.164063	17047.685547
648.910156	16876.787109
647.658203	16983.191406
646.404297	16932.015625
645.150391	16958.615234
643.896484	17102.810547
642.640625	17011.779297
641.386719	17030.373047
640.130859	17401.572266
638.876953	17603.324219
637.621094	17339.011719
636.365234	17457.072266
635.109375	17501.433594
633.853516	17607.472656
632.597656	17803.009766
631.339844	17666.234375
630.083984	17945.222656
628.826172	17762.730469
627.568359	17836.796875
626.310547	17936.673828
625.052734	18112.037109
623.794922	18132.333984
622.537109	18077.126953
621.279297	18266.259766
620.019531	18246.792969
618.759766	18382.205078
617.501953	18682.330078
616.242188	18811.646484
614.982422	18895.271484
613.720703	18740.781250
612.460938	18766.859375
611.201172	18731.447266
609.939453	19411.845703
608.679688	19346.580078
607.417969	19614.324219
606.156250	19741.261719
604.894531	19893.906250
603.632813	20230.710938
602.369141	19753.400391
601.107422	20107.917969
599.843750	20385.085938
598.582031	20670.060547
597.318359	20515.599609
596.054688	20636.214844
594.791016	20738.978516
593.527344	20770.500000
592.261719	20831.669922
590.998047	21171.568359
589.732422	21380.875000
588.468750	21493.265625
587.203125	21635.246094
585.937500	21743.587891
584.671875	21871.634766
583.404297	21784.394531
582.138672	22157.189453
580.873047	21935.699219
579.605469	22008.343750
578.337891	22086.878906
577.070313	22364.625000
575.804688	22334.578125
574.535156	22282.849609
573.267578	22400.693359
572.000000	22500.748047
570.730469	22711.125000
569.462891	22554.927734
568.193359	22566.238281
566.923828	22742.990234
565.654297	23098.869141
564.384766	22968.306641
563.115234	22633.076172
561.843750	22860.839844
560.574219	22974.386719
559.302734	22682.628906
558.031250	22878.771484
556.759766	22943.080078
555.488281	22850.074219
554.216797	22894.703125
552.945313	22898.041016
551.673828	22974.080078
550.400391	22835.949219
549.126953	22994.460938
547.853516	22801.394531
546.582031	23022.675781
545.306641	22874.824219
544.033203	22846.750000
542.759766	22779.439453
541.486328	22812.208984
540.210938	22697.853516
538.935547	23177.744141
537.660156	22790.826172
536.384766	23011.748047
535.109375	22891.560547
533.833984	22914.460938
532.558594	23156.773438
531.281250	22926.933594
530.005859	23159.353516
528.728516	22951.138672
527.451172	22793.902344
526.173828	23126.021484
524.896484	23060.777344
523.619141	23273.369141
522.339844	23014.474609
521.062500	23084.226563
519.783203	23013.171875
518.503906	23258.830078
517.224609	23373.441406
515.945313	23321.908203
514.666016	23354.402344
513.386719	23369.302734
512.105469	23362.714844
510.826172	23408.845703
509.544922	23609.173828
508.263672	23278.546875
506.982422	23303.197266
505.701172	23595.121094
504.419922	23553.375000
503.138672	23451.189453
501.855469	23824.796875
500.574219	23385.343750
499.291016	23641.869141
498.007813	23385.798828
496.724609	23515.582031
495.441406	23551.816406
494.158203	23523.767578
492.873047	23404.212891
491.589844	23348.947266
490.304688	23449.410156
489.019531	23456.423828
487.734375	23514.019531
486.449219	23380.962891
485.164063	23421.044922
483.878906	23132.505859
482.593750	23240.658203
481.306641	23237.978516
480.019531	23033.203125
478.732422	23222.906250
477.447266	23233.826172
476.158203	23516.630859
474.871094	23061.478516
473.583984	22769.576172
472.294922	22636.945313
471.007813	22595.568359
469.718750	22455.261719
468.429688	22735.935547
467.140625	22240.748047
465.851563	22077.322266
464.562500	22218.322266
463.271484	22357.326172
461.982422	22122.271484
460.691406	22414.294922
459.400391	22130.892578
458.109375	22016.093750
456.818359	21899.404297
455.527344	22080.886719
454.236328	21960.357422
452.943359	21992.748047
451.652344	21727.175781
450.359375	21775.072266
449.066406	21670.166016
447.773438	21727.720703
446.480469	21767.853516
445.187500	21811.833984
443.892578	21654.824219
442.599609	21776.089844
441.304688	21524.496094
440.011719	21396.601563
438.716797	21392.333984
437.421875	21409.304688
436.125000	21383.802734
434.830078	21788.640625
433.535156	21298.099609
432.238281	21388.369141
430.941406	21858.533203
429.646484	21721.126953
428.349609	21504.734375
427.052734	21265.296875
425.753906	21380.531250
424.457031	21742.330078
423.158203	21462.533203
421.861328	21333.066406
420.562500	21471.296875
419.263672	21363.054688
417.964844	21164.392578
416.666016	21358.375000
415.367188	21327.175781
414.066406	21292.142578
412.767578	21484.056641
411.466797	21081.746094
410.166016	21467.789063
408.865234	21229.013672
407.564453	21103.708984
406.263672	21114.865234
404.962891	21300.818359
403.660156	21087.228516
402.357422	20869.882813
401.056641	20959.783203
399.753906	20974.791016
398.451172	21162.498047
397.148438	20795.658203
395.843750	20728.203125
394.541016	21193.929688
393.236328	21066.980469
391.933594	20706.199219
390.628906	20730.812500
389.324219	20833.984375
388.019531	20780.007813
386.714844	20773.941406
385.408203	20790.857422
384.103516	20882.441406
382.796875	20705.974609
381.490234	20650.160156
380.183594	20862.273438
378.876953	20689.740234
377.570313	20796.552734
376.263672	20614.537109
374.957031	20805.451172
373.648438	20761.148438
372.339844	20552.488281
371.033203	20552.203125
369.724609	20913.013672
368.414063	20654.781250
367.105469	20545.615234
365.796875	20644.617188
364.486328	20522.132813
363.177734	20663.087891
361.867188	20718.117188
360.556641	20742.595703
359.246094	20501.917969
357.935547	20843.011719
356.625000	20802.619141
355.312500	20928.095703
354.001953	20721.878906
352.689453	20788.246094
351.376953	20645.009766
350.064453	20739.937500
348.751953	20739.601563
347.439453	20769.730469
346.125000	20830.306641
344.812500	20919.408203
343.498047	20641.205078
342.183594	20817.824219
340.871094	20644.371094
339.554688	20813.310547
338.240234	20715.982422
336.925781	20681.425781
335.611328	20740.017578
334.294922	20730.171875
332.978516	20646.236328
331.662109	20609.820313
330.345703	20374.007813
329.029297	20762.980469
327.712891	20618.353516
326.396484	20424.435547
325.078125	20486.771484
323.759766	20478.886719
322.443359	20588.607422
321.125000	20757.078125
319.806641	20633.476563
318.486328	20587.650391
317.167969	20752.226563
315.849609	20473.310547
314.529297	20562.058594
313.208984	20552.269531
311.888672	20695.886719
310.568359	20939.798828
309.248047	20468.027344
307.927734	20568.039063
306.607422	20613.134766
305.285156	20803.890625
303.962891	20780.822266
302.640625	20623.488281
301.320313	20944.593750
299.996094	20878.029297
298.673828	21440.882813
297.351563	21251.416016
296.027344	20901.431641
294.705078	20952.041016
293.380859	20838.326172
292.056641	21268.449219
290.732422	21188.695313
289.408203	21239.205078
288.083984	21259.500000
286.757813	21276.015625
285.433594	21192.548828
284.107422	21275.074219
282.781250	21282.146484
281.455078	21438.142578
280.128906	21320.781250
278.802734	21286.380859
277.474609	21086.199219
276.148438	21294.851563
274.820313	21185.142578
273.492188	21420.052734
272.164063	21065.632813
270.835938	21343.759766
269.507813	21476.878906
268.179688	21517.755859
266.849609	21359.224609
265.521484	21157.501953
264.191406	21260.464844
262.861328	21331.429688
261.531250	21411.761719
260.201172	21452.599609
258.871094	21440.814453
257.539063	21609.361328
256.208984	21584.404297
254.876953	21458.060547
253.544922	21555.164063
252.212891	21571.523438
250.880859	21507.183594
249.548828	21778.703125
248.214844	21648.693359
246.882813	21695.025391
245.548828	21887.593750
244.214844	22085.708984
242.880859	21854.527344
241.546875	22048.822266
240.212891	21943.267578
238.878906	22066.285156
237.542969	22084.375000
236.208984	22023.814453
234.873047	22242.218750
233.537109	22224.699219
232.201172	22063.093750
230.865234	22303.810547
229.529297	22422.843750
228.191406	22186.484375
226.855469	22380.287109
225.517578	22188.898438
224.179688	22229.355469
222.841797	22389.394531
221.503906	22349.455078
220.166016	22554.240234
218.828125	22293.902344
217.488281	22438.863281
216.150391	22191.720703
214.810547	22351.576172
213.470703	22147.468750
212.130859	22260.626953
210.791016	22228.236328
209.449219	22261.134766
208.109375	22258.591797
206.767578	22339.941406
205.427734	22052.203125
204.085938	22271.464844
202.744141	22108.687500
201.402344	22508.546875
200.058594	22239.625000
198.716797	22520.126953
197.375000	22524.982422
196.031250	22380.927734
194.687500	22426.750000
193.343750	22612.101563
192.000000	22672.742188
190.656250	22831.933594
189.310547	22931.556641
187.966797	22921.449219
186.621094	22926.218750
185.277344	23105.675781
183.931641	22995.207031
182.585938	23189.441406
181.240234	23071.570313
179.892578	23339.992188
178.546875	23487.628906
177.199219	23160.015625
175.851563	23467.234375
174.505859	23373.544922
173.158203	23003.482422
171.810547	23152.894531
170.460938	23083.431641
169.113281	23078.886719
167.763672	23087.318359
166.416016	22928.951172
165.066406	23094.908203
163.716797	23040.345703
162.367188	22915.419922
161.017578	23097.949219
159.666016	22660.164063
158.316406	22979.654297
156.964844	22991.796875
155.615234	22928.066406
154.263672	23293.566406
152.912109	23200.208984
151.558594	22979.289063
150.207031	23424.068359
148.855469	23179.158203
147.501953	23363.126953
