#Wave		#Intensity
1392.214844	3382.334229
1391.101563	3362.134521
1389.986328	3374.956543
1388.873047	3390.017090
1387.757813	3387.126953
1386.642578	3334.898682
1385.527344	3361.169922
1384.414063	3430.026611
1383.296875	3324.026123
1382.181641	3413.032715
1381.066406	3369.812012
1379.951172	3266.124023
1378.833984	3267.742188
1377.718750	3269.359863
1376.601563	3302.321045
1375.484375	3359.892578
1374.367188	3303.303711
1373.250000	3347.427734
1372.132813	3413.906738
1371.015625	3305.895264
1369.896484	3294.086426
1368.779297	3441.029785
1367.660156	3272.717529
1366.541016	3352.558350
1365.423828	3264.772705
1364.304688	3349.053467
1363.185547	3410.964355
1362.066406	3376.818359
1360.945313	3306.958496
1359.826172	3393.399902
1358.707031	3421.774902
1357.585938	3365.336426
1356.464844	3416.018311
1355.343750	3419.834229
1354.224609	3303.207764
1353.103516	3400.702148
1351.980469	3333.173584
1350.859375	3435.083984
1349.738281	3367.574463
1348.617188	3306.775391
1347.494141	3361.848145
1346.371094	3350.076904
1345.250000	3373.942627
1344.126953	3424.518555
1343.003906	3430.551758
1341.880859	3469.969238
1340.755859	3398.104736
1339.632813	3390.790283
1338.509766	3412.396973
1337.384766	3329.463623
1336.261719	3413.336670
1335.136719	3457.159912
1334.011719	3272.014404
1332.886719	3333.627197
1331.761719	3401.882813
1330.636719	3412.351563
1329.511719	3389.499023
1328.384766	3419.952881
1327.259766	3394.887207
1326.132813	3281.034424
1325.005859	3398.052246
1323.880859	3364.128662
1322.753906	3456.681641
1321.626953	3360.648926
1320.498047	3280.176758
1319.371094	3436.998779
1318.244141	3458.524902
1317.115234	3333.748291
1315.988281	3348.637207
1314.859375	3376.815186
1313.730469	3407.197754
1312.601563	3481.867676
1311.472656	3452.427734
1310.343750	3349.933350
1309.214844	3367.016357
1308.085938	3390.732910
1306.955078	3427.717529
1305.826172	3276.630859
1304.695313	3393.256348
1303.564453	3341.755127
1302.435547	3345.553467
1301.304688	3298.502197
1300.171875	3417.247070
1299.041016	3299.480957
1297.910156	3349.685059
1296.779297	3258.485352
1295.646484	3352.853027
1294.513672	3332.352783
1293.382813	3252.246826
1292.250000	3368.637939
1291.117188	3330.489746
1289.984375	3250.428955
1288.851563	3280.710938
1287.716797	3251.423828
1286.583984	3257.434814
1285.451172	3236.982910
1284.316406	3326.769775
1283.181641	3337.171631
1282.046875	3221.953125
1280.912109	3263.218262
1279.777344	3295.655762
1278.642578	3259.801758
1277.507813	3325.260498
1276.373047	3265.195068
1275.236328	3321.822998
1274.101563	3224.364746
1272.964844	3256.773438
1271.828125	3311.171143
1270.691406	3193.971680
1269.554688	3202.175781
1268.417969	3340.111084
1267.281250	3286.727539
1266.144531	3211.382813
1265.005859	3265.728516
1263.869141	3271.714355
1262.730469	3255.729248
1261.591797	3250.732422
1260.453125	3294.050293
1259.314453	3317.591309
1258.175781	3378.442139
1257.037109	3296.607910
1255.898438	3304.774414
1254.757813	3427.025879
1253.619141	3327.679199
1252.478516	3291.971436
1251.339844	3333.024414
1250.199219	3363.100342
1249.058594	3364.669434
1247.917969	3247.893555
1246.777344	3203.469238
1245.634766	3301.459961
1244.494141	3349.036377
1243.351563	3311.187500
1242.210938	3262.405029
1241.068359	3382.203369
1239.925781	3455.994385
1238.783203	3289.042725
1237.640625	3373.762939
1236.498047	3421.264404
1235.355469	3446.876953
1234.212891	3463.733154
1233.068359	3401.876465
1231.925781	3490.869385
1230.781250	3389.691650
1229.636719	3419.656250
1228.492188	3390.623535
1227.347656	3599.687744
1226.203125	3452.703125
1225.058594	3506.652100
1223.912109	3626.072998
1222.767578	3511.904785
1221.621094	3541.807861
1220.476563	3560.790527
1219.330078	3547.044434
1218.183594	3583.467529
1217.037109	3643.864014
1215.890625	3614.848389
1214.744141	3638.159424
1213.597656	3685.435791
1212.449219	3671.681396
1211.302734	3592.572998
1210.154297	3591.910156
1209.005859	3645.693359
1207.857422	3749.537598
1206.708984	3757.553955
1205.560547	3776.450684
1204.412109	3669.119141
1203.263672	3753.299561
1202.115234	3822.221191
1200.964844	3854.141846
1199.814453	3759.922363
1198.666016	3887.508301
1197.515625	3869.401123
1196.365234	3927.370361
1195.214844	3909.262207
1194.064453	3917.232178
1192.914063	3903.477051
1191.761719	4069.987793
1190.611328	4153.922852
1189.458984	4040.264648
1188.306641	4039.520264
1187.156250	4040.946289
1186.003906	4087.937988
1184.851563	4186.978027
1183.699219	4171.023926
1182.544922	4139.894531
1181.392578	4145.636719
1180.240234	4183.894043
1179.085938	4135.440430
1177.931641	4195.355469
1176.779297	4216.249023
1175.625000	4130.989746
1174.470703	4277.505371
1173.316406	4348.176758
1172.160156	4219.639648
1171.005859	4333.588379
1169.851563	4345.775879
1168.695313	4405.562988
1167.539063	4380.954102
1166.384766	4451.527832
1165.228516	4502.611816
1164.072266	4516.918457
1162.916016	4490.145020
1161.757813	4554.162109
1160.601563	4598.705566
1159.445313	4619.465820
1158.287109	4564.609375
1157.130859	4643.683594
1155.972656	4673.061523
1154.814453	4810.381348
1153.656250	4744.735840
1152.498047	4780.553223
1151.339844	4788.305176
1150.179688	4919.029297
1149.021484	4803.799316
1147.863281	4824.481934
1146.703125	4961.596191
1145.542969	4997.333008
1144.382813	4968.392090
1143.222656	5040.750977
1142.062500	5061.370117
1140.902344	5159.536621
1139.742188	5283.513184
1138.582031	5177.019531
1137.419922	5453.817383
1136.259766	5280.597168
1135.097656	5537.902832
1133.935547	5416.376465
1132.773438	5398.167480
1131.611328	5515.486328
1130.449219	5546.732422
1129.287109	5412.390625
1128.123047	5604.889160
1126.960938	5631.801758
1125.796875	5725.328125
1124.632813	5687.745605
1123.470703	5826.341797
1122.306641	5767.274902
1121.142578	5991.708008
1119.978516	5891.835449
1118.812500	5880.017090
1117.648438	6009.864258
1116.484375	6193.312500
1115.318359	6026.962402
1114.152344	6120.241699
1112.988281	6226.354980
1111.822266	6362.450684
1110.656250	6455.616211
1109.488281	6165.039551
1108.322266	6517.536133
1107.156250	6456.337402
1105.988281	6605.119141
1104.822266	6580.340332
1103.654297	6628.386719
1102.486328	6599.330078
1101.320313	6703.017090
1100.152344	6697.501953
1098.982422	6794.711426
1097.814453	6921.840820
1096.646484	6944.098145
1095.476563	6979.180176
1094.308594	7005.695313
1093.138672	7057.857422
1091.968750	7174.131348
1090.800781	7232.654297
1089.630859	7325.346680
1088.458984	7321.860352
1087.289063	7482.857422
1086.119141	7462.257324
1084.947266	7492.912598
1083.777344	7525.690918
1082.605469	7599.013672
1081.435547	7668.041016
1080.263672	7609.016113
1079.091797	7607.613770
1077.919922	7821.642578
1076.746094	7907.637207
1075.574219	7916.840820
1074.402344	7940.962891
1073.228516	8035.412109
1072.054688	8210.805664
1070.882813	8337.128906
1069.708984	8254.642578
1068.535156	8299.977539
1067.361328	8215.398438
1066.185547	8405.498047
1065.011719	8469.935547
1063.837891	8662.045898
1062.662109	8749.818359
1061.488281	8743.949219
1060.312500	8699.794922
1059.136719	8955.519531
1057.960938	8894.331055
1056.785156	8964.970703
1055.609375	9007.952148
1054.431641	9148.672852
1053.255859	9236.222656
1052.078125	9198.404297
1050.902344	9164.846680
1049.724609	9231.108398
1048.546875	9318.577148
1047.369141	9361.434570
1046.191406	9504.028320
1045.013672	9464.077148
1043.833984	9570.530273
1042.656250	9662.095703
1041.476563	9645.464844
1040.298828	9792.112305
1039.119141	9707.622070
1037.939453	10017.415039
1036.759766	9901.125000
1035.580078	9856.916992
1034.400391	9988.558594
1033.220703	10113.796875
1032.039063	10154.280273
1030.859375	10059.242188
1029.677734	10192.863281
1028.496094	10246.007813
1027.314453	10373.195313
1026.132813	10371.277344
1024.951172	10547.045898
1023.769531	10699.485352
1022.587891	10437.416016
1021.404297	10663.814453
1020.222656	10782.325195
1019.039063	10776.102539
1017.855469	10960.050781
1016.671875	10799.577148
1015.488281	10894.739258
1014.304688	10937.069336
1013.121094	10924.487305
1011.937500	11066.013672
1010.751953	10975.317383
1009.568359	11186.418945
1008.382813	11234.982422
1007.197266	11197.040039
1006.011719	11144.347656
1004.826172	11469.127930
1003.640625	11405.861328
1002.455078	11439.581055
1001.267578	11439.567383
1000.082031	11429.018555
998.894531	11557.515625
997.708984	11289.973633
996.521484	11336.316406
995.333984	11348.952148
994.146484	11414.211914
992.958984	11675.190430
991.771484	11454.167969
990.582031	11698.208984
989.394531	11639.240234
988.205078	11552.950195
987.015625	11737.956055
985.828125	11683.215820
984.638672	11584.351563
983.449219	11704.095703
982.259766	11596.858398
981.068359	11882.522461
979.878906	11842.505859
978.687500	11930.609375
977.498047	11575.641602
976.306641	11804.414063
975.115234	11728.756836
973.923828	11940.625977
972.732422	11833.498047
971.541016	12043.168945
970.349609	11938.158203
969.156250	11883.512695
967.964844	11824.694336
966.771484	11893.763672
965.578125	12080.171875
964.386719	11895.622070
963.193359	11983.493164
961.998047	11920.517578
960.804688	12098.401367
959.611328	12022.863281
958.417969	12037.371094
957.222656	11966.056641
956.027344	11840.359375
954.833984	12043.196289
953.638672	12285.703125
952.443359	12170.470703
951.248047	12199.568359
950.050781	12247.470703
948.855469	12205.469727
947.660156	12278.430664
946.462891	12255.244141
945.265625	12413.823242
944.068359	12392.707031
942.873047	12409.189453
941.675781	12373.464844
940.476563	12485.972656
939.279297	12166.383789
938.082031	12399.922852
936.882813	12462.286133
935.685547	12284.729492
934.486328	12547.312500
933.287109	12584.586914
932.087891	12509.263672
930.888672	12711.205078
929.689453	12683.819336
928.490234	12531.419922
927.289063	12395.743164
926.089844	12657.956055
924.888672	12643.092773
923.687500	12557.440430
922.486328	12388.549805
921.287109	12488.217773
920.083984	12552.470703
918.882813	12735.291992
917.681641	12489.523438
916.478516	12584.935547
915.277344	12630.404297
914.074219	12542.796875
912.871094	12640.220703
911.669922	12560.956055
910.466797	12608.469727
909.261719	12466.915039
908.058594	12321.257813
906.855469	12404.090820
905.650391	12283.414063
904.447266	12590.420898
903.242188	12382.581055
902.037109	12334.603516
900.832031	12292.868164
899.626953	12276.039063
898.421875	12209.440430
897.216797	12167.749023
896.009766	12026.559570
894.804688	11960.042969
893.597656	11926.708984
892.390625	11912.035156
891.183594	11791.712891
889.976563	11940.696289
888.769531	11565.697266
887.562500	11718.805664
886.355469	11466.123047
885.146484	11387.386719
883.939453	11374.897461
882.730469	11335.515625
881.521484	11207.202148
880.312500	11083.073242
879.103516	11080.985352
877.894531	10876.298828
876.685547	10770.901367
875.476563	10946.596680
874.265625	10996.187500
873.054688	10851.575195
871.845703	10725.605469
870.634766	10597.617188
869.423828	10475.871094
868.212891	10300.499023
867.001953	10430.641602
865.789063	10191.375977
864.578125	10108.993164
863.365234	9927.632813
862.154297	10084.553711
860.941406	9884.708008
859.728516	9847.794922
858.515625	9693.412109
857.302734	9532.905273
856.087891	9656.783203
854.875000	9500.461914
853.662109	9585.166992
852.447266	9344.491211
851.232422	9379.782227
850.017578	9303.906250
848.802734	9287.739258
847.587891	9096.681641
846.373047	9214.278320
845.158203	9134.375000
843.941406	8990.750977
842.726563	9067.177734
841.509766	9046.959961
840.292969	9039.080078
839.078125	8903.799805
837.859375	9043.872070
836.642578	9031.886719
835.425781	8892.576172
834.208984	8942.222656
832.990234	8911.785156
831.773438	8813.625000
830.554688	8832.474609
829.335938	8937.489258
828.117188	8722.450195
826.898438	8878.719727
825.679688	8751.947266
824.458984	8828.193359
823.240234	8697.377930
822.019531	8703.922852
820.800781	8814.965820
819.580078	8915.722656
818.359375	8930.414063
817.138672	8881.614258
815.917969	8970.014648
814.697266	8769.740234
813.474609	8946.134766
812.253906	8905.552734
811.031250	8940.684570
809.808594	8957.391602
808.585938	9121.342773
807.363281	9033.726563
806.140625	8860.279297
804.917969	9234.682617
803.695313	9147.091797
802.470703	9131.045898
801.248047	9119.091797
800.023438	9221.515625
798.798828	9095.193359
797.574219	9301.706055
796.349609	9177.456055
795.125000	9534.896484
793.900391	9306.584961
792.673828	9474.134766
791.449219	9549.833984
790.222656	9656.093750
788.996094	9609.392578
787.769531	9538.247070
786.542969	9632.216797
785.316406	9665.017578
784.089844	9765.038086
782.861328	9781.503906
781.634766	9875.352539
780.406250	9920.295898
779.179688	9973.364258
777.951172	10118.004883
776.722656	10109.963867
775.494141	9981.881836
774.263672	10209.839844
773.035156	10022.803711
771.806641	10185.594727
770.576172	10330.024414
769.345703	10297.554688
768.115234	10242.742188
766.884766	10458.191406
765.654297	10376.958008
764.423828	10474.493164
763.193359	10616.666016
761.960938	10574.022461
760.730469	10592.292969
759.498047	10750.595703
758.265625	10801.291016
757.033203	10860.081055
755.800781	10803.228516
754.568359	10981.646484
753.335938	10985.619141
752.103516	11143.660156
750.869141	10977.344727
749.634766	11042.107422
748.402344	11295.267578
747.167969	11195.863281
745.933594	11307.125977
744.699219	11531.738281
743.462891	11320.996094
742.228516	11037.466797
740.992188	11373.303711
739.757813	11445.977539
738.521484	11453.887695
737.285156	11500.223633
736.048828	11336.235352
734.812500	11520.053711
733.576172	11515.812500
732.339844	11430.732422
731.101563	11632.610352
729.863281	11549.558594
728.626953	11587.727539
727.388672	11569.336914
726.150391	11637.771484
724.912109	11538.630859
723.673828	11554.568359
722.433594	11824.750977
721.195313	11685.278320
719.955078	11779.842773
718.716797	11811.851563
717.476563	11732.949219
716.236328	11730.682617
714.996094	11776.788086
713.755859	11564.936523
712.513672	11860.884766
711.273438	11560.464844
710.031250	11662.956055
708.791016	11698.958008
707.548828	11857.750000
706.306641	11801.109375
705.064453	11746.502930
703.822266	11949.456055
702.578125	11945.129883
701.335938	11747.725586
700.091797	11713.276367
698.849609	11694.922852
697.605469	11827.332031
696.361328	11867.243164
695.117188	11820.738281
693.873047	11810.411133
692.628906	11729.788086
691.382813	11934.350586
690.138672	11821.609375
688.892578	11749.058594
687.646484	11742.764648
686.400391	11698.346680
685.154297	11758.267578
683.908203	11998.685547
682.662109	11653.430664
681.414063	11979.990234
680.167969	11975.657227
678.919922	11915.208008
677.671875	11878.826172
676.425781	11918.589844
675.177734	11838.152344
673.927734	11889.922852
672.679688	11839.554688
671.431641	11849.263672
670.181641	11925.016602
668.933594	11978.727539
667.683594	12024.413086
666.433594	12102.085938
665.183594	11865.734375
663.933594	11995.395508
662.683594	11817.130859
661.431641	11942.750977
660.181641	12248.176758
658.929688	11986.048828
657.677734	11979.716797
656.425781	12251.001953
655.173828	12172.733398
653.921875	12226.259766
652.669922	11946.421875
651.417969	12109.732422
650.164063	12227.085938
648.910156	12340.403320
647.658203	12122.587891
646.404297	12195.997070
645.150391	12149.753906
643.896484	12276.947266
642.640625	12422.026367
641.386719	12270.158203
640.130859	12524.750000
638.876953	12711.520508
637.621094	12675.181641
636.365234	12618.946289
635.109375	12638.375977
633.853516	12743.375977
632.597656	12699.096680
631.339844	12634.938477
630.083984	12708.050781
628.826172	12729.426758
627.568359	12681.205078
626.310547	13040.516602
625.052734	13224.787109
623.794922	13087.074219
622.537109	13118.285156
621.279297	13364.004883
620.019531	13196.553711
618.759766	13495.770508
617.501953	13483.199219
616.242188	13595.672852
614.982422	13565.225586
613.720703	13669.700195
612.460938	13750.330078
611.201172	13811.095703
609.939453	13784.591797
608.679688	13952.375977
607.417969	13987.295898
606.156250	14258.018555
604.894531	14197.762695
603.632813	14406.927734
602.369141	14594.225586
601.107422	14597.298828
599.843750	14776.564453
598.582031	14880.543945
597.318359	15146.753906
596.054688	14886.566406
594.791016	14948.917969
593.527344	15082.444336
592.261719	15229.759766
590.998047	15309.796875
589.732422	15235.627930
588.468750	15374.916992
587.203125	15397.577148
585.937500	15621.721680
584.671875	15549.520508
583.404297	15629.394531
582.138672	15829.666016
580.873047	16079.205078
579.605469	16087.878906
578.337891	15843.991211
577.070313	16148.612305
575.804688	16052.731445
574.535156	16146.192383
573.267578	16221.871094
572.000000	16346.798828
570.730469	16434.230469
569.462891	16387.640625
568.193359	16415.929688
566.923828	16513.140625
565.654297	16450.806641
564.384766	16575.533203
563.115234	16460.062500
561.843750	16608.353516
560.574219	16262.701172
559.302734	16540.810547
558.031250	16228.744141
556.759766	16681.765625
555.488281	16741.386719
554.216797	16443.220703
552.945313	16432.111328
551.673828	16595.884766
550.400391	16447.226563
549.126953	16528.435547
547.853516	16470.183594
546.582031	16341.269531
545.306641	16432.261719
544.033203	16462.376953
542.759766	16478.744141
541.486328	16383.277344
540.210938	16376.113281
538.935547	16514.068359
537.660156	16457.863281
536.384766	16601.626953
535.109375	16500.345703
533.833984	16522.552734
532.558594	16378.225586
531.281250	16482.712891
530.005859	16835.867188
528.728516	16476.183594
527.451172	16398.533203
526.173828	16637.974609
524.896484	16450.738281
523.619141	16467.042969
522.339844	16886.279297
521.062500	16800.794922
519.783203	16394.685547
518.503906	16735.488281
517.224609	16671.582031
515.945313	16621.378906
514.666016	16799.775391
513.386719	16882.388672
512.105469	16761.863281
510.826172	16832.734375
509.544922	16911.384766
508.263672	17034.892578
506.982422	16969.066406
505.701172	17002.767578
504.419922	16999.392578
503.138672	16910.208984
501.855469	16934.148438
500.574219	16780.679688
499.291016	17011.232422
498.007813	17081.902344
496.724609	17127.214844
495.441406	16977.722656
494.158203	17009.404297
492.873047	16922.298828
491.589844	16953.976563
490.304688	16833.826172
489.019531	16923.886719
487.734375	17169.552734
486.449219	16800.447266
485.164063	16725.150391
483.878906	16745.156250
482.593750	16722.386719
481.306641	16462.501953
480.019531	16527.242188
478.732422	16522.011719
477.447266	16644.984375
476.158203	16857.244141
474.871094	16747.095703
473.583984	16444.802734
472.294922	16476.466797
471.007813	16354.814453
469.718750	16479.609375
468.429688	16123.291992
467.140625	16314.019531
465.851563	16223.516602
464.562500	16138.865234
463.271484	16153.094727
461.982422	16101.432617
460.691406	15962.604492
459.400391	15858.697266
458.109375	15791.627930
456.818359	16003.410156
455.527344	16133.798828
454.236328	15660.253906
452.943359	15900.959961
451.652344	15698.512695
450.359375	15759.217773
449.066406	15775.416992
447.773438	15720.065430
446.480469	15680.201172
445.187500	15698.335938
443.892578	15469.112305
442.599609	15495.008789
441.304688	15675.426758
440.011719	15488.830078
438.716797	15354.440430
437.421875	15391.918945
436.125000	15292.342773
434.830078	15331.747070
433.535156	15571.787109
432.238281	15528.172852
430.941406	15436.360352
429.646484	15512.335938
428.349609	15401.284180
427.052734	15403.993164
425.753906	15395.138672
424.457031	15571.245117
423.158203	15439.078125
421.861328	15462.958984
420.562500	15400.182617
419.263672	15399.033203
417.964844	15193.862305
416.666016	15312.063477
415.367188	15459.076172
414.066406	15169.376953
412.767578	15329.820313
411.466797	15290.225586
410.166016	15406.364258
408.865234	15218.771484
407.564453	15200.359375
406.263672	15295.309570
404.962891	15161.633789
403.660156	15029.931641
402.357422	14929.003906
401.056641	14904.905273
399.753906	14923.041016
398.451172	14966.116211
397.148438	15112.777344
395.843750	14946.710938
394.541016	15074.137695
393.236328	14990.593750
391.933594	14920.501953
390.628906	14894.521484
389.324219	14671.171875
388.019531	14645.250000
386.714844	14768.749023
385.408203	14806.016602
384.103516	14952.410156
382.796875	14849.875000
381.490234	14837.337891
380.183594	14782.706055
378.876953	14957.683594
377.570313	14920.263672
376.263672	14664.835938
374.957031	14709.708008
373.648438	14890.292969
372.339844	14894.962891
371.033203	14832.747070
369.724609	14864.173828
368.414063	14811.539063
367.105469	14898.339844
365.796875	14868.630859
364.486328	14743.481445
363.177734	14755.804688
361.867188	14521.955078
360.556641	14715.566406
359.246094	14758.405273
357.935547	14808.856445
356.625000	14792.549805
355.312500	14974.511719
354.001953	14843.818359
352.689453	14867.530273
351.376953	14738.815430
350.064453	14850.161133
348.751953	14873.855469
347.439453	14777.583984
346.125000	14751.787109
344.812500	14798.326172
343.498047	14789.660156
342.183594	14752.458984
340.871094	14574.510742
339.554688	14714.234375
338.240234	14878.619141
336.925781	14677.938477
335.611328	14836.562500
334.294922	14877.305664
332.978516	14826.835938
331.662109	14601.629883
330.345703	14815.214844
329.029297	14679.342773
327.712891	14680.207031
326.396484	14764.583008
325.078125	14748.350586
323.759766	14735.918945
322.443359	14545.185547
321.125000	14711.068359
319.806641	14649.351563
318.486328	14636.947266
317.167969	14652.978516
315.849609	14750.486328
314.529297	14741.857422
313.208984	14676.404297
311.888672	14669.686523
310.568359	14642.143555
309.248047	14584.320313
307.927734	14696.864258
306.607422	14826.393555
305.285156	14751.540039
303.962891	14790.210938
302.640625	14949.902344
301.320313	14933.682617
299.996094	14847.523438
298.673828	14734.936523
297.351563	14811.364258
296.027344	14969.000000
294.705078	14714.786133
293.380859	14955.473633
292.056641	14946.826172
290.732422	14964.610352
289.408203	14972.950195
288.083984	15200.184570
286.757813	15212.247070
285.433594	15214.872070
284.107422	15125.085938
282.781250	15001.396484
281.455078	15120.941406
280.128906	15153.738281
278.802734	15267.551758
277.474609	15143.929688
276.148438	14809.386719
274.820313	15156.727539
273.492188	15394.720703
272.164063	15197.751953
270.835938	15142.024414
269.507813	15170.998047
268.179688	15034.395508
266.849609	15099.119141
265.521484	15389.496094
264.191406	15390.192383
262.861328	15274.333008
261.531250	15023.192383
260.201172	15337.782227
258.871094	15075.455078
257.539063	15269.689453
256.208984	15063.821289
254.876953	15246.713867
253.544922	15262.453125
252.212891	15347.632813
250.880859	15303.295898
249.548828	15240.214844
248.214844	15387.248047
246.882813	15562.355469
245.548828	15398.005859
244.214844	15616.158203
242.880859	15566.196289
241.546875	15512.505859
240.212891	15657.435547
238.878906	15686.168945
237.542969	15595.030273
236.208984	15567.590820
234.873047	15871.520508
233.537109	15804.730469
232.201172	15810.949219
230.865234	15766.648438
229.529297	15873.883789
228.191406	15827.718750
226.855469	15893.761719
225.517578	15980.343750
224.179688	15762.225586
222.841797	15732.936523
221.503906	15664.423828
220.166016	16036.785156
218.828125	15717.976563
217.488281	16028.559570
216.150391	15896.567383
214.810547	15658.236328
213.470703	15832.417969
212.130859	15652.032227
210.791016	15883.973633
209.449219	15845.391602
208.109375	15603.576172
206.767578	15837.253906
205.427734	15724.146484
204.085938	15825.394531
202.744141	15799.904297
201.402344	15910.411133
200.058594	15933.337891
198.716797	16040.050781
197.375000	15932.622070
196.031250	15942.501953
194.687500	15950.516602
193.343750	16034.813477
192.000000	15929.331055
190.656250	16134.491211
189.310547	16213.123047
187.966797	16317.751953
186.621094	16372.152344
185.277344	16145.911133
183.931641	16466.025391
182.585938	16172.977539
181.240234	16463.242188
179.892578	16396.859375
178.546875	16406.621094
177.199219	16381.112305
175.851563	16444.693359
174.505859	16324.557617
173.158203	16436.359375
171.810547	16434.974609
170.460938	16272.261719
169.113281	16237.539063
167.763672	16275.123047
166.416016	16294.159180
165.066406	16127.894531
163.716797	16330.356445
162.367188	16147.481445
161.017578	16223.934570
159.666016	16233.706055
158.316406	16169.428711
156.964844	16301.355469
155.615234	16401.773438
154.263672	16219.101563
152.912109	16358.339844
151.558594	16486.427734
150.207031	16473.947266
148.855469	16548.355469
147.501953	16502.599609
