#Wave		#Intensity
1438.076172	12757.986328
1436.968750	12692.444336
1435.863281	12900.167969
1434.755859	12762.155273
1433.650391	12836.520508
1432.542969	12750.515625
1431.435547	12614.870117
1430.328125	12781.777344
1429.220703	12948.622070
1428.113281	12715.983398
1427.003906	12758.687500
1425.896484	12754.004883
1424.787109	12733.537109
1423.679688	12807.783203
1422.570313	12645.282227
1421.460938	12642.880859
1420.351563	12642.733398
1419.242188	12568.232422
1418.132813	12788.870117
1417.021484	12631.033203
1415.912109	12549.821289
1414.802734	12756.829102
1413.691406	12574.328125
1412.580078	12598.953125
1411.468750	12468.306641
1410.357422	12459.196289
1409.246094	12321.877930
1408.134766	12812.058594
1407.023438	12533.071289
1405.910156	12514.964844
1404.798828	12708.143555
1403.685547	12579.898438
1402.574219	12530.338867
1401.460938	12781.811523
1400.347656	12680.577148
1399.234375	12520.997070
1398.121094	12662.320313
1397.007813	12754.208008
1395.892578	12673.253906
1394.779297	12475.652344
1393.664063	12457.596680
1392.550781	12495.623047
1391.435547	12755.648438
1390.320313	12677.013672
1389.205078	12513.224609
1388.089844	12302.429688
1386.974609	12127.567383
1385.857422	12340.369141
1384.742188	12373.888672
1383.625000	12163.279297
1382.509766	12414.021484
1381.392578	12315.421875
1380.275391	12270.580078
1379.158203	12221.279297
1378.041016	12409.171875
1376.923828	12328.544922
1375.806641	12290.445313
1374.687500	12449.148438
1373.570313	12424.456055
1372.451172	12321.533203
1371.332031	12245.468750
1370.214844	12290.099609
1369.095703	12254.284180
1367.976563	12225.184570
1366.855469	12571.291016
1365.736328	12544.375977
1364.617188	12182.599609
1363.496094	12285.226563
1362.376953	12336.487305
1361.255859	12541.682617
1360.134766	12347.488281
1359.013672	12472.312500
1357.892578	12316.113281
1356.771484	12431.977539
1355.650391	12565.631836
1354.529297	12623.460938
1353.406250	12353.707031
1352.285156	12371.451172
1351.162109	12418.146484
1350.039063	12406.920898
1348.917969	12444.685547
1347.794922	12444.589844
1346.671875	12511.269531
1345.546875	12390.990234
1344.423828	12495.479492
1343.300781	12410.841797
1342.175781	12446.339844
1341.052734	12506.285156
1339.927734	12650.695313
1338.802734	12426.048828
1337.677734	12705.991211
1336.552734	12594.744141
1335.427734	12492.425781
1334.302734	12450.118164
1333.175781	12474.452148
1332.050781	12301.159180
1330.923828	12718.453125
1329.798828	12620.645508
1328.671875	12476.271484
1327.544922	12584.891602
1326.417969	12788.860352
1325.291016	12464.881836
1324.164063	12575.660156
1323.035156	12542.285156
1321.908203	12508.921875
1320.779297	12515.464844
1319.652344	12690.413086
1318.523438	12641.532227
1317.394531	12588.239258
1316.265625	12344.505859
1315.136719	12610.140625
1314.007813	12406.341797
1312.878906	12558.981445
1311.748047	12326.499023
1310.619141	12547.686523
1309.488281	12375.022461
1308.357422	12414.752930
1307.228516	12511.963867
1306.097656	12531.755859
1304.966797	12323.852539
1303.833984	12345.881836
1302.703125	12423.145508
1301.572266	12085.027344
1300.439453	12259.503906
1299.308594	12336.741211
1298.175781	12327.833008
1297.042969	12327.759766
1295.910156	12073.848633
1294.777344	12184.165039
1293.644531	12208.389648
1292.511719	12351.731445
1291.378906	12086.974609
1290.244141	11981.092773
1289.111328	12212.590820
1287.976563	12042.796875
1286.841797	12042.775391
1285.707031	12022.920898
1284.572266	12232.207031
1283.437500	12077.953125
1282.302734	12124.174805
1281.167969	12042.664063
1280.033203	11996.408203
1278.896484	11947.967773
1277.759766	11996.379883
1276.625000	11967.760742
1275.488281	11972.150391
1274.351563	12040.326172
1273.214844	12005.117188
1272.078125	11859.983398
1270.939453	11820.423828
1269.802734	12013.857422
1268.666016	11952.308594
1267.527344	11899.570313
1266.388672	11899.571289
1265.251953	11996.210938
1264.113281	11980.823242
1262.974609	11919.334961
1261.833984	11842.504883
1260.695313	11897.382813
1259.556641	11910.549805
1258.416016	11978.558594
1257.277344	11886.417969
1256.136719	11794.311523
1254.998047	11952.202148
1253.857422	12066.189453
1252.716797	11956.565430
1251.576172	11985.042969
1250.433594	12009.127930
1249.292969	11886.430664
1248.152344	12024.416016
1247.009766	12065.998047
1245.869141	11868.916016
1244.726563	12236.676758
1243.583984	11892.998047
1242.441406	11963.019531
1241.298828	12208.040039
1240.156250	12197.042969
1239.013672	12011.088867
1237.869141	11833.948242
1236.726563	11995.736328
1235.582031	12004.457031
1234.437500	12340.985352
1233.294922	11995.668945
1232.150391	11991.276367
1231.005859	12270.832031
1229.859375	12229.265625
1228.714844	12165.879883
1227.570313	11991.185547
1226.423828	12143.943359
1225.279297	12060.967773
1224.132813	12087.112305
1222.986328	12065.256836
1221.839844	12228.791992
1220.693359	12021.567383
1219.546875	12156.708008
1218.400391	12211.146484
1217.253906	11997.500977
1216.105469	12143.464844
1214.958984	12234.910156
1213.810547	12330.678711
1212.662109	12073.611328
1211.515625	12134.535156
1210.367188	12088.763672
1209.218750	12123.542969
1208.068359	12045.147461
1206.919922	12234.401367
1205.771484	12042.893555
1204.621094	12362.576172
1203.472656	12021.069336
1202.322266	12110.174805
1201.171875	12040.561523
1200.021484	12210.044922
1198.871094	11960.080078
1197.720703	12014.368164
1196.570313	11964.372070
1195.417969	12083.791992
1194.267578	12042.486328
1193.115234	12148.821289
1191.962891	11942.552734
1190.812500	12057.547852
1189.660156	12085.708008
1188.507813	11968.508789
1187.353516	11957.632813
1186.201172	12233.014648
1185.048828	11961.910156
1183.894531	12044.254883
1182.742188	11877.319336
1181.587891	11933.644531
1180.433594	12126.444336
1179.279297	12020.238281
1178.125000	12048.349609
1176.970703	12163.066406
1175.816406	11959.485352
1174.662109	11825.245117
1173.505859	11926.954102
1172.351563	12024.295898
1171.195313	11885.791016
1170.039063	12013.386719
1168.884766	12009.015625
1167.728516	11911.669922
1166.570313	12017.571289
1165.414063	11935.388672
1164.257813	11952.643555
1163.101563	12062.798828
1161.943359	12205.316406
1160.785156	12250.588867
1159.628906	12086.377930
1158.470703	12302.218750
1157.312500	12077.616211
1156.154297	12209.206055
1154.996094	12165.961914
1153.835938	12325.533203
1152.677734	12215.414063
1151.517578	12154.937500
1150.359375	12187.202148
1149.199219	12197.895508
1148.039063	12294.803711
1146.878906	12219.269531
1145.718750	12447.572266
1144.558594	12380.654297
1143.398438	12580.841797
1142.236328	12625.904297
1141.076172	12246.790039
1139.914063	12597.578125
1138.753906	12629.697266
1137.591797	12734.968750
1136.429688	12668.080078
1135.267578	12708.770508
1134.105469	12762.350586
1132.941406	12641.734375
1131.779297	12865.149414
1130.615234	13058.388672
1129.453125	13071.028320
1128.289063	13019.201172
1127.125000	12956.651367
1125.960938	13242.090820
1124.796875	13119.389648
1123.632813	13282.304688
1122.468750	13217.602539
1121.304688	13268.828125
1120.138672	13337.201172
1118.974609	13435.586914
1117.808594	13403.079102
1116.642578	13422.058594
1115.476563	13578.270508
1114.310547	13453.561523
1113.144531	13656.868164
1111.978516	13770.084961
1110.812500	13883.259766
1109.644531	13861.418945
1108.476563	13788.177734
1107.310547	13839.177734
1106.142578	13870.885742
1104.974609	13876.892578
1103.806641	13994.199219
1102.638672	13965.938477
1101.470703	14143.093750
1100.300781	14200.384766
1099.132813	13986.019531
1097.962891	14101.055664
1096.794922	14372.127930
1095.625000	14264.730469
1094.455078	14445.905273
1093.285156	14391.955078
1092.115234	14543.127930
1090.945313	14598.119141
1089.773438	14546.303711
1088.603516	14861.780273
1087.431641	14658.355469
1086.261719	14843.487305
1085.089844	15005.075195
1083.917969	14923.356445
1082.746094	15212.869141
1081.574219	14977.568359
1080.402344	15205.118164
1079.228516	14854.767578
1078.056641	15261.323242
1076.882813	15126.359375
1075.710938	15323.875977
1074.537109	15474.447266
1073.363281	15484.369141
1072.189453	15521.973633
1071.015625	15689.457031
1069.841797	15629.073242
1068.666016	15745.386719
1067.492188	15797.809570
1066.316406	15786.376953
1065.142578	15715.379883
1063.966797	15976.226563
1062.791016	15811.645508
1061.615234	16108.523438
1060.439453	15871.698242
1059.263672	16117.441406
1058.085938	16261.088867
1056.910156	16166.717773
1055.732422	16242.324219
1054.556641	16273.299805
1053.378906	16516.613281
1052.201172	16509.308594
1051.023438	16616.632813
1049.845703	16677.226563
1048.667969	16731.427734
1047.488281	16889.566406
1046.310547	16665.837891
1045.130859	16891.791016
1043.953125	17075.251953
1042.773438	16841.011719
1041.593750	17251.207031
1040.414063	17053.042969
1039.234375	17223.623047
1038.054688	17290.335938
1036.873047	17456.568359
1035.693359	17440.625000
1034.511719	17458.562500
1033.332031	17393.935547
1032.150391	17560.021484
1030.968750	17535.603516
1029.787109	17771.416016
1028.605469	17603.126953
1027.423828	17836.724609
1026.240234	18089.261719
1025.058594	18016.138672
1023.875000	17921.904297
1022.693359	18151.037109
1021.509766	18158.230469
1020.326172	18266.818359
1019.142578	18178.939453
1017.958984	18287.482422
1016.773438	18417.095703
1015.589844	18274.349609
1014.406250	18458.791016
1013.220703	18430.037109
1012.035156	18738.851563
1010.849609	18334.587891
1009.666016	18468.259766
1008.478516	18479.583984
1007.292969	18750.208984
1006.107422	18715.101563
1004.921875	18827.525391
1003.734375	18623.853516
1002.548828	18767.849609
1001.361328	18905.470703
1000.173828	18706.107422
998.986328	18569.980469
997.798828	18884.382813
996.611328	18741.955078
995.423828	18671.126953
994.234375	18804.396484
993.046875	19065.929688
991.857422	18677.509766
990.667969	19014.664063
989.478516	19006.912109
988.289063	18791.074219
987.099609	18762.349609
985.910156	18672.701172
984.720703	18587.289063
983.529297	18791.751953
982.339844	18616.048828
981.148438	18526.490234
979.957031	18669.972656
978.767578	18733.646484
977.576172	18679.785156
976.382813	18575.591797
975.191406	18626.658203
974.000000	18574.939453
972.806641	18632.275391
971.615234	18400.283203
970.421875	18583.388672
969.228516	18628.111328
968.037109	18291.484375
966.841797	18589.720703
965.648438	18628.130859
964.455078	18704.218750
963.261719	18623.251953
962.066406	18588.367188
960.873047	18526.285156
959.677734	18506.076172
958.482422	18577.923828
957.287109	18459.400391
956.091797	18332.552734
954.896484	18408.572266
953.701172	18398.851563
952.503906	18384.951172
951.308594	18519.427734
950.111328	18196.281250
948.914063	18387.142578
947.718750	18160.214844
946.521484	18311.333984
945.322266	18403.937500
944.125000	18277.326172
942.927734	18411.636719
941.730469	18291.330078
940.531250	18321.273438
939.332031	18175.996094
938.134766	18431.175781
936.935547	18496.519531
935.736328	18263.732422
934.537109	18462.472656
933.335938	18108.910156
932.136719	18499.285156
930.935547	18360.404297
929.736328	18256.980469
928.535156	18457.613281
927.333984	18504.105469
926.132813	18186.312500
924.931641	18155.833984
923.730469	18189.871094
922.529297	18354.953125
921.328125	18257.898438
920.125000	18298.130859
918.921875	18282.207031
917.720703	18214.320313
916.517578	18289.867188
915.314453	18155.505859
914.111328	18108.451172
912.908203	17943.013672
911.703125	18080.853516
910.500000	17975.697266
909.294922	18285.789063
908.091797	18091.378906
906.886719	18102.490234
905.681641	18011.927734
904.476563	17867.462891
903.271484	17799.792969
902.064453	17609.796875
900.859375	17652.083984
899.654297	17758.611328
898.447266	17635.048828
897.240234	17619.283203
896.033203	17611.808594
894.826172	17509.054688
893.619141	17437.400391
892.412109	17479.654297
891.205078	17385.259766
889.996094	17568.250000
888.789063	17180.019531
887.580078	17505.736328
886.371094	17490.009766
885.164063	17273.671875
883.955078	17328.298828
882.744141	17221.644531
881.535156	17127.431641
880.326172	17272.984375
879.115234	16864.724609
877.906250	16865.658203
876.695313	16858.330078
875.484375	16722.966797
874.273438	16515.390625
873.062500	16541.156250
871.851563	16469.908203
870.640625	16468.845703
869.427734	16564.748047
868.216797	16369.770508
867.003906	16496.587891
865.791016	16274.888672
864.578125	16154.288086
863.365234	15936.857422
862.152344	16100.750000
860.939453	16050.300781
859.726563	15896.870117
858.511719	15918.561523
857.298828	15876.408203
856.083984	15968.092773
854.869141	15847.724609
853.654297	15570.991211
852.439453	15537.162109
851.224609	15805.759766
850.007813	15492.165039
848.792969	15353.488281
847.576172	15552.057617
846.361328	15296.246094
845.144531	15431.034180
843.927734	15257.537109
842.710938	15104.649414
841.494141	15278.421875
840.277344	15213.896484
839.058594	15124.753906
837.841797	15257.361328
836.623047	15209.292969
835.404297	15134.564453
834.187500	15314.281250
832.968750	15007.754883
831.750000	15146.405273
830.529297	14934.352539
829.310547	15001.205078
828.091797	14959.392578
826.871094	15071.298828
825.650391	15066.368164
824.429688	14991.786133
823.210938	14870.121094
821.988281	15131.447266
820.767578	15142.883789
819.546875	14957.797852
818.326172	14766.642578
817.103516	14772.000000
815.880859	14812.134766
814.660156	14999.527344
813.437500	14816.685547
812.214844	14819.980469
810.992188	15037.925781
809.767578	14812.256836
808.544922	15030.117188
807.322266	14822.921875
806.097656	14844.591797
804.873047	15052.105469
803.648438	14881.777344
802.423828	14760.510742
801.199219	14900.559570
799.974609	15052.797852
798.750000	14945.847656
797.523438	15016.416992
796.298828	14850.364258
795.072266	15020.843750
793.845703	14865.045898
792.619141	14915.187500
791.392578	14679.983398
790.166016	14827.947266
788.939453	14816.946289
787.710938	14846.685547
786.484375	14835.683594
785.255859	14802.287109
784.027344	14992.828125
782.798828	14912.600586
781.570313	14946.357422
780.341797	15008.583984
779.113281	14877.542969
777.884766	15076.015625
776.654297	15020.244141
775.423828	14877.076172
774.195313	14841.687500
772.964844	14916.047852
771.734375	14872.535156
770.503906	14796.537109
769.273438	14923.666016
768.041016	14951.245117
766.810547	14946.329102
765.578125	14728.284180
764.345703	15005.500000
763.115234	14968.109375
761.882813	14790.755859
760.648438	14848.746094
759.416016	14900.628906
758.183594	14834.897461
756.949219	14945.545898
755.716797	14952.790039
754.482422	14866.821289
753.248047	15009.809570
752.013672	14956.268555
750.779297	14983.750977
749.544922	14964.654297
748.310547	15016.414063
747.074219	15058.034180
745.839844	15051.071289
744.603516	14898.443359
743.367188	14925.899414
742.130859	15048.393555
740.894531	15039.412109
739.658203	14911.159180
738.421875	15065.921875
737.185547	14907.399414
735.947266	14884.304688
734.708984	14954.137695
733.472656	15104.728516
732.234375	14936.220703
730.996094	14913.133789
729.755859	14867.852539
728.517578	14984.031250
727.279297	15182.887695
726.039063	14891.469727
724.800781	14918.830078
723.560547	14952.228516
722.320313	15302.138672
721.080078	15000.841797
719.839844	14937.466797
718.599609	15015.159180
717.357422	15066.630859
716.117188	14962.994141
714.875000	14968.138672
713.632813	14860.532227
712.390625	14871.731445
711.148438	14923.175781
709.906250	14994.721680
708.664063	14941.506836
707.421875	15147.782227
706.177734	14961.831055
704.935547	15093.626953
703.691406	14974.093750
702.447266	14924.949219
701.203125	14918.021484
699.958984	14923.149414
698.714844	15129.138672
697.468750	14881.181641
696.224609	14982.687500
694.978516	15017.907227
693.732422	15227.727539
692.486328	15164.554688
691.240234	15151.563477
689.994141	15090.434570
688.748047	15169.713867
687.501953	14986.290039
686.253906	15059.542969
685.007813	14992.461914
683.759766	15238.022461
682.511719	15253.076172
681.263672	15047.775391
680.015625	15034.819336
678.767578	15234.120117
677.517578	15277.187500
676.269531	15222.157227
675.019531	15153.139648
673.769531	15110.158203
672.521484	15067.193359
671.271484	15258.247070
670.019531	15323.248047
668.769531	15450.199219
667.519531	15137.350586
666.267578	15378.199219
665.017578	15105.446289
663.765625	15016.586914
662.513672	15203.386719
661.261719	15485.963867
660.009766	15183.452148
658.757813	15276.289063
657.503906	15430.956055
656.251953	15336.144531
654.998047	15251.343750
653.746094	15190.509766
652.492188	15291.225586
651.238281	15310.156250
649.984375	15309.144531
648.728516	15234.391602
647.474609	15183.578125
646.218750	15122.823242
644.964844	15123.836914
643.708984	15053.157227
642.453125	15285.141602
641.197266	15098.999023
639.941406	15153.749023
638.685547	15224.395508
637.427734	15304.960938
636.171875	15397.426758
634.914063	15183.598633
633.656250	15246.226563
632.400391	15219.372070
631.142578	15234.265625
629.882813	15133.899414
628.625000	15059.399414
627.367188	15159.724609
626.107422	15182.557617
624.849609	14887.692383
623.589844	15388.992188
622.330078	14937.403320
621.070313	15281.727539
619.810547	15209.277344
618.548828	15323.313477
617.289063	15365.908203
616.027344	15529.436523
614.767578	15199.274414
613.505859	15505.476563
612.244141	15670.859375
610.982422	15697.487305
609.720703	15749.855469
608.457031	15701.198242
607.195313	15775.324219
605.931641	15841.500977
604.669922	15994.739258
603.406250	15851.080078
602.142578	16029.975586
600.878906	16072.307617
599.615234	16255.041992
598.349609	16222.171875
597.085938	16143.843750
595.820313	16231.577148
594.556641	16477.369141
593.291016	16254.801758
592.025391	16488.636719
590.759766	16418.228516
589.492188	16570.978516
588.226563	16630.876953
586.960938	16690.751953
585.693359	16859.142578
584.425781	16832.130859
583.158203	16755.814453
581.890625	16991.144531
580.623047	17037.080078
579.355469	16862.189453
578.087891	17077.646484
576.818359	16922.521484
575.548828	17007.835938
574.281250	17097.056641
573.011719	17008.980469
571.742188	17302.955078
570.472656	17252.279297
569.201172	17168.158203
567.931641	17040.775391
566.660156	17200.710938
565.390625	17189.433594
564.119141	17213.562500
562.847656	17115.763672
561.576172	17155.625000
560.304688	17295.716797
559.031250	17254.947266
557.759766	17174.898438
556.486328	17193.101563
555.214844	17101.308594
553.941406	17296.250000
552.667969	17094.525391
551.394531	17330.611328
550.121094	17227.083984
548.845703	17121.634766
547.572266	17135.892578
546.296875	17207.025391
545.021484	17354.605469
543.748047	17278.619141
542.472656	17410.441406
541.195313	17224.724609
539.919922	17307.517578
538.644531	17439.253906
537.367188	17241.886719
536.091797	17522.408203
534.814453	17381.876953
533.537109	17478.255859
532.259766	17292.775391
530.982422	17306.949219
529.703125	17190.044922
528.425781	17464.369141
527.148438	17566.496094
525.869141	17514.126953
524.589844	17663.117188
523.310547	17522.798828
522.031250	17732.298828
520.751953	17662.351563
519.470703	17631.494141
518.191406	17612.367188
516.910156	17700.626953
515.630859	17814.228516
514.349609	17945.349609
513.068359	18000.316406
511.787109	17813.353516
510.503906	17942.443359
509.222656	17958.373047
507.941406	18149.769531
506.658203	18027.250000
505.375000	18056.794922
504.091797	17924.597656
502.808594	17893.755859
501.525391	18229.103516
500.242188	18227.421875
498.957031	18194.587891
497.673828	18227.951172
496.388672	18343.041016
495.103516	18331.605469
493.818359	18104.228516
492.533203	18036.437500
491.248047	18058.125000
489.962891	18095.357422
488.675781	18113.136719
487.390625	18327.199219
486.103516	18166.156250
484.816406	18086.771484
483.529297	18244.380859
482.242188	18299.003906
480.955078	18209.929688
479.666016	18039.359375
478.378906	18126.982422
477.089844	18032.169922
475.800781	18137.216797
474.511719	17922.181641
473.222656	17825.525391
471.933594	17827.789063
470.644531	17921.158203
469.353516	17783.857422
468.064453	18072.904297
466.773438	17842.636719
465.482422	17746.105469
464.191406	17994.316406
462.900391	17804.857422
461.609375	17963.912109
460.316406	17648.734375
459.025391	17987.707031
457.732422	17908.669922
456.441406	17926.375000
455.148438	17644.328125
453.855469	18135.771484
452.562500	17706.878906
451.267578	18014.509766
449.974609	18240.857422
448.679688	17937.773438
447.386719	18129.279297
446.091797	18042.623047
444.796875	18382.697266
443.501953	18180.203125
442.205078	18361.853516
440.910156	18425.726563
439.615234	18366.101563
438.318359	18337.363281
437.021484	18447.482422
435.724609	18428.376953
434.427734	18881.558594
433.130859	19049.318359
431.833984	18708.308594
430.537109	19045.570313
429.238281	18893.457031
427.939453	18997.529297
426.642578	18897.468750
425.343750	19186.294922
424.042969	19118.955078
422.744141	19249.833984
421.445313	19424.908203
420.144531	19496.046875
418.845703	19484.462891
417.544922	19445.966797
416.244141	19517.056641
414.943359	19428.597656
413.642578	19491.972656
412.341797	19538.033203
411.039063	19612.884766
409.738281	19505.269531
408.435547	19891.136719
407.132813	19720.160156
405.832031	19547.333984
404.527344	19879.230469
403.224609	19645.046875
401.921875	19641.126953
400.617188	19765.693359
399.314453	19479.904297
398.009766	19441.511719
396.705078	19500.878906
395.400391	19359.023438
394.095703	19567.812500
392.791016	19479.630859
391.484375	19240.197266
390.179688	19136.796875
388.873047	19205.720703
387.566406	18981.792969
386.259766	19243.980469
384.953125	18853.693359
383.646484	18899.664063
382.339844	18968.562500
381.031250	18781.228516
379.724609	18670.433594
378.416016	18578.794922
377.107422	18334.326172
375.798828	18405.175781
374.490234	18370.943359
373.181641	18638.453125
371.871094	18291.062500
370.562500	18170.972656
369.251953	18062.378906
367.941406	17986.267578
366.630859	17938.802734
365.320313	18179.371094
364.009766	18049.884766
362.699219	17794.609375
361.386719	17840.625000
360.076172	18044.808594
358.763672	18029.779297
357.451172	17572.767578
356.138672	17763.548828
354.826172	17600.041016
353.513672	17535.607422
352.199219	17638.714844
350.886719	17252.652344
349.572266	17447.109375
348.257813	17356.121094
346.943359	17609.443359
345.628906	17497.539063
344.314453	17134.703125
343.000000	17355.601563
341.683594	17125.978516
340.369141	17399.994141
339.052734	17026.066406
337.736328	17110.050781
336.419922	17089.552734
335.103516	17034.884766
333.785156	16617.666016
332.468750	16845.904297
331.150391	16791.318359
329.833984	16861.964844
328.515625	16594.957031
327.197266	16648.546875
325.878906	16495.447266
324.560547	16503.539063
323.240234	16585.542969
321.921875	16606.878906
320.601563	16626.308594
319.281250	16513.142578
317.960938	16420.851563
316.640625	16360.785156
315.320313	16484.363281
314.000000	16742.271484
312.679688	16595.130859
311.357422	16593.724609
310.035156	16641.498047
308.712891	16776.244141
307.390625	16563.035156
306.068359	16497.363281
304.746094	16484.636719
303.423828	16555.056641
302.099609	16617.892578
300.777344	16769.482422
299.453125	16883.240234
298.128906	16874.222656
296.804688	16591.486328
295.480469	16476.837891
294.154297	16683.025391
292.830078	16913.658203
291.503906	16755.628906
290.177734	16882.431641
288.853516	16850.798828
287.527344	17052.937500
286.199219	17045.787109
284.873047	16970.800781
283.546875	16912.798828
282.218750	16809.615234
280.892578	16943.761719
279.564453	16857.556641
278.236328	16991.640625
276.908203	16625.021484
275.580078	16823.078125
274.250000	16958.970703
272.921875	16901.062500
271.591797	16796.160156
270.261719	16809.759766
268.933594	16930.505859
267.603516	16942.193359
266.271484	16923.806641
264.941406	16649.912109
263.611328	16947.167969
262.279297	16699.669922
260.947266	16694.490234
259.617188	16944.626953
258.285156	17031.371094
256.953125	17232.552734
255.619141	16908.316406
254.287109	16970.630859
252.953125	16890.384766
251.621094	16939.552734
250.287109	17136.802734
248.953125	16953.482422
247.619141	17004.482422
246.285156	17261.558594
244.951172	17248.787109
243.615234	17200.435547
242.281250	17393.656250
240.945313	17300.365234
239.609375	17281.980469
238.273438	17366.529297
236.937500	17346.267578
235.601563	17331.626953
234.263672	17517.111328
232.927734	17468.785156
231.589844	17691.560547
230.251953	17628.263672
228.914063	17381.849609
227.576172	17417.666016
226.238281	17503.908203
224.900391	17347.312500
223.560547	17536.238281
222.222656	17594.400391
220.882813	17450.947266
219.542969	17318.746094
218.203125	17727.703125
216.863281	17505.957031
215.523438	17629.349609
214.181641	17555.025391
212.841797	17680.224609
211.500000	17456.796875
210.158203	17401.189453
208.816406	17669.820313
207.474609	17610.466797
206.132813	17770.921875
204.791016	17547.697266
203.447266	17899.873047
202.105469	17626.451172
