#Wave		#Intensity
1438.171875	5855.877441
1437.066406	6061.544922
1435.960938	5951.925293
1434.853516	5871.717285
1433.746094	5938.361328
1432.640625	5883.028809
1431.533203	6026.415527
1430.425781	5975.603027
1429.318359	5875.153809
1428.208984	5860.496094
1427.101563	5987.984863
1425.994141	6040.984863
1424.884766	5913.536133
1423.775391	6038.687988
1422.667969	5929.324707
1421.558594	5880.863281
1420.449219	5942.848633
1419.339844	5849.338867
1418.230469	5753.611816
1417.119141	5860.633301
1416.009766	5834.750977
1414.898438	5952.974609
1413.789063	5949.595215
1412.677734	5941.716309
1411.566406	5911.337891
1410.455078	5975.462891
1409.343750	5913.598633
1408.232422	5892.239258
1407.121094	5942.840820
1406.007813	5887.762695
1404.896484	5994.538086
1403.783203	6076.553223
1402.671875	6156.291016
1401.558594	6294.404785
1400.445313	6241.559082
1399.332031	6325.711914
1398.218750	6160.624023
1397.105469	6130.280762
1395.990234	6241.338379
1394.876953	6112.262207
1393.761719	6169.439453
1392.648438	6013.509277
1391.533203	6225.422363
1390.417969	6123.352539
1389.302734	5960.794434
1388.187500	6024.670898
1387.072266	6039.223145
1385.955078	5874.532715
1384.839844	5819.666504
1383.722656	5955.189941
1382.607422	5969.745117
1381.490234	5896.982422
1380.373047	5992.124512
1379.255859	5908.194824
1378.138672	5956.311523
1377.021484	5897.028320
1375.904297	5945.128906
1374.785156	6075.954102
1373.667969	5878.059082
1372.548828	6013.318359
1371.431641	5983.136230
1370.312500	5966.372559
1369.193359	5949.615723
1368.074219	5888.189453
1366.955078	5938.453613
1365.833984	6107.043945
1364.714844	5940.695313
1363.595703	5999.850098
1362.474609	6123.701172
1361.353516	5966.368164
1360.234375	5945.174805
1359.113281	5839.233398
1357.992188	5996.472168
1356.871094	6004.270020
1355.748047	5976.398438
1354.626953	5957.451660
1353.505859	6043.244629
1352.382813	6042.116211
1351.261719	6056.581055
1350.138672	5941.869141
1349.015625	5911.813477
1347.892578	5886.222168
1346.769531	5929.641113
1345.646484	5953.015137
1344.523438	5936.330566
1343.398438	5986.389648
1342.275391	6056.447754
1341.150391	6126.479980
1340.025391	6034.181641
1338.902344	6126.421387
1337.777344	6000.819336
1336.652344	6026.367188
1335.525391	6031.911133
1334.400391	6039.673828
1333.275391	6087.409180
1332.148438	5995.238281
1331.023438	5976.362793
1329.896484	6032.961914
1328.769531	5956.386719
1327.642578	6021.844238
1326.515625	6042.909180
1325.388672	6044.004395
1324.261719	6073.927246
1323.134766	6037.324707
1322.005859	6084.972168
1320.878906	6055.029785
1319.750000	6002.939453
1318.623047	6026.196289
1317.494141	6038.368652
1316.365234	6037.248047
1315.236328	6089.270996
1314.105469	5935.384277
1312.976563	6047.169922
1311.847656	6015.066406
1310.716797	6042.715332
1309.587891	5895.588379
1308.457031	6111.253906
1307.326172	6136.658203
1306.195313	5965.274414
1305.064453	5833.744629
1303.933594	6082.414551
1302.802734	5875.779297
1301.669922	5949.810059
1300.539063	6003.932129
1299.406250	5945.398438
1298.275391	5997.293457
1297.142578	5901.251465
1296.009766	6017.147461
1294.876953	5857.136719
1293.744141	5820.749512
1292.611328	5907.916504
1291.476563	5851.682129
1290.343750	5821.931152
1289.210938	5807.625977
1288.076172	5989.522461
1286.941406	5831.927734
1285.806641	5874.922852
1284.671875	5884.853516
1283.537109	5896.983398
1282.402344	5787.975098
1281.267578	5837.552246
1280.130859	5915.731934
1278.996094	5919.041992
1277.859375	5796.905273
1276.724609	5857.445801
1275.587891	5968.563965
1274.451172	5853.083984
1273.314453	5841.007813
1272.177734	5813.544434
1271.039063	5867.431152
1269.902344	5872.942383
1268.765625	5869.661133
1267.626953	5774.101074
1266.488281	5805.987305
1265.351563	6055.298828
1264.212891	5896.074707
1263.074219	5791.797852
1261.935547	5821.461914
1260.794922	5818.193848
1259.656250	5942.196777
1258.517578	5888.447754
1257.376953	5832.524902
1256.236328	5864.346680
1255.097656	5972.900391
1253.957031	5820.531738
1252.816406	5983.851074
1251.675781	5912.621094
1250.533203	5769.111816
1249.392578	5805.290527
1248.251953	5896.212402
1247.109375	5952.062988
1245.968750	5885.282715
1244.826172	5919.224121
1243.683594	5966.284668
1242.541016	6011.139648
1241.398438	6001.281250
1240.255859	5807.680664
1239.113281	6014.381348
1237.968750	6000.154297
1236.826172	5983.746094
1235.681641	6030.732910
1234.539063	6169.491211
1233.394531	6017.588379
1232.250000	5964.049805
1231.105469	5952.031250
1229.960938	6005.531738
1228.814453	6043.728516
1227.669922	6012.053711
1226.525391	6017.495605
1225.378906	6090.584473
1224.232422	5978.190918
1223.087891	6121.064941
1221.941406	5978.172852
1220.794922	6129.716309
1219.648438	6043.560547
1218.501953	6131.821289
1217.353516	6121.976074
1216.207031	6179.683594
1215.058594	6106.652832
1213.912109	6125.133789
1212.763672	5982.449219
1211.615234	6229.574219
1210.466797	6113.047363
1209.318359	6109.746582
1208.169922	6038.984375
1207.021484	6146.664551
1205.871094	6195.568848
1204.722656	6131.354492
1203.572266	6212.862305
1202.421875	6155.190430
1201.271484	6191.013672
1200.123047	6196.395996
1198.970703	6140.931641
1197.820313	6226.707031
1196.669922	6258.145508
1195.519531	6287.400391
1194.367188	6129.902832
1193.216797	6250.353027
1192.064453	6112.455078
1190.912109	6169.927246
1189.759766	6170.962891
1188.607422	6202.369629
1187.455078	6253.286133
1186.302734	6304.183594
1185.148438	6127.398438
1183.996094	6219.488770
1182.841797	6066.625488
1181.689453	6301.716309
1180.535156	6294.058105
1179.380859	6165.093262
1178.226563	6298.241699
1177.072266	6214.797363
1175.917969	6179.014648
1174.761719	6411.659668
1173.607422	6449.437012
1172.453125	6285.963379
1171.296875	6226.394531
1170.140625	6432.902344
1168.984375	6433.882324
1167.828125	6296.478027
1166.671875	6368.823242
1165.515625	6281.193848
1164.359375	6347.032227
1163.201172	6410.685059
1162.044922	6601.769531
1160.886719	6488.242676
1159.728516	6433.062988
1158.572266	6526.879395
1157.414063	6447.966797
1156.255859	6377.715820
1155.095703	6380.858887
1153.937500	6681.733398
1152.779297	6652.462402
1151.619141	6638.298828
1150.460938	6593.952148
1149.300781	6663.883789
1148.140625	6626.014648
1146.980469	6542.901855
1145.820313	6692.527832
1144.660156	6654.673340
1143.500000	6666.372559
1142.337891	6645.764160
1141.177734	6713.441406
1140.015625	6895.188477
1138.853516	6945.575684
1137.693359	6965.816895
1136.531250	7044.142090
1135.369141	7049.299316
1134.207031	7009.288086
1133.042969	7048.854980
1131.880859	7047.557617
1130.716797	7093.550781
1129.554688	7141.675781
1128.390625	7153.253418
1127.226563	7272.245605
1126.062500	7320.310547
1124.898438	7383.390137
1123.734375	7313.320313
1122.570313	7206.780762
1121.406250	7456.582031
1120.240234	7427.311035
1119.076172	7398.050293
1117.910156	7501.802734
1116.744141	7603.372070
1115.578125	7535.494629
1114.412109	7675.611816
1113.246094	7631.325195
1112.080078	7739.224121
1110.914063	7682.083984
1109.746094	7858.491211
1108.580078	7779.929199
1107.412109	7872.728027
1106.244141	8040.437012
1105.076172	7844.135742
1103.908203	8028.910645
1102.740234	8012.450195
1101.572266	8242.058594
1100.404297	8257.653320
1099.234375	8380.185547
1098.066406	8303.792969
1096.896484	8206.046875
1095.726563	8407.615234
1094.556641	8344.082031
1093.386719	8489.990234
1092.216797	8539.701172
1091.046875	8619.297852
1089.876953	8577.127930
1088.705078	8763.456055
1087.535156	8588.907227
1086.363281	8747.414063
1085.191406	8737.261719
1084.019531	8831.668945
1082.847656	8812.970703
1081.675781	9003.311523
1080.503906	8952.599609
1079.332031	9066.083984
1078.158203	9134.758789
1076.986328	9056.340820
1075.812500	9280.554688
1074.638672	9155.264648
1073.466797	9302.688477
1072.292969	9486.264648
1071.117188	9378.039063
1069.943359	9465.725586
1068.769531	9389.472656
1067.595703	9623.973633
1066.419922	9509.416992
1065.244141	9709.768555
1064.070313	9684.574219
1062.894531	9935.858398
1061.718750	9812.822266
1060.542969	10021.469727
1059.365234	10008.988281
1058.189453	9968.883789
1057.013672	10230.503906
1055.835938	10192.497070
1054.658203	10324.416992
1053.482422	10309.764648
1052.304688	10371.549805
1051.126953	10318.683594
1049.949219	10482.316406
1048.769531	10524.935547
1047.591797	10603.605469
1046.414063	10569.823242
1045.234375	10606.039063
1044.054688	10763.102539
1042.876953	10848.028320
1041.697266	10850.256836
1040.517578	11089.834961
1039.337891	10930.986328
1038.156250	11125.972656
1036.976563	11204.394531
1035.796875	11126.081055
1034.615234	11274.341797
1033.433594	11246.847656
1032.253906	11522.017578
1031.072266	11433.121094
1029.890625	11395.032227
1028.708984	11705.978516
1027.525391	11526.155273
1026.343750	11695.289063
1025.162109	11889.728516
1023.978516	11688.832031
1022.794922	11969.845703
1021.613281	11967.622070
1020.429688	11876.671875
1019.246094	11982.183594
1018.062500	11939.833008
1016.876953	12144.527344
1015.693359	12252.039063
1014.507813	12196.997070
1013.324219	11981.600586
1012.138672	12274.742188
1010.953125	12185.973633
1009.767578	12257.522461
1008.582031	12326.933594
1007.396484	12543.894531
1006.210938	12577.392578
1005.025391	12427.531250
1003.837891	12334.615234
1002.652344	12601.968750
1001.464844	12667.022461
1000.277344	12567.792969
999.089844	12474.916992
997.902344	12453.646484
996.714844	12333.463867
995.527344	12644.705078
994.337891	12730.711914
993.150391	12642.094727
991.960938	12734.376953
990.771484	12679.434570
989.582031	12664.455078
988.394531	12739.864258
987.203125	12806.838867
986.013672	12730.908203
984.824219	12776.850586
983.634766	12654.744141
982.443359	12916.978516
981.251953	12734.001953
980.062500	12559.490234
978.871094	12760.728516
977.679688	12739.458984
976.488281	12743.372070
975.294922	12824.896484
974.103516	12696.665039
972.912109	12878.813477
971.718750	12861.730469
970.525391	12482.035156
969.333984	12657.832031
968.140625	12776.990234
966.947266	12638.432617
965.753906	12680.051758
964.558594	12428.481445
963.365234	12553.871094
962.171875	12597.573242
960.976563	12701.954102
959.781250	12657.724609
958.585938	12575.852539
957.392578	12734.560547
956.195313	12543.953125
955.000000	12767.425781
953.804688	12593.606445
952.609375	12440.751953
951.412109	12868.916016
950.216797	12747.407227
949.019531	12444.199219
947.822266	12694.586914
946.625000	12744.411133
945.427734	12656.417969
944.230469	12606.031250
943.031250	12451.310547
941.833984	12580.431641
940.634766	12467.498047
939.437500	12579.878906
938.238281	12727.669922
937.039063	12637.705078
935.839844	12781.258789
934.640625	12657.966797
933.441406	12699.348633
932.240234	12736.547852
931.041016	12604.999023
929.839844	12783.826172
928.640625	12531.540039
927.439453	12487.542969
926.238281	12574.700195
925.037109	12553.602539
923.835938	12501.300781
922.634766	12421.972656
921.431641	12577.711914
920.230469	12635.651367
919.027344	12668.617188
917.824219	12576.840820
916.621094	12441.451172
915.417969	12638.597656
914.214844	12578.041016
913.011719	12388.715820
911.808594	12716.599609
910.603516	12504.478516
909.400391	12286.207031
908.195313	12483.154297
906.990234	12412.313477
905.787109	12395.445313
904.582031	12364.062500
903.375000	12330.615234
902.169922	12274.369141
900.964844	12301.077148
899.757813	12433.494141
898.552734	12149.277344
897.345703	12227.794922
896.138672	12068.029297
894.931641	12231.457031
893.724609	12202.220703
892.517578	12034.265625
891.310547	12220.375977
890.101563	12071.107422
888.894531	11917.754883
887.685547	11878.256836
886.476563	11834.634766
885.267578	11780.687500
884.058594	11780.523438
882.849609	11792.763672
881.640625	11759.523438
880.431641	11728.361328
879.220703	11794.325195
878.011719	11746.639648
876.800781	11610.154297
875.589844	11484.045898
874.378906	11535.549805
873.167969	11560.197266
871.957031	11510.533203
870.746094	11491.839844
869.533203	11380.311523
868.322266	11314.204102
867.109375	11318.243164
865.896484	11413.004883
864.683594	11427.329102
863.470703	11338.587891
862.257813	11354.979492
861.044922	11212.713867
859.832031	11262.082031
858.617188	11099.289063
857.404297	11161.013672
856.189453	11006.536133
854.974609	11142.357422
853.759766	10891.212891
852.544922	11156.634766
851.330078	11033.131836
850.115234	11037.201172
848.898438	11028.929688
847.683594	11111.127930
846.466797	11045.284180
845.250000	10950.689453
844.033203	11115.050781
842.816406	11024.585938
841.599609	10938.264648
840.382813	10897.157227
839.166016	10763.663086
837.947266	10927.899414
836.728516	10942.234375
835.511719	10823.170898
834.292969	10693.893555
833.074219	10890.836914
831.855469	10743.135742
830.636719	10880.524414
829.416016	10894.846680
828.197266	10941.960938
826.976563	10929.622070
825.757813	10894.747070
824.537109	10900.858398
823.316406	10978.655273
822.095703	10941.741211
820.875000	10896.650391
819.652344	10978.496094
818.431641	10902.713867
817.208984	10996.801758
815.988281	11045.843750
814.765625	11000.772461
813.542969	11094.785156
812.320313	11029.273438
811.097656	11143.686523
809.875000	11039.353516
808.650391	10859.447266
807.427734	11061.681641
806.203125	10934.950195
804.980469	11182.023438
803.755859	11286.060547
802.531250	11218.564453
801.306641	11100.062500
800.082031	11204.052734
798.855469	11183.538086
797.630859	11052.868164
796.404297	11150.687500
795.179688	11175.054688
793.953125	11174.946289
792.726563	11278.797852
791.500000	11329.619141
790.273438	11174.615234
789.044922	11211.174805
787.818359	11253.830078
786.589844	11172.241211
785.363281	11115.116211
784.134766	11418.333984
782.906250	11171.897461
781.677734	11236.898438
780.449219	11133.007813
779.220703	11104.418945
777.990234	11201.933594
776.761719	11207.908203
775.531250	11140.693359
774.300781	11223.914063
773.072266	11138.430664
771.841797	11201.299805
770.611328	11099.600586
769.378906	11136.047852
768.148438	11184.665039
766.916016	11147.992188
765.685547	11180.347656
764.453125	11208.630859
763.220703	11169.943359
761.988281	11064.324219
760.755859	11183.882813
759.523438	11204.028320
758.291016	11143.066406
757.056641	10962.528320
755.824219	11019.183594
754.589844	11219.683594
753.355469	11339.068359
752.121094	11063.428711
750.886719	11144.319336
749.652344	11099.642578
748.417969	11235.150391
747.181641	11322.029297
745.947266	11161.999023
744.710938	11190.185547
743.474609	11305.338867
742.238281	11171.693359
741.001953	11236.254883
739.765625	11135.018555
738.529297	11231.899414
737.292969	11154.951172
736.054688	11096.215820
734.816406	11073.863281
733.580078	11091.912109
732.341797	11200.819336
731.103516	11289.494141
729.865234	11156.102539
728.625000	11168.062500
727.386719	11165.894531
726.146484	11296.867188
724.908203	11113.151367
723.667969	11155.356445
722.427734	11030.205078
721.187500	11201.414063
719.947266	11072.270508
718.707031	11340.121094
717.464844	11204.955078
716.224609	11315.568359
714.982422	11279.133789
713.740234	11101.775391
712.500000	11214.354492
711.257813	11409.406250
710.013672	11157.671875
708.771484	11058.932617
707.529297	11173.441406
706.285156	11444.765625
705.042969	11279.673828
703.798828	11265.415039
702.554688	11132.579102
701.310547	11126.390625
700.066406	11156.366211
698.822266	11208.425781
697.576172	11192.181641
696.332031	11212.084961
695.085938	11193.837891
693.841797	11181.618164
692.595703	11370.074219
691.349609	11291.615234
690.103516	11189.113281
688.855469	11229.045898
687.609375	11359.192383
686.363281	11228.668945
685.115234	11436.934570
683.867188	11384.600586
682.619141	11208.063477
681.371094	11458.275391
680.123047	11241.735352
678.875000	11299.609375
677.626953	11425.529297
676.376953	11459.324219
675.128906	11495.105469
673.878906	11452.839844
672.628906	11216.544922
671.378906	11376.354492
670.128906	11270.144531
668.878906	11409.887695
667.626953	11303.710938
666.376953	11253.533203
665.125000	11299.283203
663.875000	11327.035156
662.623047	11320.820313
661.371094	11476.359375
660.119141	11314.386719
658.865234	11260.268555
657.613281	11202.179688
656.361328	11160.075195
655.107422	11469.102539
653.853516	11217.529297
652.599609	11211.340820
651.345703	11139.357422
650.091797	11179.032227
648.837891	11278.481445
647.583984	11132.798828
646.328125	11210.301758
645.074219	11006.923828
643.818359	11130.223633
642.562500	11259.446289
641.306641	11066.129883
640.050781	11115.703125
638.794922	11111.528320
637.537109	11027.774414
636.281250	11129.040039
635.023438	10999.573242
633.765625	11025.247070
632.507813	11150.305664
631.250000	11122.274414
629.992188	11062.458008
628.734375	11044.387695
627.476563	11020.363281
626.216797	11045.998047
624.957031	11162.958008
623.699219	11170.686523
622.439453	11065.276367
621.179688	11166.286133
619.919922	11120.438477
618.658203	11146.018555
617.398438	11102.173828
616.136719	11163.436523
614.876953	11200.885742
613.615234	11438.507813
612.353516	11327.260742
611.091797	11408.240234
609.830078	11459.474609
608.566406	11643.381836
607.304688	11621.284180
606.041016	11575.436523
604.779297	11509.814453
603.515625	11632.215820
602.251953	11699.168945
600.988281	11847.200195
599.724609	11716.305664
598.458984	11804.951172
597.195313	12063.583008
595.929688	11887.258789
594.666016	11965.935547
593.400391	12115.708984
592.134766	12038.249023
590.869141	12069.445313
589.603516	12142.096680
588.335938	12246.305664
587.070313	12237.963867
585.802734	12415.129883
584.535156	12160.120117
583.269531	12370.765625
582.001953	12628.663086
580.732422	12458.551758
579.464844	12363.425781
578.197266	12351.124023
576.927734	12526.045898
575.660156	12769.861328
574.390625	12785.063477
573.121094	12695.871094
571.851563	12628.374023
570.582031	12720.375000
569.312500	12587.941406
568.041016	12695.657227
566.771484	12704.948242
565.500000	12667.020508
564.228516	12617.306641
562.957031	12742.625977
561.685547	12818.743164
560.414063	12641.257813
559.142578	12831.349609
557.869141	12767.894531
556.597656	12920.558594
555.324219	12760.867188
554.050781	12993.983398
552.777344	12712.612305
551.503906	12786.646484
550.230469	12746.821289
548.957031	12718.784180
547.681641	12757.457031
546.408203	12656.856445
545.132813	12764.160156
543.857422	12591.053711
542.582031	12861.025391
541.306641	12889.830078
540.031250	12691.326172
538.753906	12923.892578
537.478516	12991.837891
536.201172	12809.096680
534.923828	12814.383789
533.648438	12939.076172
532.371094	12834.735352
531.091797	13047.424805
529.814453	13001.792969
528.537109	12967.915039
527.257813	12982.937500
525.978516	12960.805664
524.701172	13057.922852
523.421875	13061.190430
522.142578	13177.788086
520.861328	13261.126953
519.582031	13256.537109
518.302734	13419.891602
517.021484	13305.933594
515.740234	13258.389648
514.460938	13374.804688
513.179688	13409.218750
511.896484	13338.269531
510.615234	13331.714844
509.333984	13625.480469
508.050781	13671.511719
506.769531	13604.462891
505.486328	13553.032227
504.203125	13554.231445
502.919922	13590.497070
501.636719	13632.590820
500.353516	13468.242188
499.068359	13751.772461
497.785156	13715.942383
496.500000	13865.017578
495.214844	13692.967773
493.929688	13620.204102
492.644531	13819.779297
491.359375	13852.031250
490.074219	13722.892578
488.787109	13832.906250
487.501953	13861.247070
486.214844	13535.923828
484.927734	13723.617188
483.640625	13707.286133
482.353516	13747.278320
481.066406	13746.480469
479.777344	13627.268555
478.490234	13719.653320
477.201172	13563.625000
475.912109	13570.622070
474.623047	13637.744141
473.333984	13528.366211
472.044922	13566.385742
470.755859	13522.972656
469.464844	13529.967773
468.175781	13476.889648
466.884766	13458.703125
465.593750	13502.506836
464.302734	13433.970703
463.011719	13315.121094
461.720703	13442.164063
460.429688	13433.677734
459.136719	13469.699219
457.845703	13490.228516
456.552734	13443.049805
455.259766	13376.550781
453.966797	13344.880859
452.673828	13475.602539
451.378906	13358.884766
450.085938	13433.512695
448.791016	13498.450195
447.498047	13308.397461
446.203125	13485.340820
444.908203	13370.665039
443.613281	13466.447266
442.318359	13469.550781
441.021484	13698.418945
439.726563	13709.190430
438.429688	13727.671875
437.134766	13778.930664
435.837891	13687.489258
434.541016	13989.334961
433.244141	13909.450195
431.945313	13945.213867
430.648438	13880.781250
429.349609	13997.433594
428.052734	14008.121094
426.753906	14134.327148
425.455078	13862.004883
424.156250	14084.419922
422.857422	14068.138672
421.556641	14148.057617
420.257813	14122.152344
418.957031	14190.488281
417.658203	14058.834961
416.357422	14353.989258
415.056641	14339.592773
413.755859	14225.281250
412.453125	14487.564453
411.152344	14400.158203
409.849609	14510.587891
408.548828	14440.492188
407.246094	14502.877930
405.943359	14580.591797
404.640625	14593.033203
403.337891	14465.418945
402.033203	14431.842773
400.730469	14294.722656
399.425781	14531.538086
398.123047	14313.938477
396.818359	14590.902344
395.513672	14509.426758
394.208984	14226.823242
392.902344	14289.109375
391.597656	13995.170898
390.292969	14206.820313
388.986328	14410.728516
387.679688	14310.245117
386.373047	14228.935547
385.066406	14088.350586
383.759766	14100.841797
382.453125	14193.647461
381.144531	13615.306641
379.837891	13933.741211
378.529297	13923.317383
377.220703	13700.791992
375.912109	13696.148438
374.603516	13691.506836
373.294922	13673.499023
371.984375	13582.942383
370.675781	13710.041992
369.365234	13451.560547
368.054688	13532.837891
366.744141	13684.671875
365.433594	13367.218750
364.123047	13610.561523
362.812500	13626.915039
361.500000	13296.317383
360.189453	13367.997070
358.876953	13472.041992
357.564453	13259.791016
356.251953	13891.433594
354.939453	13237.366211
353.626953	13128.104492
352.312500	13213.054688
351.000000	13202.808594
349.685547	13276.292969
348.371094	13052.958984
347.056641	13105.519531
345.742188	13093.400391
344.427734	12925.375000
343.113281	12947.512695
341.796875	12751.073242
340.482422	12965.158203
339.166016	12840.987305
337.849609	12836.531250
336.533203	12928.928711
335.216797	12844.710938
333.900391	12789.000977
332.582031	12625.129883
331.265625	12569.484375
329.947266	12629.589844
328.628906	12515.165039
327.310547	12506.985352
325.992188	12709.270508
324.673828	12522.861328
323.353516	12617.030273
322.035156	12364.390625
320.714844	12581.699219
319.396484	12654.963867
318.076172	12400.572266
316.755859	12488.991211
315.435547	12590.625000
314.113281	12557.839844
312.792969	12561.020508
311.470703	12645.551758
310.150391	12533.329102
308.828125	12485.451172
307.505859	12414.902344
306.183594	12459.695313
304.859375	12574.403320
303.537109	12643.712891
302.214844	12414.487305
300.890625	12697.247070
299.566406	12747.605469
298.242188	12643.114258
296.917969	12544.327148
295.593750	12728.691406
294.269531	12843.161133
292.943359	12714.207031
291.619141	12707.912109
290.292969	12718.591797
288.966797	12738.696289
287.640625	12779.528320
286.314453	12760.031250
284.988281	12638.783203
283.660156	12736.131836
282.333984	12554.659180
281.005859	12908.114258
279.677734	12845.302734
278.349609	12445.540039
277.021484	12700.932617
275.693359	12779.334961
274.365234	12458.841797
273.035156	12719.723633
271.707031	12559.227539
270.376953	12530.416992
269.046875	12821.208984
267.716797	12653.269531
266.386719	12368.885742
265.056641	12708.385742
263.724609	12758.469727
262.394531	12487.380859
261.062500	12526.220703
259.730469	12709.601563
258.398438	12585.086914
257.066406	12680.182617
255.734375	12490.054688
254.402344	12712.690430
253.068359	12618.281250
251.736328	12713.294922
250.402344	12677.040039
249.068359	12560.200195
247.734375	12821.957031
246.400391	12757.596680
245.064453	12648.303711
243.730469	12799.386719
242.394531	12832.440430
241.060547	12743.791016
239.724609	12978.996094
238.388672	12809.880859
237.052734	13022.528320
235.716797	12898.368164
234.378906	13054.804688
233.042969	13009.224609
231.705078	13051.533203
230.367188	13103.170898
229.029297	13014.625977
227.691406	13139.121094
226.353516	13201.919922
225.015625	12973.327148
223.675781	12892.346680
222.337891	12884.210938
220.998047	13021.676758
219.658203	12895.943359
218.318359	13029.621094
216.978516	12963.633789
215.638672	12925.649414
214.296875	13005.163086
212.957031	12778.877930
211.615234	12862.118164
210.273438	12868.913086
208.931641	12967.009766
207.589844	12897.399414
206.248047	13103.483398
204.906250	13080.430664
203.562500	13048.077148
202.220703	12933.830078
