#Wave		#Intensity
1438.171875	18534.949219
1437.066406	18374.482422
1435.960938	18339.341797
1434.853516	18579.839844
1433.746094	18777.330078
1432.640625	18389.830078
1431.533203	18614.376953
1430.425781	18538.591797
1429.318359	18641.142578
1428.208984	18621.798828
1427.101563	18584.412109
1425.994141	18761.339844
1424.884766	18446.535156
1423.775391	18352.832031
1422.667969	18577.048828
1421.558594	18645.650391
1420.449219	18696.197266
1419.339844	18372.691406
1418.230469	18306.126953
1417.119141	18376.982422
1416.009766	18256.396484
1414.898438	18275.451172
1413.789063	18600.644531
1412.677734	18471.083984
1411.566406	18517.091797
1410.455078	18556.332031
1409.343750	18532.576172
1408.232422	18472.845703
1407.121094	18195.031250
1406.007813	18569.271484
1404.896484	18457.873047
1403.783203	18555.509766
1402.671875	18527.289063
1401.558594	18759.662109
1400.445313	18805.531250
1399.332031	18417.994141
1398.218750	18641.275391
1397.105469	18613.068359
1395.990234	18349.220703
1394.876953	18478.148438
1393.761719	18521.779297
1392.648438	18484.642578
1391.533203	18366.789063
1390.417969	18314.003906
1389.302734	18516.794922
1388.187500	18412.451172
1387.072266	18254.365234
1385.955078	18282.298828
1384.839844	18417.744141
1383.722656	18250.787109
1382.607422	18399.623047
1381.490234	18208.107422
1380.373047	18354.658203
1379.255859	18185.603516
1378.138672	18338.816406
1377.021484	18104.951172
1375.904297	18186.548828
1374.785156	18098.158203
1373.667969	18219.970703
1372.548828	18245.615234
1371.431641	18248.900391
1370.312500	18489.050781
1369.193359	18633.042969
1368.074219	18618.382813
1366.955078	18411.662109
1365.833984	18435.011719
1364.714844	18364.585938
1363.595703	18591.052734
1362.474609	18435.822266
1361.353516	18423.449219
1360.234375	18433.388672
1359.113281	18284.964844
1357.992188	18308.306641
1356.871094	18512.236328
1355.748047	18341.589844
1354.626953	18442.916016
1353.505859	18452.841797
1352.382813	18507.322266
1351.261719	18354.625000
1350.138672	18460.326172
1349.015625	18648.376953
1347.892578	18644.898438
1346.769531	18803.906250
1345.646484	18617.916016
1344.523438	18456.468750
1343.398438	18691.060547
1342.275391	18723.166016
1341.150391	18982.082031
1340.025391	18905.175781
1338.902344	18832.744141
1337.777344	18931.472656
1336.652344	18943.503906
1335.525391	18782.238281
1334.400391	18678.785156
1333.275391	18975.126953
1332.148438	18725.126953
1331.023438	18877.046875
1329.896484	18858.000000
1328.769531	18827.863281
1327.642578	18808.832031
1326.515625	18749.876953
1325.388672	18934.921875
1324.261719	18831.613281
1323.134766	18950.060547
1322.005859	18999.744141
1320.878906	19013.947266
1319.750000	18928.427734
1318.623047	18887.250000
1317.494141	18932.478516
1316.365234	19061.845703
1315.236328	18772.667969
1314.105469	18771.400391
1312.976563	18801.121094
1311.847656	18753.375000
1310.716797	18672.455078
1309.587891	18666.781250
1308.457031	18599.179688
1307.326172	18721.783203
1306.195313	18886.351563
1305.064453	18794.429688
1303.933594	18905.876953
1302.802734	18725.593750
1301.669922	18565.261719
1300.539063	18835.736328
1299.406250	18662.191406
1298.275391	18618.990234
1297.142578	18560.351563
1296.009766	18782.064453
1294.876953	18688.107422
1293.744141	18644.933594
1292.611328	18409.843750
1291.476563	18216.751953
1290.343750	18612.539063
1289.210938	18635.554688
1288.076172	18294.828125
1286.941406	18344.343750
1285.806641	18517.246094
1284.671875	18364.003906
1283.537109	18406.871094
1282.402344	18335.195313
1281.267578	18342.818359
1280.130859	18227.148438
1278.996094	18406.482422
1277.859375	18288.642578
1276.724609	18382.082031
1275.587891	18306.089844
1274.451172	18344.501953
1273.314453	18440.080078
1272.177734	18111.257813
1271.039063	18402.496094
1269.902344	18341.955078
1268.765625	18400.101563
1267.626953	18146.232422
1266.488281	18483.380859
1265.351563	18374.548828
1264.212891	18197.681641
1263.074219	18341.425781
1261.935547	18287.556641
1260.794922	18472.929688
1259.656250	18372.974609
1258.517578	18367.394531
1257.376953	18403.492188
1256.236328	18514.140625
1255.097656	18179.632813
1253.957031	18281.511719
1252.816406	18510.484375
1251.675781	18428.179688
1250.533203	18437.931641
1249.392578	18622.933594
1248.251953	18512.179688
1247.109375	18521.910156
1245.968750	18726.498047
1244.826172	18410.013672
1243.683594	18691.148438
1242.541016	18661.447266
1241.398438	18531.117188
1240.255859	18728.951172
1239.113281	18839.228516
1237.968750	18687.068359
1236.826172	18854.156250
1235.681641	18855.058594
1234.539063	18963.044922
1233.394531	18778.197266
1232.250000	19023.789063
1231.105469	19000.630859
1229.960938	19178.392578
1228.814453	18921.585938
1227.669922	18876.626953
1226.525391	19028.121094
1225.378906	18926.419922
1224.232422	19056.029297
1223.087891	18960.904297
1221.941406	19142.802734
1220.794922	19198.158203
1219.648438	18996.226563
1218.501953	18940.417969
1217.353516	19026.291016
1216.207031	19269.019531
1215.058594	19315.583984
1213.912109	19312.031250
1212.763672	19267.101563
1211.615234	19246.140625
1210.466797	19238.248047
1209.318359	19337.009766
1208.169922	19231.173828
1207.021484	19340.779297
1205.871094	19165.365234
1204.722656	19372.818359
1203.572266	19491.035156
1202.421875	19267.855469
1201.271484	19338.222656
1200.123047	19143.408203
1198.970703	19315.902344
1197.820313	19451.398438
1196.669922	19419.583984
1195.519531	19500.714844
1194.367188	19442.843750
1193.216797	19315.521484
1192.064453	19381.431641
1190.912109	19625.273438
1189.759766	19476.287109
1188.607422	19600.703125
1187.455078	19514.677734
1186.302734	19736.626953
1185.148438	19520.513672
1183.996094	19532.099609
1182.841797	19443.978516
1181.689453	19594.263672
1180.535156	19662.160156
1179.380859	19587.060547
1178.226563	19763.224609
1177.072266	19577.695313
1175.917969	19840.394531
1174.761719	19711.199219
1173.607422	19859.072266
1172.453125	19926.828125
1171.296875	19851.771484
1170.140625	19698.871094
1168.984375	19749.316406
1167.828125	20022.453125
1166.671875	19925.812500
1165.515625	20079.935547
1164.359375	20216.712891
1163.201172	20225.958984
1162.044922	20116.386719
1160.886719	20501.464844
1159.728516	20108.990234
1158.572266	20310.404297
1157.414063	20511.744141
1156.255859	20318.042969
1155.095703	20471.832031
1153.937500	20817.580078
1152.779297	20966.904297
1151.619141	20820.707031
1150.460938	20788.845703
1149.300781	21032.951172
1148.140625	20906.218750
1146.980469	21531.664063
1145.820313	21126.925781
1144.660156	21256.607422
1143.500000	21485.320313
1142.337891	21108.808594
1141.177734	21548.468750
1140.015625	21561.724609
1138.853516	21792.361328
1137.693359	21728.097656
1136.531250	21838.130859
1135.369141	22128.818359
1134.207031	21789.230469
1133.042969	22152.929688
1131.880859	22206.900391
1130.716797	22269.449219
1129.554688	22331.974609
1128.390625	22860.757813
1127.226563	22708.312500
1126.062500	22884.562500
1124.898438	22897.529297
1123.734375	23062.941406
1122.570313	23151.005859
1121.406250	23425.773438
1120.240234	23528.759766
1119.076172	23582.357422
1117.910156	23760.357422
1116.744141	23700.214844
1115.578125	23916.724609
1114.412109	24338.978516
1113.246094	24263.755859
1112.080078	24327.867188
1110.914063	24644.810547
1109.746094	24700.257813
1108.580078	24719.269531
1107.412109	25143.044922
1106.244141	25012.074219
1105.076172	24953.943359
1103.908203	25171.951172
1102.740234	25479.761719
1101.572266	25620.562500
1100.404297	25699.269531
1099.234375	25623.947266
1098.066406	26034.091797
1096.896484	25943.765625
1095.726563	26223.294922
1094.556641	26329.597656
1093.386719	26673.058594
1092.216797	26183.144531
1091.046875	26851.195313
1089.876953	27115.343750
1088.705078	27204.294922
1087.535156	27389.285156
1086.363281	27392.767578
1085.191406	27584.052734
1084.019531	28084.664063
1082.847656	27910.941406
1081.675781	28219.335938
1080.503906	28519.083984
1079.332031	28464.775391
1078.158203	28468.044922
1076.986328	28808.074219
1075.812500	28877.337891
1074.638672	29210.769531
1073.466797	29437.566406
1072.292969	29478.982422
1071.117188	29677.958984
1069.943359	29889.636719
1068.769531	30101.232422
1067.595703	30453.214844
1066.419922	30151.810547
1065.244141	30799.367188
1064.070313	30763.892578
1062.894531	30843.269531
1061.718750	31260.695313
1060.542969	31061.455078
1059.365234	31540.322266
1058.189453	31485.607422
1057.013672	31813.361328
1055.835938	31875.451172
1054.658203	32574.695313
1053.482422	32528.316406
1052.304688	32906.582031
1051.126953	32889.875000
1049.949219	32934.718750
1048.769531	33089.890625
1047.591797	33620.515625
1046.414063	33603.679688
1045.234375	33680.164063
1044.054688	34337.605469
1042.876953	33958.121094
1041.697266	34100.199219
1040.517578	34566.460938
1039.337891	34687.183594
1038.156250	34996.394531
1036.976563	35265.250000
1035.796875	35383.648438
1034.615234	35798.417969
1033.433594	35641.480469
1032.253906	35711.058594
1031.072266	36148.804688
1029.890625	36175.949219
1028.708984	36585.941406
1027.525391	36640.484375
1026.343750	36741.519531
1025.162109	36576.136719
1023.978516	36918.109375
1022.794922	37471.281250
1021.613281	37403.042969
1020.429688	37702.410156
1019.246094	37308.882813
1018.062500	37375.859375
1016.876953	37922.089844
1015.693359	38187.351563
1014.507813	38536.937500
1013.324219	38242.789063
1012.138672	38516.277344
1010.953125	38675.753906
1009.767578	38307.917969
1008.582031	38568.585938
1007.396484	38538.218750
1006.210938	39079.078125
1005.025391	38789.410156
1003.837891	39024.496094
1002.652344	39122.562500
1001.464844	39532.316406
1000.277344	39206.964844
999.089844	38873.312500
997.902344	39274.457031
996.714844	39462.875000
995.527344	39594.402344
994.337891	39877.359375
993.150391	39703.750000
991.960938	39490.238281
990.771484	39463.949219
989.582031	39557.503906
988.394531	39707.769531
987.203125	39576.367188
986.013672	39598.398438
984.824219	38956.578125
983.634766	39802.058594
982.443359	39989.925781
981.251953	39377.777344
980.062500	39555.152344
978.871094	39442.824219
977.679688	39504.703125
976.488281	39568.652344
975.294922	40121.328125
974.103516	39182.656250
972.912109	39783.414063
971.718750	39528.593750
970.525391	39592.468750
969.333984	39406.933594
968.140625	39225.652344
966.947266	39536.738281
965.753906	39468.597656
964.558594	39404.671875
963.365234	39395.203125
962.171875	39695.542969
960.976563	39332.316406
959.781250	39421.207031
958.585938	38830.113281
957.392578	39253.738281
956.195313	39183.644531
955.000000	39082.207031
953.804688	39106.242188
952.609375	39234.769531
951.412109	39116.656250
950.216797	39009.031250
949.019531	39218.968750
947.822266	38969.332031
946.625000	39179.195313
945.427734	38906.687500
944.230469	39154.054688
943.031250	38969.304688
941.833984	39174.828125
940.634766	38837.839844
939.437500	38876.433594
938.238281	38839.933594
937.039063	38605.363281
935.839844	39090.093750
934.640625	38938.929688
933.441406	39046.226563
932.240234	38705.523438
931.041016	38685.742188
929.839844	38663.886719
928.640625	38544.167969
927.439453	38859.617188
926.238281	38694.105469
925.037109	38487.031250
923.835938	38775.253906
922.634766	38351.878906
921.431641	38741.933594
920.230469	38489.242188
919.027344	38492.386719
917.824219	38231.519531
916.621094	38359.410156
915.417969	38283.605469
914.214844	38166.269531
913.011719	38537.132813
911.808594	38492.480469
910.603516	37966.105469
909.400391	37861.363281
908.195313	37980.835938
906.990234	37938.386719
905.787109	37848.230469
904.582031	37494.640625
903.375000	37456.449219
902.169922	37074.027344
900.964844	37469.250000
899.757813	37209.273438
898.552734	37158.714844
897.345703	37309.175781
896.138672	36939.562500
894.931641	36756.511719
893.724609	36913.167969
892.517578	36653.574219
891.310547	36725.304688
890.101563	36689.378906
888.894531	36746.585938
887.685547	36596.867188
886.476563	36217.582031
885.267578	36092.832031
884.058594	36187.320313
882.849609	36044.011719
881.640625	35698.183594
880.431641	35685.218750
879.220703	35498.687500
878.011719	35308.093750
876.800781	35187.792969
875.589844	35433.062500
874.378906	34941.132813
873.167969	34944.824219
871.957031	34789.589844
870.746094	34403.296875
869.533203	34807.328125
868.322266	34584.128906
867.109375	34649.746094
865.896484	34548.312500
864.683594	34335.589844
863.470703	34339.371094
862.257813	33698.117188
861.044922	34171.785156
859.832031	33679.125000
858.617188	34088.761719
857.404297	33491.277344
856.189453	33493.140625
854.974609	33486.769531
853.759766	33443.347656
852.544922	33449.328125
851.330078	32895.726563
850.115234	33121.886719
848.898438	33008.640625
847.683594	32702.162109
846.466797	33024.843750
845.250000	32858.234375
844.033203	32835.531250
842.816406	32716.271484
841.599609	32726.464844
840.382813	33184.367188
839.166016	32640.060547
837.947266	32522.970703
836.728516	32943.699219
835.511719	32483.878906
834.292969	32637.714844
833.074219	32680.714844
831.855469	32653.962891
830.636719	32438.562500
829.416016	32483.619141
828.197266	32696.742188
826.976563	32372.830078
825.757813	32630.966797
824.537109	32569.414063
823.316406	32667.644531
822.095703	32591.767578
820.875000	32362.357422
819.652344	32509.695313
818.431641	32939.417969
817.208984	32716.201172
815.988281	32388.730469
814.765625	32799.812500
813.542969	32762.849609
812.320313	33110.312500
811.097656	33032.414063
809.875000	32539.623047
808.650391	32825.613281
807.427734	32907.171875
806.203125	32827.324219
804.980469	32919.058594
803.755859	32696.292969
802.531250	32841.093750
801.306641	33004.210938
800.082031	33434.609375
798.855469	33113.964844
797.630859	33199.406250
796.404297	33152.234375
795.179688	33168.296875
793.953125	33535.031250
792.726563	33318.625000
791.500000	33579.207031
790.273438	33208.007813
789.044922	33370.714844
787.818359	33258.375000
786.589844	33084.984375
785.363281	33229.289063
784.134766	33349.109375
782.906250	33116.765625
781.677734	33596.738281
780.449219	33535.335938
779.220703	33547.183594
777.990234	33418.695313
776.761719	33593.226563
775.531250	33198.453125
774.300781	33604.667969
773.072266	33305.550781
771.841797	33351.957031
770.611328	33296.769531
769.378906	33184.734375
768.148438	33454.496094
766.916016	33326.222656
765.685547	33315.730469
764.453125	33575.156250
763.220703	33810.128906
761.988281	33641.308594
760.755859	33223.070313
759.523438	33543.136719
758.291016	33640.058594
757.056641	34130.195313
755.824219	33758.789063
754.589844	33440.210938
753.355469	33729.527344
752.121094	33449.554688
750.886719	33550.414063
749.652344	33554.046875
748.417969	33804.644531
747.181641	33868.937500
745.947266	33742.992188
744.710938	34052.070313
743.474609	33901.859375
742.238281	33978.207031
741.001953	33757.292969
739.765625	33817.464844
738.529297	33814.949219
737.292969	33677.039063
736.054688	33684.652344
734.816406	33591.257813
733.580078	33709.960938
732.341797	33814.480469
731.103516	34027.972656
729.865234	33609.601563
728.625000	33592.984375
727.386719	33741.824219
726.146484	33824.031250
724.908203	33637.957031
723.667969	33536.644531
722.427734	33707.546875
721.187500	33844.113281
719.947266	33897.996094
718.707031	33685.878906
717.464844	33695.445313
716.224609	33733.203125
714.982422	33990.445313
713.740234	33810.683594
712.500000	33792.027344
711.257813	33666.707031
710.013672	33738.628906
708.771484	33722.000000
707.529297	33872.324219
706.285156	33767.187500
705.042969	33810.875000
703.798828	33639.445313
702.554688	34255.945313
701.310547	33988.039063
700.066406	33814.660156
698.822266	34187.707031
697.576172	33731.183594
696.332031	33969.566406
695.085938	33836.468750
693.841797	34098.816406
692.595703	34052.027344
691.349609	34193.851563
690.103516	34393.785156
688.855469	34601.664063
687.609375	34350.277344
686.363281	34413.734375
685.115234	34346.882813
683.867188	34694.875000
682.619141	34730.171875
681.371094	35122.015625
680.123047	34598.429688
678.875000	35156.343750
677.626953	35159.476563
676.376953	34888.386719
675.128906	34831.531250
673.878906	35072.820313
672.628906	35013.945313
671.378906	35085.093750
670.128906	35012.238281
668.878906	35307.273438
667.626953	34962.546875
666.376953	34933.714844
665.125000	35068.738281
663.875000	34946.000000
662.623047	34677.503906
661.371094	34870.398438
660.119141	34987.351563
658.865234	34479.457031
657.613281	34650.320313
656.361328	34272.386719
655.107422	34523.015625
653.853516	34536.187500
652.599609	34324.011719
651.345703	34087.988281
650.091797	34276.652344
648.837891	34218.105469
647.583984	33890.574219
646.328125	34117.011719
645.074219	33996.773438
643.818359	33894.507813
642.562500	33740.511719
641.306641	34114.097656
640.050781	33629.726563
638.794922	33865.882813
637.537109	33670.222656
636.281250	33884.394531
635.023438	33762.386719
633.765625	33531.066406
632.507813	33456.882813
631.250000	33905.445313
629.992188	33674.226563
628.734375	33818.593750
627.476563	33589.464844
626.216797	33872.804688
624.957031	33709.273438
623.699219	33678.816406
622.439453	34015.554688
621.179688	33983.054688
619.919922	34018.027344
618.658203	34090.667969
617.398438	34272.359375
616.136719	34533.289063
614.876953	34490.796875
613.615234	34351.199219
612.353516	34580.246094
611.091797	34745.800781
609.830078	34651.789063
608.566406	34646.933594
607.304688	35281.656250
606.041016	35326.167969
604.779297	35620.054688
603.515625	35541.781250
602.251953	35764.277344
600.988281	35598.964844
599.724609	35655.226563
598.458984	36302.699219
597.195313	36232.265625
595.929688	36462.300781
594.666016	36364.191406
593.400391	36702.773438
592.134766	36893.066406
590.869141	37209.679688
589.603516	37103.593750
588.335938	37402.269531
587.070313	37592.261719
585.802734	37571.011719
584.535156	38161.429688
583.269531	38145.988281
582.001953	38041.800781
580.732422	38355.699219
579.464844	38452.601563
578.197266	38608.593750
576.927734	38618.691406
575.660156	38640.601563
574.390625	39052.554688
573.121094	38948.316406
571.851563	39237.953125
570.582031	38889.578125
569.312500	38767.710938
568.041016	38941.089844
566.771484	38988.468750
565.500000	39309.273438
564.228516	38963.187500
562.957031	39352.691406
561.685547	39116.828125
560.414063	39124.800781
559.142578	39350.914063
557.869141	39254.691406
556.597656	39567.125000
555.324219	39386.433594
554.050781	39838.136719
552.777344	39182.332031
551.503906	39408.152344
550.230469	39539.675781
548.957031	39176.679688
547.681641	39533.796875
546.408203	39637.750000
545.132813	39955.410156
543.857422	39551.437500
542.582031	40017.960938
541.306641	39847.347656
540.031250	39565.117188
538.753906	39698.312500
537.478516	40203.597656
536.201172	40129.031250
534.923828	40011.421875
533.648438	40083.730469
532.371094	40265.605469
531.091797	39713.636719
529.814453	40100.925781
528.537109	40270.949219
527.257813	40239.480469
525.978516	40853.226563
524.701172	40508.882813
523.421875	40629.820313
522.142578	40778.062500
520.861328	41037.601563
519.582031	40523.554688
518.302734	41038.855469
517.021484	41409.468750
515.740234	41338.769531
514.460938	40969.488281
513.179688	41724.289063
511.896484	41481.882813
510.615234	41300.031250
509.333984	42054.312500
508.050781	42102.484375
506.769531	41889.425781
505.486328	42153.945313
504.203125	41968.234375
502.919922	41899.488281
501.636719	42124.882813
500.353516	42311.234375
499.068359	41991.289063
497.785156	42455.960938
496.500000	42256.773438
495.214844	42546.074219
493.929688	42407.257813
492.644531	42182.906250
491.359375	42701.515625
490.074219	42378.035156
488.787109	42565.929688
487.501953	42660.457031
486.214844	42354.656250
484.927734	42284.050781
483.640625	42605.828125
482.353516	42022.511719
481.066406	42317.027344
479.777344	41966.941406
478.490234	42300.164063
477.201172	42006.488281
475.912109	41852.613281
474.623047	42457.203125
473.333984	41680.789063
472.044922	41592.984375
470.755859	41685.496094
469.464844	41758.585938
468.175781	41552.613281
466.884766	41523.015625
465.593750	41598.027344
464.302734	41419.312500
463.011719	41811.843750
461.720703	41720.265625
460.429688	41230.031250
459.136719	41341.777344
457.845703	41422.527344
456.552734	41522.582031
455.259766	41382.796875
453.966797	41415.148438
452.673828	41242.574219
451.378906	41346.441406
450.085938	41473.457031
448.791016	41579.167969
447.498047	41342.949219
446.203125	41682.312500
444.908203	41994.507813
443.613281	42150.210938
442.318359	42064.601563
441.021484	42351.441406
439.726563	41962.933594
438.429688	42386.625000
437.134766	42478.445313
435.837891	42626.144531
434.541016	42864.386719
433.244141	43164.203125
431.945313	43375.261719
430.648438	43397.429688
429.349609	43302.093750
428.052734	43557.281250
426.753906	43473.500000
425.455078	43913.351563
424.156250	43950.781250
422.857422	44196.007813
421.556641	44233.359375
420.257813	43997.562500
418.957031	44484.941406
417.658203	44199.191406
416.357422	44446.042969
415.056641	44894.593750
413.755859	44935.593750
412.453125	44824.804688
411.152344	44850.433594
409.849609	44956.707031
408.548828	45529.500000
407.246094	45428.273438
405.943359	45267.585938
404.640625	45110.796875
403.337891	45205.394531
402.033203	45171.437500
400.730469	45356.113281
399.425781	44637.648438
398.123047	44841.523438
396.818359	44761.660156
395.513672	44950.097656
394.208984	44718.894531
392.902344	44782.757813
391.597656	44762.332031
390.292969	44412.589844
388.986328	44574.101563
387.679688	44427.406250
386.373047	44347.742188
385.066406	44044.269531
383.759766	43813.605469
382.453125	44108.929688
381.144531	43314.304688
379.837891	43584.757813
378.529297	43417.433594
377.220703	43143.164063
375.912109	43436.414063
374.603516	43271.121094
373.294922	43235.753906
371.984375	43049.566406
370.675781	42563.746094
369.365234	42744.203125
368.054688	42481.890625
366.744141	42192.972656
365.433594	42175.023438
364.123047	42103.683594
362.812500	42472.808594
361.500000	42001.113281
360.189453	42112.812500
358.876953	42376.906250
357.564453	41996.957031
356.251953	41996.207031
354.939453	41845.007813
353.626953	41988.988281
352.312500	41573.246094
351.000000	41648.703125
349.685547	41657.531250
348.371094	41314.394531
347.056641	41405.074219
345.742188	41155.304688
344.427734	41274.496094
343.113281	40933.605469
341.796875	40712.585938
340.482422	40793.789063
339.166016	41007.945313
337.849609	40724.359375
336.533203	40511.148438
335.216797	40575.234375
333.900391	40362.140625
332.582031	39896.699219
331.265625	40131.648438
329.947266	40203.343750
328.628906	40229.484375
327.310547	39984.425781
325.992188	40046.621094
324.673828	40099.316406
323.353516	40352.890625
322.035156	40098.523438
320.714844	40029.921875
319.396484	40285.253906
318.076172	39924.996094
316.755859	40136.691406
315.435547	39801.214844
314.113281	40260.792969
312.792969	40044.636719
311.470703	40394.250000
310.150391	40569.703125
308.828125	40351.722656
307.505859	39999.582031
306.183594	40458.566406
304.859375	40698.125000
303.537109	40986.718750
302.214844	40315.437500
300.890625	40609.660156
299.566406	40777.230469
298.242188	40701.160156
296.917969	41276.406250
295.593750	41258.777344
294.269531	41156.238281
292.943359	41593.324219
291.619141	41939.691406
290.292969	41954.003906
288.966797	42275.652344
287.640625	41969.410156
286.314453	41834.808594
284.988281	41551.390625
283.660156	41641.121094
282.333984	41186.441406
281.005859	41016.312500
279.677734	41034.546875
278.349609	41331.390625
277.021484	41025.820313
275.693359	41128.718750
274.365234	40834.597656
273.035156	40685.433594
271.707031	41021.542969
270.376953	40868.640625
269.046875	40898.152344
267.716797	40950.203125
266.386719	40810.558594
265.056641	40860.730469
263.724609	40869.554688
262.394531	40925.328125
261.062500	40860.906250
259.730469	40813.402344
258.398438	41002.417969
257.066406	40825.421875
255.734375	41333.320313
254.402344	41051.281250
253.068359	41258.851563
251.736328	40984.437500
250.402344	41070.085938
249.068359	40897.031250
247.734375	41501.761719
246.400391	41514.183594
245.064453	41386.101563
243.730469	41475.332031
242.394531	41635.679688
241.060547	42044.960938
239.724609	41909.390625
238.388672	42138.800781
237.052734	42126.757813
235.716797	42135.292969
234.378906	42121.382813
233.042969	42242.113281
231.705078	42323.535156
230.367188	42573.156250
229.029297	42168.582031
227.691406	42132.257813
226.353516	42548.031250
225.015625	42666.667969
223.675781	42718.035156
222.337891	42349.304688
220.998047	42368.980469
219.658203	42312.132813
218.318359	42421.371094
216.978516	42004.484375
215.638672	42486.777344
214.296875	42633.214844
212.957031	42089.753906
211.615234	42709.687500
210.273438	42170.152344
208.931641	42881.128906
207.589844	42712.507813
206.248047	42972.347656
204.906250	42870.812500
203.562500	42938.750000
202.220703	43079.261719
