TITLE	
DATA TYPE	RAMAN SPECTRUM
ORIGIN	JASCO
OWNER	
DATE	14/01/10
TIME	17:38:47
SPECTROMETER/DATA SYSTEM	
LOCALE	1033
RESOLUTION	
DELTAX	0.2
XUNITS	1/CM
YUNITS	INTENSITY
FIRSTX	  580.2513
LASTX	 1377.6513
NPOINTS	    3988
FIRSTY	 28873.66602
MAXY	 29470.75586
MINY	  1922.10120
XYDATA
580.2513	28873.7
580.4513	29010.8
580.6513	29141
580.8513	29257.6
581.0513	29353.6
581.2513	29422.5
581.4513	29461.7
581.6513	29470.8
581.8513	29449.2
582.0513	29396.8
582.2513	29319.7
582.4513	29232.3
582.6513	29150.1
582.8513	29088.4
583.0513	29057.7
583.2513	29053
583.4513	29066.1
583.6513	29088.8
583.8513	29113.1
584.0513	29133.2
584.2513	29144.7
584.4513	29143
584.6513	29123.7
584.8513	29086.4
585.0513	29035.1
585.2513	28974.1
585.4513	28907.7
585.6513	28841.2
585.8513	28782.4
586.0513	28739.3
586.2513	28720.3
586.4513	28731.3
586.6513	28764.5
586.8513	28806.3
587.0513	28842.9
587.2513	28861
587.4513	28855.1
587.6513	28827.1
587.8513	28779.4
588.0513	28714.2
588.2513	28636.6
588.4513	28556.9
588.6513	28486.5
588.8513	28436.6
589.0513	28415.8
589.2513	28419.6
589.4513	28438.6
589.6513	28463.9
589.8513	28486.4
590.0513	28499.3
590.2513	28497.8
590.4513	28477.1
590.6513	28432.2
590.8513	28364.7
591.0513	28286.1
591.2513	28209.5
591.4513	28147.6
591.6513	28110.5
591.8513	28097.4
592.0513	28104.5
592.2513	28128
592.4513	28163.9
592.6513	28203.3
592.8513	28234.7
593.0513	28246.2
593.2513	28226.7
593.4513	28173.6
593.6513	28096.8
593.8513	28007.2
594.0513	27915.2
594.2513	27830.8
594.4513	27761.6
594.6513	27714.6
594.8513	27697
595.0513	27713.8
595.2513	27754.8
595.4513	27802.9
595.6513	27840.8
595.8513	27851.9
596.0513	27831.9
596.2513	27789.5
596.4513	27733.8
596.6513	27674.1
596.8513	27616.8
597.0513	27562.4
597.2513	27510.7
597.4513	27461.2
597.6513	27414.6
597.8513	27375.6
598.0513	27350.4
598.2513	27345.4
598.4513	27365.8
598.6513	27402.9
598.8513	27437.3
599.0513	27449.3
599.2513	27419.3
599.4513	27342.1
599.6513	27236.4
599.8513	27123.2
600.0513	27023.2
600.2513	26953
600.4513	26911.8
600.6513	26894.5
600.8513	26896.4
601.0513	26912.1
601.2513	26933.4
601.4513	26950.6
601.6513	26953.7
601.8513	26933.1
602.0513	26886.3
602.2513	26819.4
602.4513	26739.1
602.6513	26652.1
602.8513	26565.1
603.0513	26485.4
603.2513	26420.2
603.4513	26377
603.6513	26360.9
603.8513	26365.1
604.0513	26377.7
604.2513	26386.8
604.4513	26381
604.6513	26355.3
604.8513	26310.6
605.0513	26247.8
605.2513	26167.8
605.4513	26074.5
605.6513	25976.4
605.8513	25882.8
606.0513	25802.9
606.2513	25744
606.4513	25705.1
606.6513	25682.9
606.8513	25674.4
607.0513	25675.9
607.2513	25680.2
607.4513	25677.8
607.6513	25659.3
607.8513	25615.3
608.0513	25544.1
608.2513	25453.7
608.4513	25352.7
608.6513	25249.7
608.8513	25152.8
609.0513	25067.6
609.2513	24999.9
609.4513	24955.2
609.6513	24937
609.8513	24936.5
610.0513	24939.5
610.2513	24932
610.4513	24900.3
610.6513	24841.8
610.8513	24763
611.0513	24670.9
611.2513	24572.6
611.4513	24474.9
611.6513	24384.7
611.8513	24308.7
612.0513	24253.7
612.2513	24223.8
612.4513	24211.9
612.6513	24207.8
612.8513	24201.3
613.0513	24182.7
613.2513	24148.3
613.4513	24097.5
613.6513	24030.1
613.8513	23945.6
614.0513	23848.1
614.2513	23746.3
614.4513	23649.7
614.6513	23567.5
614.8513	23505.8
615.0513	23462.4
615.2513	23433.9
615.4513	23416.7
615.6513	23406.9
615.8513	23397.9
616.0513	23382.4
616.2513	23352.8
616.4513	23302.1
616.6513	23230.4
616.8513	23143.8
617.0513	23048.5
617.2513	22950.5
617.4513	22856.3
617.6513	22773
617.8513	22707.5
618.0513	22666.8
618.2513	22654.4
618.4513	22661
618.6513	22674.2
618.8513	22681.7
619.0513	22672.2
619.2513	22641.8
619.4513	22590.2
619.6513	22517.5
619.8513	22423.8
620.0513	22315.4
620.2513	22205.1
620.4513	22105.9
620.6513	22030.9
620.8513	21986.7
621.0513	21966.6
621.2513	21961.7
621.4513	21963.5
621.6513	21963.7
621.8513	21956.4
622.0513	21936.4
622.2513	21898.3
622.4513	21837.8
622.6513	21758.5
622.8513	21669.8
623.0513	21581
623.2513	21501.2
623.4513	21435.3
623.6513	21383
623.8513	21343.1
624.0513	21314.7
624.2513	21296.1
624.4513	21283.2
624.6513	21271.7
624.8513	21257.3
625.0513	21235.5
625.2513	21203
625.4513	21156.1
625.6513	21091.6
625.8513	21006.7
626.0513	20908.4
626.2513	20811.6
626.4513	20731.3
626.6513	20682.3
626.8513	20668.3
627.0513	20675.2
627.2513	20687
627.4513	20687.8
627.6513	20665.8
627.8513	20622.9
628.0513	20564
628.2513	20493.9
628.4513	20417.7
628.6513	20340.7
628.8513	20268.9
629.0513	20208
629.2513	20163.4
629.4513	20135.8
629.6513	20121.1
629.8513	20115.1
630.0513	20113.4
630.2513	20111.4
630.4513	20103.4
630.6513	20083.8
630.8513	20046.9
631.0513	19989.4
631.2513	19917.1
631.4513	19838.4
631.6513	19761.8
631.8513	19695
632.0513	19641.4
632.2513	19602
632.4513	19577.7
632.6513	19569.3
632.8513	19572.5
633.0513	19577.6
633.2513	19574.6
633.4513	19553.6
633.6513	19509.6
633.8513	19448.2
634.0513	19376.3
634.2513	19301
634.4513	19228.7
634.6513	19162.4
634.8513	19104.5
635.0513	19057.4
635.2513	19022.9
635.4513	19000.1
635.6513	18985.7
635.8513	18976.6
636.0513	18969.8
636.2513	18961.4
636.4513	18947.4
636.6513	18923.2
636.8513	18884.7
637.0513	18830.5
637.2513	18767.2
637.4513	18702.1
637.6513	18642.6
637.8513	18595.3
638.0513	18560.9
638.2513	18538.7
638.4513	18527.9
638.6513	18527.3
638.8513	18531.7
639.0513	18533.1
639.2513	18523.8
639.4513	18495.9
639.6513	18447.7
639.8513	18385.1
640.0513	18314.4
640.2513	18242.3
640.4513	18174.1
640.6513	18114
640.8513	18065.3
641.0513	18031.7
641.2513	18015.5
641.4513	18012.5
641.6513	18016.7
641.8513	18021.6
642.0513	18021.2
642.2513	18010.9
642.4513	17987.3
642.6513	17947
642.8513	17886.7
643.0513	17809.7
643.2513	17727.4
643.4513	17651.9
643.6513	17595.2
643.8513	17564.4
644.0513	17553.7
644.2513	17555.4
644.4513	17561.4
644.6513	17564.8
644.8513	17561.8
645.0513	17550
645.2513	17526.9
645.4513	17490.2
645.6513	17441
645.8513	17382.6
646.0513	17318.2
646.2513	17251.2
646.4513	17186.6
646.6513	17132.1
646.8513	17095.3
647.0513	17083.9
647.2513	17099.6
647.4513	17129.3
647.6513	17157.7
647.8513	17169.3
648.0513	17151.7
648.2513	17108.2
648.4513	17047.4
648.6513	16977.8
648.8513	16907.6
649.0513	16841.2
649.2513	16780.7
649.4513	16728.2
649.6513	16685.8
649.8513	16654.7
650.0513	16635.1
650.2513	16627.2
650.4513	16631.3
650.6513	16644.5
650.8513	16657.4
651.0513	16659.2
651.2513	16639.3
651.4513	16590.3
651.6513	16520.9
651.8513	16444.5
652.0513	16374.5
652.2513	16323.3
652.4513	16292.3
652.6513	16276.1
652.8513	16269.3
653.0513	16266.6
653.2513	16263.5
653.4513	16256.9
653.6513	16243.6
653.8513	16220.5
654.0513	16186.4
654.2513	16143.9
654.4513	16096.5
654.6513	16047.3
654.8513	15999.6
655.0513	15955.6
655.2513	15917.7
655.4513	15888.2
655.6513	15868.7
655.8513	15857.3
656.0513	15849.5
656.2513	15841.1
656.4513	15827.9
656.6513	15807.2
656.8513	15778
657.0513	15739.3
657.2513	15690.2
657.4513	15632.2
657.6513	15571.8
657.8513	15515.8
658.0513	15471.1
658.2513	15442.5
658.4513	15427.2
658.6513	15420.6
658.8513	15418.1
659.0513	15415.3
659.2513	15409.2
659.4513	15397.8
659.6513	15378.8
659.8513	15350.2
660.0513	15312.4
660.2513	15267.4
660.4513	15217.8
660.6513	15165.8
660.8513	15114.7
661.0513	15069.1
661.2513	15033.8
661.4513	15013.6
661.6513	15010.5
661.8513	15017.9
662.0513	15027.4
662.2513	15030.8
662.4513	15020.9
662.6513	14996.5
662.8513	14959
663.0513	14909.8
663.2513	14850.4
663.4513	14786.4
663.6513	14726.2
663.8513	14678.3
664.0513	14651.1
664.2513	14645.3
664.4513	14651.9
664.6513	14661.3
664.8513	14663.9
665.0513	14653.2
665.2513	14630.8
665.4513	14599.5
665.6513	14562.1
665.8513	14520.9
666.0513	14478
666.2513	14434.8
666.4513	14392.9
666.6513	14353.9
666.8513	14319
667.0513	14289.4
667.2513	14266.5
667.4513	14251.3
667.6513	14243.1
667.8513	14239.4
668.0513	14237.6
668.2513	14235.1
668.4513	14228.7
668.6513	14213.6
668.8513	14185.3
669.0513	14139
669.2513	14073.1
669.4513	13998
669.6513	13926.3
669.8513	13870.9
670.0513	13842.4
670.2513	13836.6
670.4513	13842.7
670.6513	13849.9
670.8513	13847.9
671.0513	13833.7
671.2513	13809.9
671.4513	13779.5
671.6513	13745.1
671.8513	13708.8
672.0513	13671
672.2513	13632.2
672.4513	13592.9
672.6513	13554.2
672.8513	13518.8
673.0513	13490
673.2513	13471
673.4513	13463.4
673.6513	13462.6
673.8513	13461.9
674.0513	13454.5
674.2513	13434.1
674.4513	13400.8
674.6513	13358.1
674.8513	13309.4
675.0513	13258.5
675.2513	13209.1
675.4513	13165.9
675.6513	13133.1
675.8513	13115.2
676.0513	13112.9
676.2513	13119.7
676.4513	13128.6
676.6513	13132.6
676.8513	13125.9
677.0513	13107.3
677.2513	13076.5
677.4513	13033.3
677.6513	12978.3
677.8513	12917.8
678.0513	12860.1
678.2513	12813.6
678.4513	12786.2
678.6513	12777
678.8513	12778.8
679.0513	12784
679.2513	12785.3
679.4513	12778.6
679.6513	12763.5
679.8513	12740.1
680.0513	12708.2
680.2513	12668.9
680.4513	12624.6
680.6513	12578.4
680.8513	12533.2
681.0513	12491.8
681.2513	12456
681.4513	12427.6
681.6513	12408.1
681.8513	12398.7
682.0513	12396.7
682.2513	12397.2
682.4513	12395.4
682.6513	12386.8
682.8513	12369.4
683.0513	12344.1
683.2513	12311.5
683.4513	12272.5
683.6513	12229.1
683.8513	12184.8
684.0513	12143.6
684.2513	12109.2
684.4513	12084.1
684.6513	12067.1
684.8513	12056.4
685.0513	12050.3
685.2513	12046.8
685.4513	12042.9
685.6513	12035.1
685.8513	12020.2
686.0513	11995.2
686.2513	11960.8
686.4513	11919.9
686.6513	11875.2
686.8513	11829.7
687.0513	11787.2
687.2513	11752.1
687.4513	11729.1
687.6513	11722.7
687.8513	11732.3
688.0513	11748.7
688.2513	11761.7
688.4513	11761.4
688.6513	11741.3
688.8513	11705.7
689.0513	11660.9
689.2513	11613.1
689.4513	11568.1
689.6513	11527.7
689.8513	11492.8
690.0513	11464.1
690.2513	11442.3
690.4513	11427.1
690.6513	11417.7
690.8513	11413.3
691.0513	11412.9
691.2513	11413.5
691.4513	11409.7
691.6513	11396.2
691.8513	11367.6
692.0513	11323.3
692.2513	11271.4
692.4513	11220.3
692.6513	11178.9
692.8513	11153
693.0513	11139.7
693.2513	11134.5
693.4513	11132.8
693.6513	11130.6
693.8513	11126.1
694.0513	11118.1
694.2513	11105.9
694.4513	11088.3
694.6513	11065.1
694.8513	11036.5
695.0513	11002.4
695.2513	10963.1
695.4513	10921.1
695.6513	10881.3
695.8513	10848.7
696.0513	10828.2
696.2513	10821.4
696.4513	10823.9
696.6513	10830.7
696.8513	10836.7
697.0513	10837.8
697.2513	10831.4
697.4513	10815.6
697.6513	10788.4
697.8513	10749
698.0513	10702.5
698.2513	10656
698.4513	10616.8
698.6513	10591.2
698.8513	10578.3
699.0513	10572.9
699.2513	10569.7
699.4513	10563.5
699.6513	10552
699.8513	10535.7
700.0513	10515.2
700.2513	10490.9
700.4513	10463.7
700.6513	10434.4
700.8513	10403.9
701.0513	10373.2
701.2513	10343.4
701.4513	10316.4
701.6513	10294.3
701.8513	10279.1
702.0513	10271.9
702.2513	10270.1
702.4513	10269.7
702.6513	10266.9
702.8513	10258.1
703.0513	10242.4
703.2513	10220.4
703.4513	10192.7
703.6513	10160
703.8513	10124
704.0513	10087.3
704.2513	10052.9
704.4513	10023.3
704.6513	10000.5
704.8513	9985.03
705.0513	9977.39
705.2513	9978.07
705.4513	9985.76
705.6513	9994.8
705.8513	9998.92
706.0513	9991.84
706.2513	9969.23
706.4513	9934.82
706.6513	9894.43
706.8513	9853.89
707.0513	9818.54
707.2513	9790.17
707.4513	9769.01
707.6513	9755.26
707.8513	9749.01
708.0513	9748.4
708.2513	9750.14
708.4513	9750.92
708.6513	9747.46
708.8513	9737.66
709.0513	9720.85
709.2513	9696.43
709.4513	9663.84
709.6513	9624.27
709.8513	9582.47
710.0513	9543.57
710.2513	9512.71
710.4513	9493.47
710.6513	9484.3
710.8513	9482.6
711.0513	9485.76
711.2513	9491.12
711.4513	9495.78
711.6513	9496.78
711.8513	9491.12
712.0513	9476.18
712.2513	9453.18
712.4513	9425.58
712.6513	9396.85
712.8513	9370.43
713.0513	9348.2
713.2513	9330.6
713.4513	9318.03
713.6513	9310.85
713.8513	9308.21
714.0513	9307.43
714.2513	9305.66
714.4513	9300.06
714.6513	9288.69
714.8513	9271.82
715.0513	9250.11
715.2513	9224.17
715.4513	9195.06
715.6513	9165.56
715.8513	9138.91
716.0513	9118.36
716.2513	9106.65
716.4513	9102.8
716.6513	9104.23
716.8513	9108.32
717.0513	9112.47
717.2513	9114.01
717.4513	9110.25
717.6513	9098.48
717.8513	9076.13
718.0513	9044.25
718.2513	9008
718.4513	8972.78
718.6513	8943.93
718.8513	8924.63
719.0513	8914.1
719.2513	8911.16
719.4513	8914.62
719.6513	8922.77
719.8513	8932.38
720.0513	8939.9
720.2513	8941.83
720.4513	8935.3
720.6513	8920.75
720.8513	8899.6
721.0513	8873.3
721.2513	8843.46
721.4513	8813.13
721.6513	8786.13
721.8513	8766.24
722.0513	8757
722.2513	8757.36
722.4513	8762.68
722.6513	8768.22
722.8513	8769.31
723.0513	8764.02
723.2513	8753.84
723.4513	8740.48
723.6513	8725.62
723.8513	8710.23
724.0513	8693.79
724.2513	8675.59
724.4513	8654.97
724.6513	8632.22
724.8513	8610.83
725.0513	8594.93
725.2513	8588.62
725.4513	8594.65
725.6513	8608.49
725.8513	8623.21
726.0513	8631.91
726.2513	8628.39
726.4513	8612.87
726.6513	8588.91
726.8513	8560.13
727.0513	8530.09
727.2513	8501.73
727.4513	8477.49
727.6513	8459.76
727.8513	8450.89
728.0513	8450.67
728.2513	8455.71
728.4513	8462.39
728.6513	8467.13
728.8513	8467.48
729.0513	8463.34
729.2513	8454.84
729.4513	8442.14
729.6513	8425.78
729.8513	8407.53
730.0513	8389.42
730.2513	8373.48
730.4513	8361.44
730.6513	8353.65
730.8513	8349.98
731.0513	8350.32
731.2513	8354.41
731.4513	8360.75
731.6513	8367.19
731.8513	8371.61
732.0513	8371.95
732.2513	8367.48
732.4513	8358.53
732.6513	8345.44
732.8513	8328.58
733.0513	8309.2
733.2513	8289.58
733.4513	8272.06
733.6513	8258.97
733.8513	8251.37
734.0513	8247.97
734.2513	8247.27
734.4513	8247.73
734.6513	8247.89
734.8513	8246.36
735.0513	8241.79
735.2513	8232.83
735.4513	8218.76
735.6513	8201.77
735.8513	8184.88
736.0513	8171.11
736.2513	8163.12
736.4513	8161.08
736.6513	8164.05
736.8513	8171.05
737.0513	8181.05
737.2513	8191.97
737.4513	8201.04
737.6513	8205.45
737.8513	8202.5
738.0513	8191.69
738.2513	8174.75
738.4513	8153.56
738.6513	8129.96
738.8513	8106.41
739.0513	8086.23
739.2513	8072.85
739.4513	8069.66
739.6513	8077.8
739.8513	8093.03
740.0513	8110.31
740.2513	8124.64
740.4513	8132.17
740.6513	8133.34
740.8513	8129.6
741.0513	8122.4
741.2513	8113.06
741.4513	8102.18
741.6513	8090.06
741.8513	8077.04
742.0513	8063.6
742.2513	8051.68
742.4513	8044.03
742.6513	8043.43
742.8513	8052.37
743.0513	8068.85
743.2513	8087.16
743.4513	8101.49
743.6513	8106.14
743.8513	8099.72
744.0513	8086.06
744.2513	8069.34
744.4513	8053.7
744.6513	8041.93
744.8513	8034.36
745.0513	8031.04
745.2513	8032.03
745.4513	8037.04
745.6513	8044.74
745.8513	8053.61
746.0513	8062.18
746.2513	8069.06
746.4513	8073.52
746.6513	8074.95
746.8513	8072.76
747.0513	8066.65
747.2513	8058.29
747.4513	8050.16
747.6513	8044.74
747.8513	8044.29
748.0513	8048.65
748.2513	8056.16
748.4513	8065.17
748.6513	8074.03
748.8513	8081.28
749.0513	8085.63
749.2513	8085.79
749.4513	8080.51
749.6513	8070.19
749.8513	8057.37
750.0513	8044.72
750.2513	8034.89
750.4513	8029.52
750.6513	8028.25
750.8513	8030.51
751.0513	8035.73
751.2513	8043.28
751.4513	8052.42
751.6513	8062.39
751.8513	8072.4
752.0513	8081.68
752.2513	8089.27
752.4513	8094.22
752.6513	8095.54
752.8513	8092.48
753.0513	8085.8
753.2513	8076.85
753.4513	8067
753.6513	8057.67
753.8513	8051.21
754.0513	8050.47
754.2513	8058.32
754.4513	8077.33
754.6513	8104.72
754.8513	8133.06
755.0513	8154.76
755.2513	8162.41
755.4513	8154.96
755.6513	8139.28
755.8513	8122.7
756.0513	8112.54
756.2513	8112.5
756.4513	8119.8
756.6513	8130.97
756.8513	8142.55
757.0513	8152.31
757.2513	8161.14
757.4513	8170.49
757.6513	8181.76
757.8513	8195.69
758.0513	8210.22
758.2513	8222.63
758.4513	8230.19
758.6513	8230.84
758.8513	8226.42
759.0513	8220.15
759.2513	8215.3
759.4513	8214.87
759.6513	8219.83
759.8513	8230.02
760.0513	8245.29
760.2513	8265.38
760.4513	8288.42
760.6513	8311.33
760.8513	8331
761.0513	8344.41
761.2513	8350.49
761.4513	8350.3
761.6513	8345.02
761.8513	8335.82
762.0513	8324.97
762.2513	8316.33
762.4513	8313.91
762.6513	8321.7
762.8513	8341.25
763.0513	8368.83
763.2513	8400.01
763.4513	8430.37
763.6513	8456.16
763.8513	8475.71
764.0513	8487.77
764.2513	8491.08
764.4513	8485.34
764.6513	8474.67
764.8513	8464.46
765.0513	8460.1
765.2513	8466.1
765.4513	8481.18
765.6513	8501.59
765.8513	8523.62
766.0513	8543.76
766.2513	8561.22
766.4513	8576.72
766.6513	8591.05
766.8513	8604.94
767.0513	8618.79
767.2513	8632.65
767.4513	8646.58
767.6513	8660.65
767.8513	8675.16
768.0513	8690.69
768.2513	8707.83
768.4513	8727.18
768.6513	8748.8
768.8513	8771.96
769.0513	8795.86
769.2513	8819.69
769.4513	8842.71
769.6513	8864.3
769.8513	8883.88
770.0513	8900.85
770.2513	8914.82
770.4513	8926.04
770.6513	8934.89
770.8513	8941.72
771.0513	8947.43
771.2513	8955.19
771.4513	8968.83
771.6513	8992.19
771.8513	9028.07
772.0513	9072.21
772.2513	9117.5
772.4513	9156.8
772.6513	9183.71
772.8513	9199.02
773.0513	9207.64
773.2513	9214.54
773.4513	9224.48
773.6513	9239.45
773.8513	9259.21
774.0513	9283.49
774.2513	9311.97
774.4513	9343.46
774.6513	9375.79
774.8513	9406.77
775.0513	9434.22
775.2513	9456.91
775.4513	9475.03
775.6513	9488.84
775.8513	9498.66
776.0513	9505.62
776.2513	9512.58
776.4513	9522.59
776.6513	9538.72
776.8513	9562.6
777.0513	9591.84
777.2513	9623.39
777.4513	9654.19
777.6513	9681.79
777.8513	9706.24
778.0513	9728.18
778.2513	9748.25
778.4513	9766.89
778.6513	9783.54
778.8513	9797.26
779.0513	9807.1
779.2513	9812.61
779.4513	9817.12
779.6513	9825.76
779.8513	9843.68
780.0513	9875.37
780.2513	9917.54
780.4513	9961.85
780.6513	9999.9
780.8513	10023.6
781.0513	10032.2
781.2513	10030.8
781.4513	10024.9
781.6513	10019.9
781.8513	10018.7
782.0513	10021.3
782.2513	10027.4
782.4513	10036.8
782.6513	10049.4
782.8513	10065.1
783.0513	10083.7
783.2513	10105.4
783.4513	10129.1
783.6513	10152.6
783.8513	10173.2
784.0513	10188.3
784.2513	10196.3
784.4513	10198
784.6513	10194.7
784.8513	10187.6
785.0513	10178.6
785.2513	10171
785.4513	10168.7
785.6513	10175.6
785.8513	10194.4
786.0513	10221.6
786.2513	10251.2
786.4513	10277.5
786.6513	10295.2
786.8513	10303.3
787.0513	10302.7
787.2513	10294.4
787.4513	10279.4
787.6513	10260.7
787.8513	10242.3
788.0513	10228.3
788.2513	10222.5
788.4513	10225.8
788.6513	10236.2
788.8513	10252
789.0513	10271
789.2513	10291.1
789.4513	10309.4
789.6513	10323.1
789.8513	10329.3
790.0513	10327
790.2513	10317.6
790.4513	10302.6
790.6513	10283.5
790.8513	10263.2
791.0513	10247.1
791.2513	10240.8
791.4513	10249.8
791.6513	10275.8
791.8513	10310.5
792.0513	10344.2
792.2513	10367
792.4513	10372.4
792.6513	10363.3
792.8513	10344.8
793.0513	10321.7
793.2513	10298.7
793.4513	10277.8
793.6513	10260.6
793.8513	10248.7
794.0513	10243.4
794.2513	10243.8
794.4513	10248.9
794.6513	10257.1
794.8513	10267.2
795.0513	10277.3
795.2513	10285.2
795.4513	10288.8
795.6513	10286.1
795.8513	10277
796.0513	10262.6
796.2513	10244.1
796.4513	10222.7
796.6513	10200.9
796.8513	10182.4
797.0513	10171
797.2513	10170
797.4513	10178.9
797.6513	10192.1
797.8513	10204.2
798.0513	10209.7
798.2513	10205.8
798.4513	10193.5
798.6513	10173.9
798.8513	10148.2
799.0513	10118.8
799.2513	10090.4
799.4513	10067.6
799.6513	10055.3
799.8513	10055.5
800.0513	10064
800.2513	10075.9
800.4513	10086.2
800.6513	10091.2
800.8513	10090.7
801.0513	10085.4
801.2513	10075.8
801.4513	10062.4
801.6513	10045.5
801.8513	10025.1
802.0513	10001.5
802.2513	9975.34
802.4513	9949.69
802.6513	9928.5
802.8513	9915.7
803.0513	9914.34
803.2513	9921.89
803.4513	9933.57
803.6513	9944.57
803.8513	9950.36
804.0513	9948.87
804.2513	9939.29
804.4513	9920.81
804.6513	9892.89
804.8513	9858.04
805.0513	9820.76
805.2513	9785.62
805.4513	9756.98
805.6513	9736.52
805.8513	9723.62
806.0513	9717.62
806.2513	9717.8
806.4513	9722.32
806.6513	9728.17
806.8513	9732.29
807.0513	9731.67
807.2513	9724.65
807.4513	9711.39
807.6513	9692.16
807.8513	9667.26
808.0513	9638.12
808.2513	9608.06
808.4513	9580.56
808.6513	9559.1
808.8513	9545.23
809.0513	9536.54
809.2513	9530.14
809.4513	9523.16
809.6513	9513.44
809.8513	9500.75
810.0513	9485.15
810.2513	9466.73
810.4513	9446.01
810.6513	9425.09
810.8513	9406.35
811.0513	9392.19
811.2513	9384.3
811.4513	9381.34
811.6513	9381.17
811.8513	9381.66
812.0513	9380.76
812.2513	9376.75
812.4513	9368.06
812.6513	9353.11
812.8513	9330.73
813.0513	9302.69
813.2513	9271.93
813.4513	9241.44
813.6513	9213.92
813.8513	9189.74
814.0513	9168.02
814.2513	9147.89
814.4513	9128.55
814.6513	9110.26
814.8513	9093.93
815.0513	9080.49
815.2513	9070.72
815.4513	9062.94
815.6513	9053.49
815.8513	9038.67
816.0513	9014.97
816.2513	8983.15
816.4513	8948.13
816.6513	8914.99
816.8513	8888.7
817.0513	8870.73
817.2513	8858.35
817.4513	8848.58
817.6513	8838.51
817.8513	8827.06
818.0513	8815.88
818.2513	8806.82
818.4513	8801.7
818.6513	8799.73
818.8513	8795.54
819.0513	8783.24
819.2513	8757.02
819.4513	8715.35
819.6513	8666.11
819.8513	8618.34
820.0513	8581.13
820.2513	8559.86
820.4513	8550.23
820.6513	8546.34
820.8513	8542.27
821.0513	8533.53
821.2513	8520.25
821.4513	8503.52
821.6513	8484.41
821.8513	8463.7
822.0513	8441.02
822.2513	8415.66
822.4513	8386.94
822.6513	8354.78
822.8513	8322.07
823.0513	8292.66
823.2513	8270.38
823.4513	8258.15
823.6513	8253.18
823.8513	8250.54
824.0513	8245.26
824.2513	8232.9
824.4513	8212.91
824.6513	8186.58
824.8513	8155.17
825.0513	8120.06
825.2513	8083.36
825.4513	8047.65
825.6513	8015.5
825.8513	7989.28
826.0513	7969.04
826.2513	7953.28
826.4513	7940.46
826.6513	7929.04
826.8513	7917.58
827.0513	7904.68
827.2513	7888.93
827.4513	7869
827.6513	7844.78
827.8513	7817.29
828.0513	7787.61
828.2513	7756.85
828.4513	7726.5
828.6513	7698.54
828.8513	7674.96
829.0513	7657.72
829.2513	7646.64
829.4513	7638.78
829.6513	7631.02
829.8513	7620.24
830.0513	7604.57
830.2513	7584.1
830.4513	7559.04
830.6513	7529.66
830.8513	7496.89
831.0513	7462.95
831.2513	7430.19
831.4513	7400.97
831.6513	7376.69
831.8513	7356.62
832.0513	7339.81
832.2513	7325.28
832.4513	7311.81
832.6513	7297.54
832.8513	7280.53
833.0513	7258.83
833.2513	7231.56
833.4513	7201.17
833.6513	7170.7
833.8513	7143.24
834.0513	7120.95
834.2513	7102.69
834.4513	7086.6
834.6513	7070.78
834.8513	7053.74
835.0513	7035.57
835.2513	7016.78
835.4513	6997.92
835.6513	6979.33
835.8513	6960.56
836.0513	6940.87
836.2513	6919.51
836.4513	6895.94
836.6513	6870.65
836.8513	6844.58
837.0513	6818.66
837.2513	6793.71
837.4513	6769.92
837.6513	6747.16
837.8513	6725.34
838.0513	6704.32
838.2513	6683.94
838.4513	6664
838.6513	6644.31
838.8513	6624.66
839.0513	6604.73
839.2513	6584.12
839.4513	6562.42
839.6513	6539.31
839.8513	6515.07
840.0513	6490.48
840.2513	6466.28
840.4513	6443.25
840.6513	6422.16
840.8513	6403.77
841.0513	6388.84
841.2513	6378.04
841.4513	6370.05
841.6513	6361.78
841.8513	6350.04
842.0513	6331.76
842.2513	6306.41
842.4513	6276.02
842.6513	6242.77
842.8513	6208.81
843.0513	6176.05
843.2513	6146.14
843.4513	6120.67
843.6513	6101.21
843.8513	6087.59
844.0513	6077.23
844.2513	6067.44
844.4513	6055.53
844.6513	6040.09
844.8513	6021.65
845.0513	6000.94
845.2513	5978.64
845.4513	5955.45
845.6513	5932.07
845.8513	5909.16
846.0513	5887.41
846.2513	5867.4
846.4513	5849.53
846.6513	5834.18
846.8513	5821.72
847.0513	5811.71
847.2513	5801.89
847.4513	5789.79
847.6513	5772.92
847.8513	5750.05
848.0513	5723.14
848.2513	5694.63
848.4513	5666.96
848.6513	5642.04
848.8513	5620.19
849.0513	5601.49
849.2513	5586.01
849.4513	5573.61
849.6513	5563.46
849.8513	5554.6
850.0513	5546.09
850.2513	5537.02
850.4513	5526.75
850.6513	5514.68
850.8513	5500.21
851.0513	5483
851.2513	5463.75
851.4513	5443.45
851.6513	5423.08
851.8513	5403.52
852.0513	5385.25
852.2513	5368.6
852.4513	5353.93
852.6513	5341.4
852.8513	5330.23
853.0513	5319.35
853.2513	5307.67
853.4513	5294.32
853.6513	5279.69
853.8513	5264.65
854.0513	5250.05
854.2513	5236.63
854.4513	5224.17
854.6513	5212.05
854.8513	5199.67
855.0513	5186.56
855.2513	5173.4
855.4513	5161.34
855.6513	5151.58
855.8513	5145.04
856.0513	5140.6
856.2513	5136.07
856.4513	5129.28
856.6513	5118.27
856.8513	5103.38
857.0513	5086.24
857.2513	5068.48
857.4513	5051.66
857.6513	5036.58
857.8513	5023.54
858.0513	5012.81
858.2513	5004.71
858.4513	4999.46
858.6513	4997.27
858.8513	4998.35
859.0513	5002.75
859.2513	5008.61
859.4513	5012.63
859.6513	5011.47
859.8513	5002.03
860.0513	4985.15
860.2513	4964.77
860.4513	4944.95
860.6513	4929.59
860.8513	4919.74
861.0513	4913.96
861.2513	4910.74
861.4513	4908.61
861.6513	4906.93
861.8513	4905.83
862.0513	4905.49
862.2513	4906.05
862.4513	4906.71
862.6513	4905.75
862.8513	4901.38
863.0513	4891.93
863.2513	4878.48
863.4513	4865.2
863.6513	4856.38
863.8513	4856.2
864.0513	4864.63
864.2513	4876.59
864.4513	4886.72
864.6513	4889.73
864.8513	4883.91
865.0513	4872.06
865.2513	4857.29
865.4513	4842.67
865.6513	4830.3
865.8513	4820.92
866.0513	4815.17
866.2513	4813.64
866.4513	4815.95
866.6513	4820.19
866.8513	4824.31
867.0513	4826.31
867.2513	4825.27
867.4513	4822.05
867.6513	4817.61
867.8513	4812.95
868.0513	4808.52
868.2513	4803.84
868.4513	4798.39
868.6513	4791.62
868.8513	4783.67
869.0513	4775.87
869.2513	4769.69
869.4513	4766.57
869.6513	4767.18
869.8513	4770.66
870.0513	4775.98
870.2513	4782.13
870.4513	4788.06
870.6513	4792.74
870.8513	4795.11
871.0513	4794.13
871.2513	4789.53
871.4513	4782.76
871.6513	4775.47
871.8513	4769.31
872.0513	4765.58
872.2513	4764.76
872.4513	4767.22
872.6513	4773.33
872.8513	4782.6
873.0513	4792.47
873.2513	4800.09
873.4513	4802.61
873.6513	4798.55
873.8513	4789.9
874.0513	4779.23
874.2513	4769.07
874.4513	4761.33
874.6513	4756.2
874.8513	4753.6
875.0513	4753.44
875.2513	4755.25
875.4513	4757.56
875.6513	4758.69
875.8513	4756.98
876.0513	4751.73
876.2513	4745.1
876.4513	4739.78
876.6513	4738.44
876.8513	4742.6
877.0513	4750.12
877.2513	4758.18
877.4513	4763.95
877.6513	4765.46
877.8513	4763.48
878.0513	4759.34
878.2513	4754.38
878.4513	4749.78
878.6513	4746.3
878.8513	4744.63
879.0513	4745.43
879.2513	4748.9
879.4513	4753.58
879.6513	4757.66
879.8513	4759.33
880.0513	4757.46
880.2513	4753.39
880.4513	4749.03
880.6513	4746.3
880.8513	4746.62
881.0513	4749.57
881.2513	4754.33
881.4513	4760.07
881.6513	4765.97
881.8513	4771.32
882.0513	4775.45
882.2513	4777.67
882.4513	4777.46
882.6513	4775.04
882.8513	4770.77
883.0513	4765.05
883.2513	4758.46
883.4513	4752.46
883.6513	4748.73
883.8513	4748.95
884.0513	4754.13
884.2513	4762.34
884.4513	4770.93
884.6513	4777.23
884.8513	4779.31
885.0513	4778.34
885.2513	4776.34
885.4513	4775.33
885.6513	4776.77
885.8513	4779.71
886.0513	4782.55
886.2513	4783.68
886.4513	4782.03
886.6513	4778.95
886.8513	4776.46
887.0513	4776.58
887.2513	4780.73
887.4513	4787.66
887.6513	4795.35
887.8513	4801.77
888.0513	4805.39
888.2513	4806.84
888.4513	4807.38
888.6513	4808.26
888.8513	4810.39
889.0513	4813.05
889.2513	4815.01
889.4513	4815.07
889.6513	4812.5
889.8513	4808.76
890.0513	4805.96
890.2513	4806.2
890.4513	4811.05
890.6513	4819.55
890.8513	4830.03
891.0513	4840.78
891.2513	4850.29
891.4513	4857.88
891.6513	4863.14
891.8513	4865.62
892.0513	4865.14
892.2513	4862.62
892.4513	4859.3
892.6513	4856.45
892.8513	4855.2
893.0513	4856.22
893.2513	4860.05
893.4513	4867.19
893.6513	4877.78
893.8513	4889.95
894.0513	4901.29
894.2513	4909.39
894.4513	4912.58
894.6513	4912.67
894.8513	4912.47
895.0513	4914.78
895.2513	4921.83
895.4513	4933.09
895.6513	4947.24
895.8513	4962.98
896.0513	4978.94
896.2513	4993.58
896.4513	5005.3
896.6513	5012.5
896.8513	5014.18
897.0513	5011.99
897.2513	5008.37
897.4513	5005.71
897.6513	5006.05
897.8513	5009.68
898.0513	5016.4
898.2513	5026.04
898.4513	5038.23
898.6513	5051.89
898.8513	5065.73
899.0513	5078.44
899.2513	5089.14
899.4513	5098.62
899.6513	5108.11
899.8513	5118.86
900.0513	5131.55
900.2513	5144.55
900.4513	5155.66
900.6513	5162.65
900.8513	5164.32
901.0513	5163.46
901.2513	5163.88
901.4513	5169.4
901.6513	5182.61
901.8513	5201.44
902.0513	5222.64
902.2513	5242.98
902.4513	5259.86
902.6513	5273.08
902.8513	5283.05
903.0513	5290.16
903.2513	5295.13
903.4513	5299.85
903.6513	5306.49
903.8513	5317.2
904.0513	5333.37
904.2513	5353.59
904.4513	5375.85
904.6513	5398.14
904.8513	5418.78
905.0513	5437.34
905.2513	5453.64
905.4513	5467.5
905.6513	5478.98
905.8513	5488.87
906.0513	5498.16
906.2513	5507.81
906.4513	5518.76
906.6513	5531.89
906.8513	5548.06
907.0513	5568.11
907.2513	5592.06
907.4513	5617.39
907.6513	5641.08
907.8513	5660.13
908.0513	5672.91
908.2513	5681.77
908.4513	5689.73
908.6513	5699.85
908.8513	5714.22
909.0513	5732.3
909.2513	5753.11
909.4513	5775.69
909.6513	5799.18
909.8513	5823.06
910.0513	5846.85
910.2513	5870.08
910.4513	5892.44
910.6513	5913.92
910.8513	5934.62
911.0513	5954.61
911.2513	5973.86
911.4513	5992.14
911.6513	6009.17
911.8513	6024.68
912.0513	6039.27
912.2513	6055.44
912.4513	6075.97
912.6513	6103.59
912.8513	6138.85
913.0513	6177.63
913.2513	6215.24
913.4513	6247.01
913.6513	6270.64
913.8513	6288.49
914.0513	6303.48
914.2513	6318.52
914.4513	6335.73
914.6513	6355.76
914.8513	6379.13
915.0513	6406.32
915.2513	6436.86
915.4513	6468.6
915.6513	6499.21
915.8513	6526.39
916.0513	6549.57
916.2513	6570.98
916.4513	6593.11
916.6513	6618.42
916.8513	6647.4
917.0513	6677.57
917.2513	6706.2
917.4513	6730.59
917.6513	6750.03
917.8513	6766.64
918.0513	6782.76
918.2513	6800.72
918.4513	6822.44
918.6513	6849.26
918.8513	6882.51
919.0513	6923.44
919.2513	6970.23
919.4513	7017.36
919.6513	7059.04
919.8513	7089.69
920.0513	7109.2
920.2513	7123.77
920.4513	7139.97
920.6513	7164.14
920.8513	7197.05
921.0513	7233.55
921.2513	7268.2
921.4513	7295.78
921.6513	7316.3
921.8513	7334.93
922.0513	7357.03
922.2513	7387.7
922.4513	7426.25
922.6513	7466.69
922.8513	7502.86
923.0513	7528.96
923.2513	7545.62
923.4513	7558.83
923.6513	7574.77
923.8513	7599.25
924.0513	7632.58
924.2513	7670.8
924.4513	7709.85
924.6513	7745.96
924.8513	7779.01
925.0513	7811.55
925.2513	7846.15
925.4513	7885.07
925.6513	7926.83
925.8513	7967.52
926.0513	8003.18
926.2513	8030.26
926.4513	8049.56
926.6513	8064.39
926.8513	8078.11
927.0513	8093.97
927.2513	8114.16
927.4513	8140.3
927.6513	8174.01
927.8513	8216.34
928.0513	8263.78
928.2513	8310.61
928.4513	8351.07
928.6513	8380.29
928.8513	8399.79
929.0513	8413.85
929.2513	8426.81
929.4513	8442.51
929.6513	8461.91
929.8513	8484.83
930.0513	8511.05
930.2513	8540.33
930.4513	8572.14
930.6513	8605.87
930.8513	8640.89
931.0513	8676.57
931.2513	8712.27
931.4513	8747.32
931.6513	8781.08
931.8513	8812.85
932.0513	8841.83
932.2513	8867.17
932.4513	8888.04
932.6513	8904.38
932.8513	8919.24
933.0513	8936.46
933.2513	8959.88
933.4513	8991.61
933.6513	9027.73
933.8513	9062.99
934.0513	9092.15
934.2513	9111.9
934.4513	9124.94
934.6513	9135.13
934.8513	9146.3
935.0513	9161.5
935.2513	9181.49
935.4513	9206.67
935.6513	9237.42
935.8513	9273.25
936.0513	9311.58
936.2513	9349.5
936.4513	9384.13
936.6513	9413.42
936.8513	9437.22
937.0513	9455.58
937.2513	9468.58
937.4513	9477.13
937.6513	9483.74
937.8513	9491.09
938.0513	9501.85
938.2513	9517.43
938.4513	9537.16
938.6513	9560.19
938.8513	9585.65
939.0513	9612.45
939.2513	9639.11
939.4513	9664.15
939.6513	9686.1
939.8513	9704.06
940.0513	9717.9
940.2513	9727.54
940.4513	9732.95
940.6513	9735.7
940.8513	9739.17
941.0513	9746.87
941.2513	9762.11
941.4513	9784.77
941.6513	9811.3
941.8513	9838
942.0513	9861.31
942.2513	9880.21
942.4513	9895.87
942.6513	9909.54
942.8513	9922.36
943.0513	9933.98
943.2513	9942.9
943.4513	9947.62
943.6513	9946.87
943.8513	9942.43
944.0513	9938.12
944.2513	9937.8
944.4513	9944.85
944.6513	9958.2
944.8513	9974.16
945.0513	9989.04
945.2513	9999.59
945.4513	10006.5
945.6513	10012.4
945.8513	10019.9
946.0513	10031.2
946.2513	10045
946.4513	10058.5
946.6513	10069
946.8513	10074.4
947.0513	10075.4
947.2513	10074.3
947.4513	10073
947.6513	10073.4
947.8513	10075.7
948.0513	10079.8
948.2513	10085.6
948.4513	10092.5
948.6513	10098.5
948.8513	10101.1
949.0513	10098.1
949.2513	10087.9
949.4513	10073.5
949.6513	10058.4
949.8513	10046.4
950.0513	10039.9
950.2513	10038.4
950.4513	10040.7
950.6513	10045.6
950.8513	10051.7
951.0513	10057.1
951.2513	10060
951.4513	10058.5
951.6513	10051.8
951.8513	10041.8
952.0513	10030.4
952.2513	10019.9
952.4513	10010.9
952.6513	10001.8
952.8513	9990.68
953.0513	9975.67
953.2513	9957.21
953.4513	9939.23
953.6513	9925.95
953.8513	9921.47
954.0513	9925.51
954.2513	9932.15
954.4513	9935.1
954.6513	9928.28
954.8513	9911.27
955.0513	9889.82
955.2513	9870.01
955.4513	9857.63
955.6513	9853.08
955.8513	9851.78
956.0513	9848.98
956.2513	9840.16
956.4513	9824.68
956.6513	9804.91
956.8513	9783.31
957.0513	9762.16
957.2513	9741.73
957.4513	9720.96
957.6513	9698.78
957.8513	9674.34
958.0513	9649.13
958.2513	9625.87
958.4513	9607.32
958.6513	9595.74
958.8513	9589.81
959.0513	9586.56
959.2513	9583.01
959.4513	9576.58
959.6513	9566.96
959.8513	9554.7
960.0513	9540.39
960.2513	9524.57
960.4513	9507.74
960.6513	9490.39
960.8513	9473
961.0513	9455.8
961.2513	9437.89
961.4513	9418.1
961.6513	9395.28
961.8513	9369.12
962.0513	9342.18
962.2513	9317.58
962.4513	9298.41
962.6513	9286.16
962.8513	9277.93
963.0513	9270.16
963.2513	9259.24
963.4513	9243.13
963.6513	9223.04
963.8513	9200.58
964.0513	9177.41
964.2513	9155
964.4513	9134.59
964.6513	9117.42
964.8513	9104.66
965.0513	9096.05
965.2513	9089.21
965.4513	9081.61
965.6513	9070.76
965.8513	9055.82
966.0513	9037.91
966.2513	9018.26
966.4513	8998.1
966.6513	8978.28
966.8513	8959.28
967.0513	8941.56
967.2513	8925.54
967.4513	8910.84
967.6513	8896.41
967.8513	8881.2
968.0513	8864.32
968.2513	8846.88
968.4513	8831.28
968.6513	8819.96
968.8513	8814.86
969.0513	8813.48
969.2513	8810.93
969.4513	8802.31
969.6513	8783.64
969.8513	8757.46
970.0513	8729.11
970.2513	8703.92
970.4513	8686.23
970.6513	8674.81
970.8513	8666.53
971.0513	8658.24
971.2513	8647.46
971.4513	8634.42
971.6513	8620.12
971.8513	8605.54
972.0513	8591.66
972.2513	8579.36
972.4513	8569.51
972.6513	8563.01
972.8513	8559.94
973.0513	8558.36
973.2513	8555.95
973.4513	8550.42
973.6513	8540.95
973.8513	8529.82
974.0513	8519.7
974.2513	8513.26
974.4513	8511.21
974.6513	8511.02
974.8513	8509.82
975.0513	8504.79
975.2513	8495.06
975.4513	8482.38
975.6513	8468.69
975.8513	8455.9
976.0513	8445.63
976.2513	8439.14
976.4513	8437.69
976.6513	8442.39
976.8513	8451.77
977.0513	8462.13
977.2513	8469.69
977.4513	8470.99
977.6513	8466.61
977.8513	8459.89
978.0513	8454.24
978.2513	8452.69
978.4513	8454.63
978.6513	8457.46
978.8513	8458.54
979.0513	8455.66
979.2513	8449.54
979.4513	8442.17
979.6513	8435.53
979.8513	8431.35
980.0513	8430.02
980.2513	8431.46
980.4513	8435.62
980.6513	8442.32
980.8513	8450.92
981.0513	8460.67
981.2513	8470.83
981.4513	8480.69
981.6513	8489.63
981.8513	8497.06
982.0513	8502.42
982.2513	8505.8
982.4513	8508.98
982.6513	8513.98
982.8513	8522.81
983.0513	8535.87
983.2513	8550.54
983.4513	8563.85
983.6513	8572.91
983.8513	8576.72
984.0513	8577.09
984.2513	8576.08
984.4513	8575.69
984.6513	8577.19
984.8513	8581.05
985.0513	8587.64
985.2513	8597.33
985.4513	8609.65
985.6513	8623.43
985.8513	8637.44
986.0513	8650.54
986.2513	8662.27
986.4513	8672.67
986.6513	8681.79
986.8513	8689.71
987.0513	8697.09
987.2513	8704.86
987.4513	8713.93
987.6513	8725.16
987.8513	8738.87
988.0513	8755.17
988.2513	8774.17
988.4513	8795.63
988.6513	8817.62
988.8513	8837.67
989.0513	8853.32
989.2513	8862.99
989.4513	8868.39
989.6513	8872.01
989.8513	8876.32
990.0513	8883.42
990.2513	8894.37
990.4513	8910.02
990.6513	8931.26
990.8513	8957.67
991.0513	8986.28
991.2513	9013.74
991.4513	9036.77
991.6513	9054.14
991.8513	9067.96
992.0513	9080.63
992.2513	9094.49
992.4513	9110.18
992.6513	9126.26
992.8513	9141.14
993.0513	9153.38
993.2513	9163.68
993.4513	9174.82
993.6513	9189.64
993.8513	9210.78
994.0513	9237.75
994.2513	9267.88
994.4513	9298.42
994.6513	9326.8
994.8513	9351.58
995.0513	9372.02
995.2513	9387.36
995.4513	9397.29
995.6513	9404.52
995.8513	9412.99
996.0513	9426.61
996.2513	9448.21
996.4513	9475.17
996.6513	9503.3
996.8513	9528.38
997.0513	9547.74
997.2513	9564.04
997.4513	9581.11
997.6513	9602.76
997.8513	9630.76
998.0513	9661.62
998.2513	9691.04
998.4513	9714.73
998.6513	9731.42
998.8513	9745.47
999.0513	9761.86
999.2513	9785.5
999.4513	9817.44
999.6513	9853.25
999.8513	9888.11
1000.0513	9917.33
1000.2513	9939.79
1000.4513	9958.16
1000.6513	9975.29
1000.8513	9993.89
1001.0513	10014.5
1001.2513	10036.1
1001.4513	10057.4
1001.6513	10077.5
1001.8513	10097.6
1002.0513	10119.9
1002.2513	10147.1
1002.4513	10180.7
1002.6513	10218.2
1002.8513	10254.8
1003.0513	10285.6
1003.2513	10307.1
1003.4513	10321
1003.6513	10330.9
1003.8513	10340.3
1004.0513	10352.6
1004.2513	10369.2
1004.4513	10391.8
1004.6513	10421.6
1004.8513	10458.6
1005.0513	10499
1005.2513	10538.6
1005.4513	10572.9
1005.6513	10600
1005.8513	10622.6
1006.0513	10643.8
1006.2513	10666.6
1006.4513	10692.6
1006.6513	10720.9
1006.8513	10750.5
1007.0513	10780.4
1007.2513	10809.9
1007.4513	10838.2
1007.6513	10864.9
1007.8513	10889.2
1008.0513	10912.2
1008.2513	10935.7
1008.4513	10961.6
1008.6513	10991.5
1008.8513	11023.7
1009.0513	11054.6
1009.2513	11080.6
1009.4513	11099.1
1009.6513	11113.1
1009.8513	11128
1010.0513	11149.1
1010.2513	11180.2
1010.4513	11218.6
1010.6513	11260
1010.8513	11299.8
1011.0513	11334.8
1011.2513	11365.6
1011.4513	11393.5
1011.6513	11420
1011.8513	11446.5
1012.0513	11474.5
1012.2513	11505.2
1012.4513	11540.3
1012.6513	11578.9
1012.8513	11616.9
1013.0513	11649.9
1013.2513	11673.6
1013.4513	11688.9
1013.6513	11702.3
1013.8513	11720.8
1014.0513	11750.9
1014.2513	11791.9
1014.4513	11837.5
1014.6513	11880.9
1014.8513	11916
1015.0513	11943.1
1015.2513	11966
1015.4513	11988.9
1015.6513	12015.2
1015.8513	12044.9
1016.0513	12076.7
1016.2513	12109.2
1016.4513	12141.1
1016.6513	12172.3
1016.8513	12202.8
1017.0513	12232.8
1017.2513	12262.3
1017.4513	12292.4
1017.6513	12324.1
1017.8513	12358.3
1018.0513	12395.2
1018.2513	12432.9
1018.4513	12469.3
1018.6513	12502.2
1018.8513	12531
1019.0513	12557.6
1019.2513	12584
1019.4513	12612.1
1019.6513	12643.1
1019.8513	12677.3
1020.0513	12714.9
1020.2513	12756.1
1020.4513	12799.6
1020.6513	12843.1
1020.8513	12884.3
1021.0513	12920.9
1021.2513	12952.8
1021.4513	12981.2
1021.6513	13007.1
1021.8513	13031.7
1022.0513	13056.6
1022.2513	13083.6
1022.4513	13114.5
1022.6513	13150.5
1022.8513	13190
1023.0513	13230.7
1023.2513	13270.1
1023.4513	13306.8
1023.6513	13341.2
1023.8513	13374.5
1024.0513	13407.7
1024.2513	13441.4
1024.4513	13475.9
1024.6512	13511.2
1024.8513	13547.3
1025.0513	13584.3
1025.2513	13621.8
1025.4513	13659.7
1025.6512	13697.6
1025.8513	13735.8
1026.0513	13774.5
1026.2513	13814.4
1026.4513	13855.9
1026.6512	13897.8
1026.8513	13938.3
1027.0513	13975.5
1027.2513	14007.7
1027.4513	14036
1027.6512	14062.7
1027.8513	14090
1028.0513	14120
1028.2513	14153
1028.4513	14189.3
1028.6512	14228.6
1028.8513	14270.6
1029.0513	14313.2
1029.2513	14354.1
1029.4513	14390.7
1029.6512	14422.4
1029.8513	14452.7
1030.0513	14485.3
1030.2513	14524.2
1030.4513	14569.5
1030.6512	14616.1
1030.8513	14658.4
1031.0513	14690.9
1031.2513	14714.9
1031.4513	14738.7
1031.6512	14770.9
1031.8513	14819.4
1032.0513	14882
1032.2513	14948.5
1032.4513	15008.8
1032.6512	15053.8
1032.8513	15085.3
1033.0513	15110.1
1033.2513	15135.2
1033.4513	15166.4
1033.6512	15203.8
1033.8513	15245.2
1034.0513	15288.5
1034.2513	15332.3
1034.4513	15377
1034.6512	15423.6
1034.8513	15473.1
1035.0513	15525.2
1035.2513	15576.6
1035.4513	15623.7
1035.6512	15662.9
1035.8513	15693.2
1036.0513	15718.1
1036.2513	15741.3
1036.4513	15766.5
1036.6512	15797
1036.8513	15835.8
1037.0513	15885.9
1037.2513	15949.7
1037.4513	16022.5
1037.6512	16094.1
1037.8513	16154.5
1038.0513	16195
1038.2513	16219.7
1038.4513	16239.1
1038.6512	16263.5
1038.8513	16301.1
1039.0513	16349
1039.2513	16400.9
1039.4513	16450.5
1039.6512	16493.4
1039.8513	16532.8
1040.0513	16573.4
1040.2513	16619.7
1040.4513	16673.7
1040.6512	16731.8
1040.8513	16789.5
1041.0513	16842.7
1041.2513	16889.1
1041.4513	16929.2
1041.6512	16964.1
1041.8513	16994.7
1042.0513	17023.4
1042.2513	17054.1
1042.4513	17090.6
1042.6512	17136.6
1042.8513	17191.2
1043.0513	17250.8
1043.2513	17311.7
1043.4513	17370.4
1043.6512	17425.4
1043.8513	17476.1
1044.0513	17521.6
1044.2513	17561.8
1044.4513	17598.3
1044.6512	17633.5
1044.8513	17669.5
1045.0513	17708.8
1045.2513	17754.3
1045.4513	17809
1045.6512	17875.7
1045.8513	17953.3
1046.0513	18032.9
1046.2513	18105.2
1046.4513	18161
1046.6512	18198.2
1046.8513	18223.6
1047.0513	18244.1
1047.2513	18266.8
1047.4513	18295.7
1047.6512	18332.8
1047.8513	18380.2
1048.0513	18439.3
1048.2513	18506.6
1048.4513	18576.5
1048.6512	18643.1
1048.8513	18701.8
1049.0513	18753.8
1049.2513	18802.2
1049.4513	18850.1
1049.6512	18899.5
1049.8513	18948.5
1050.0513	18994.5
1050.2513	19035.1
1050.4513	19069.8
1050.6512	19103.1
1050.8513	19139.8
1051.0513	19184.8
1051.2513	19239.8
1051.4513	19302.1
1051.6512	19369
1051.8513	19437.5
1052.0513	19504.8
1052.2513	19567.8
1052.4513	19623.5
1052.6512	19669.4
1052.8513	19708
1053.0513	19744.7
1053.2513	19784.9
1053.4513	19832.9
1053.6512	19887.7
1053.8513	19945.8
1054.0513	20003.9
1054.2513	20060
1054.4513	20115.3
1054.6512	20172.3
1054.8513	20233.2
1055.0513	20298.1
1055.2513	20362.3
1055.4513	20420.3
1055.6512	20466.9
1055.8513	20502.3
1056.0513	20534.2
1056.2513	20570.9
1056.4513	20620.5
1056.6512	20683.9
1056.8513	20755.5
1057.0513	20829.4
1057.2513	20900
1057.4513	20964.6
1057.6512	21021.7
1057.8513	21070
1058.0513	21109.2
1058.2513	21143.5
1058.4513	21179.1
1058.6512	21222.1
1058.8513	21276.7
1059.0513	21339.4
1059.2513	21404.9
1059.4513	21468.3
1059.6512	21527.2
1059.8513	21586.1
1060.0513	21650.1
1060.2513	21724.3
1060.4513	21807.2
1060.6512	21888.1
1060.8513	21955.7
1061.0513	21999.4
1061.2513	22021.4
1061.4513	22035.2
1061.6512	22054.6
1061.8513	22092
1062.0513	22145.1
1062.2513	22203
1062.4513	22255.1
1062.6512	22292.9
1062.8513	22322.7
1063.0513	22355.5
1063.2513	22402.5
1063.4513	22470.1
1063.6512	22549
1063.8513	22627
1064.0513	22691.7
1064.2513	22737.1
1064.4513	22770
1064.6512	22798.8
1064.8513	22831.9
1065.0513	22873.9
1065.2513	22925.1
1065.4513	22985.1
1065.6512	23053.8
1065.8513	23127.8
1066.0513	23201.6
1066.2513	23269.6
1066.4513	23326.6
1066.6512	23373.4
1066.8513	23412.9
1067.0513	23448.5
1067.2513	23483.1
1067.4513	23518.7
1067.6512	23557
1067.8513	23599.5
1068.0513	23647.3
1068.2513	23699.7
1068.4513	23755.7
1068.6512	23814.3
1068.8513	23872.8
1069.0513	23925.4
1069.2513	23966
1069.4513	23989.1
1069.6512	23998
1069.8513	24006
1070.0513	24026.9
1070.2513	24072.9
1070.4513	24140.3
1070.6512	24214
1070.8513	24279
1071.0513	24322.7
1071.2513	24349.7
1071.4513	24371.6
1071.6512	24400.1
1071.8513	24443.4
1072.0513	24496.3
1072.2513	24550.3
1072.4513	24597.2
1072.6512	24631.9
1072.8513	24657.5
1073.0513	24678
1073.2513	24697.5
1073.4513	24719.1
1073.6512	24745.1
1073.8513	24777.8
1074.0513	24818.9
1074.2513	24867.3
1074.4513	24919.1
1074.6512	24970.2
1074.8513	25017
1075.0513	25058.2
1075.2513	25094.1
1075.4513	25124.7
1075.6512	25150.3
1075.8513	25170.6
1076.0513	25185.5
1076.2513	25194.8
1076.4513	25199.4
1076.6512	25204.1
1076.8513	25214.1
1077.0513	25234.6
1077.2513	25267
1077.4513	25306.5
1077.6512	25347.4
1077.8513	25384.3
1078.0513	25413
1078.2513	25431
1078.4513	25435.5
1078.6512	25424.6
1078.8513	25404.2
1079.0513	25384.9
1079.2513	25377.5
1079.4513	25390.5
1079.6512	25419.4
1079.8513	25454.8
1080.0513	25487.3
1080.2513	25510.2
1080.4513	25525.4
1080.6512	25536.7
1080.8513	25548
1081.0513	25560.3
1081.2513	25570.1
1081.4513	25573
1081.6512	25564.8
1081.8513	25546.1
1082.0513	25522.7
1082.2513	25500.8
1082.4513	25486.3
1082.6512	25481.3
1082.8513	25484.6
1083.0513	25495.4
1083.2513	25512.1
1083.4513	25529.5
1083.6512	25540.7
1083.8513	25539.2
1084.0513	25520.4
1084.2513	25489.7
1084.4513	25454.5
1084.6512	25422.1
1084.8513	25396.8
1085.0513	25376.4
1085.2513	25357.6
1085.4513	25337.4
1085.6512	25315.6
1085.8513	25295.4
1086.0513	25280.4
1086.2513	25273.8
1086.4513	25273.1
1086.6512	25271.2
1086.8513	25261
1087.0513	25236.5
1087.2513	25199.8
1087.4513	25156.9
1087.6512	25113.5
1087.8513	25074.1
1088.0513	25038.1
1088.2513	25003.4
1088.4513	24967.9
1088.6512	24931.1
1088.8513	24896
1089.0513	24866
1089.2513	24844.3
1089.4513	24830
1089.6512	24816.3
1089.8513	24796.3
1090.0513	24763.1
1090.2513	24716.6
1090.4513	24661.5
1090.6512	24602.7
1090.8513	24544.9
1091.0513	24489.4
1091.2513	24436.4
1091.4513	24385.9
1091.6512	24337.8
1091.8513	24291.3
1092.0513	24245.1
1092.2513	24198.3
1092.4513	24150.3
1092.6512	24102.1
1092.8513	24054.8
1093.0513	24009.5
1093.2513	23964.6
1093.4513	23915.4
1093.6512	23856.4
1093.8513	23783.4
1094.0513	23701.2
1094.2513	23621.8
1094.4513	23557.6
1094.6512	23518.3
1094.8513	23496.2
1095.0513	23475.8
1095.2513	23441.7
1095.4513	23382.8
1095.6512	23304.9
1095.8513	23218
1096.0513	23132.1
1096.2513	23053.4
1096.4513	22980.8
1096.6512	22912.3
1096.8513	22845.8
1097.0513	22780.4
1097.2513	22717.1
1097.4513	22656.8
1097.6512	22600.4
1097.8513	22546.4
1098.0513	22492.5
1098.2513	22435.7
1098.4513	22373.8
1098.6512	22305.1
1098.8513	22228.6
1099.0513	22143.2
1099.2513	22049
1099.4513	21951
1099.6512	21854.9
1099.8513	21766.4
1100.0513	21689.2
1100.2513	21623.6
1100.4513	21569.1
1100.6512	21525.3
1100.8513	21487.8
1101.0513	21447.9
1101.2513	21396.7
1101.4513	21326.3
1101.6512	21237.1
1101.8513	21135.2
1102.0513	21026.4
1102.2513	20916.7
1102.4513	20811.5
1102.6512	20716
1102.8513	20635.6
1103.0513	20572.8
1103.2513	20522.2
1103.4513	20477.2
1103.6512	20431.1
1103.8513	20378.8
1104.0513	20318.3
1104.2513	20247.6
1104.4513	20165
1104.6512	20071.8
1104.8513	19972.8
1105.0513	19872.5
1105.2513	19775.3
1105.4513	19683.5
1105.6512	19598.2
1105.8513	19520.6
1106.0513	19451.1
1106.2513	19387
1106.4513	19324.8
1106.6512	19260.8
1106.8513	19192.6
1107.0513	19120.9
1107.2513	19046.4
1107.4513	18970
1107.6512	18892
1107.8513	18811.7
1108.0513	18728.2
1108.2513	18641.2
1108.4513	18552.4
1108.6512	18465.7
1108.8513	18385.1
1109.0513	18313.4
1109.2513	18248.8
1109.4513	18187.4
1109.6512	18125.1
1109.8513	18058.7
1110.0513	17987.2
1110.2513	17910
1110.4513	17826.7
1110.6512	17738.3
1110.8513	17648.4
1111.0513	17561.1
1111.2513	17480.1
1111.4513	17406.8
1111.6512	17340
1111.8513	17278.5
1112.0513	17220.9
1112.2513	17165.3
1112.4513	17109.5
1112.6512	17051.2
1112.8513	16988.4
1113.0513	16920.4
1113.2513	16846.9
1113.4513	16767.4
1113.6512	16682.6
1113.8513	16595.1
1114.0513	16508.2
1114.2513	16424.8
1114.4513	16346.7
1114.6512	16274
1114.8513	16206.4
1115.0513	16143.6
1115.2513	16084
1115.4513	16024.8
1115.6512	15963
1115.8513	15896.4
1116.0513	15826.5
1116.2513	15756.3
1116.4513	15688.6
1116.6512	15625.5
1116.8513	15565
1117.0513	15504.5
1117.2513	15441.4
1117.4513	15375.3
1117.6512	15309.7
1117.8513	15248.6
1118.0513	15195.4
1118.2513	15148.8
1118.4513	15102.4
1118.6512	15049.8
1118.8513	14985.6
1119.0513	14912
1119.2513	14835.5
1119.4513	14762.7
1119.6512	14698.6
1119.8513	14642.3
1120.0513	14591.4
1120.2513	14543.3
1120.4513	14495.9
1120.6512	14447.4
1120.8513	14396.3
1121.0513	14340.9
1121.2513	14281.4
1121.4513	14219.8
1121.6512	14158.3
1121.8513	14098.9
1122.0513	14040.8
1122.2513	13981.6
1122.4513	13918.8
1122.6512	13851
1122.8513	13782.1
1123.0513	13717.8
1123.2513	13664
1123.4513	13623.2
1123.6512	13590
1123.8513	13557.6
1124.0513	13519.2
1124.2513	13471.6
1124.4513	13416.3
1124.6512	13355.1
1124.8513	13290
1125.0513	13223.3
1125.2513	13157.7
1125.4513	13095.8
1125.6512	13040
1125.8513	12990.9
1126.0513	12948.1
1126.2513	12911.3
1126.4513	12879.2
1126.6512	12847.8
1126.8513	12812.2
1127.0513	12767.6
1127.2513	12712.9
1127.4513	12652.4
1127.6512	12591
1127.8513	12533.3
1128.0513	12480.5
1128.2513	12431
1128.4513	12382.9
1128.6512	12334.6
1128.8513	12286.9
1129.0513	12241.5
1129.2513	12200.4
1129.4513	12164.2
1129.6512	12130.9
1129.8513	12097.4
1130.0513	12060.8
1130.2513	12019.2
1130.4513	11972.4
1130.6512	11920.6
1130.8513	11864
1131.0513	11805.1
1131.2513	11748.5
1131.4513	11698.8
1131.6512	11660.1
1131.8513	11630.9
1132.0513	11607.2
1132.2513	11584.7
1132.4513	11559.9
1132.6512	11531.8
1132.8513	11499.9
1133.0513	11463.9
1133.2513	11423.4
1133.4513	11378.5
1133.6512	11329.3
1133.8513	11275.9
1134.0513	11220.4
1134.2513	11167.3
1134.4513	11121
1134.6512	11085.4
1134.8513	11059.4
1135.0513	11039.2
1135.2513	11020.8
1135.4513	11000.5
1135.6512	10975.5
1135.8513	10942.8
1136.0513	10899.7
1136.2513	10846.2
1136.4513	10788.1
1136.6512	10731.8
1136.8513	10683.8
1137.0513	10645.9
1137.2513	10615.2
1137.4513	10588.5
1137.6512	10563.1
1137.8513	10538
1138.0513	10513.6
1138.2513	10490.4
1138.4513	10468.3
1138.6512	10445
1138.8513	10417.6
1139.0513	10383.2
1139.2513	10341.1
1139.4513	10295.2
1139.6512	10249.8
1139.8513	10209.3
1140.0513	10174.8
1140.2513	10144
1140.4513	10114.5
1140.6512	10084
1140.8513	10053.8
1141.0513	10026.7
1141.2513	10005.9
1141.4513	9992.5
1141.6512	9980.47
1141.8513	9961.52
1142.0513	9927.43
1142.2513	9875.52
1142.4513	9814.66
1142.6512	9755.2
1142.8513	9707.25
1143.0513	9673.89
1143.2513	9650.76
1143.4513	9633.13
1143.6512	9616.56
1143.8513	9599.27
1144.0513	9580.96
1144.2513	9561.35
1144.4513	9540.08
1144.6512	9516.45
1144.8513	9489.68
1145.0513	9458.98
1145.2513	9424.44
1145.4513	9387.8
1145.6512	9351.04
1145.8513	9316.09
1146.0513	9284.26
1146.2513	9256.18
1146.4513	9232.48
1146.6512	9213.55
1146.8513	9197.8
1147.0513	9182.66
1147.2513	9165.51
1147.4513	9144.29
1147.6512	9118.96
1147.8513	9089.98
1148.0513	9057.8
1148.2513	9023.36
1148.4513	8988.49
1148.6512	8955.09
1148.8513	8925.04
1149.0513	8898.98
1149.2513	8876.42
1149.4513	8856.85
1149.6512	8839.58
1149.8513	8822.61
1150.0513	8803.3
1150.2513	8779.05
1150.4513	8748.46
1150.6512	8714.37
1150.8513	8680.57
1151.0513	8650.79
1151.2513	8626.6
1151.4513	8605.92
1151.6512	8586.34
1151.8513	8565.56
1152.0513	8543.24
1152.2513	8520.64
1152.4513	8499.07
1152.6512	8479.57
1152.8513	8461.32
1153.0513	8442.74
1153.2513	8422.22
1153.4513	8398.74
1153.6512	8372.87
1153.8513	8345.51
1154.0513	8317.55
1154.2513	8289.94
1154.4513	8263.68
1154.6512	8239.78
1154.8513	8219.16
1155.0513	8201.47
1155.2513	8185.42
1155.4513	8169.72
1155.6512	8153.14
1155.8513	8134.8
1156.0513	8113.97
1156.2513	8089.91
1156.4513	8062.64
1156.6512	8034.05
1156.8513	8006.33
1157.0513	7981.61
1157.2513	7960.63
1157.4513	7942.41
1157.6512	7925.88
1157.8513	7909.98
1158.0513	7894.15
1158.2513	7878.13
1158.4513	7861.61
1158.6512	7844.27
1158.8513	7825.53
1159.0513	7804.73
1159.2513	7781.22
1159.4513	7754.99
1159.6512	7727.26
1159.8513	7699.42
1160.0513	7672.84
1160.2513	7648.62
1160.4513	7627.58
1160.6512	7610.53
1160.8513	7597.96
1161.0513	7587.85
1161.2513	7576.99
1161.4513	7562.16
1161.6512	7541.53
1161.8513	7518.2
1162.0513	7496.3
1162.2513	7479.9
1162.4513	7469.21
1162.6512	7458.17
1162.8513	7440.15
1163.0513	7409.12
1163.2513	7367.77
1163.4513	7325.65
1163.6512	7292.51
1163.8513	7276.22
1164.0513	7273.58
1164.2513	7277.29
1164.4513	7280.07
1164.6512	7276.58
1164.8513	7266.69
1165.0513	7251.09
1165.2513	7230.46
1165.4513	7205.8
1165.6512	7178.45
1165.8513	7149.78
1166.0513	7121.14
1166.2513	7093.94
1166.4513	7069.58
1166.6512	7049.48
1166.8513	7034.47
1167.0513	7022.99
1167.2513	7012.8
1167.4513	7001.67
1167.6512	6987.91
1167.8513	6970.92
1168.0513	6950.19
1168.2513	6925.29
1168.4513	6897.19
1168.6512	6868.1
1168.8513	6840.3
1169.0513	6815.88
1169.2513	6795.67
1169.4513	6779.92
1169.6512	6768.87
1169.8513	6762.2
1170.0513	6757.79
1170.2513	6753.15
1170.4513	6745.84
1170.6512	6734.58
1170.8513	6719.68
1171.0513	6701.61
1171.2513	6680.83
1171.4513	6658.25
1171.6512	6635.06
1171.8513	6612.42
1172.0513	6591.42
1172.2513	6572.56
1172.4513	6556.19
1172.6512	6542.63
1172.8513	6531.61
1173.0513	6521.47
1173.2513	6510.41
1173.4513	6496.65
1173.6512	6479.17
1173.8513	6457.71
1174.0513	6432.04
1174.2513	6402.28
1174.4513	6371.52
1174.6512	6344.15
1174.8513	6324.6
1175.0513	6315.37
1175.2513	6312.83
1175.4513	6312.1
1175.6512	6308.37
1175.8513	6299.4
1176.0513	6286.74
1176.2513	6272.23
1176.4513	6257.55
1176.6512	6242.49
1176.8513	6225.54
1177.0513	6205.17
1177.2513	6180.49
1177.4513	6153.86
1177.6512	6128.59
1177.8513	6107.98
1178.0513	6094.03
1178.2513	6085.95
1178.4513	6082.6
1178.6512	6082.77
1178.8513	6083.84
1179.0513	6081.83
1179.2513	6072.68
1179.4513	6053.1
1179.6512	6025.47
1179.8513	5994.64
1180.0513	5965.5
1180.2513	5941.85
1180.4513	5924.25
1180.6512	5912.59
1180.8513	5906.75
1181.0513	5904.83
1181.2513	5902.47
1181.4513	5895.16
1181.6512	5878.88
1181.8513	5855.08
1182.0513	5828.68
1182.2513	5804.64
1182.4513	5786.56
1182.6512	5772.12
1182.8513	5757.36
1183.0513	5738.38
1183.2513	5713.96
1183.4513	5688.02
1183.6512	5665.05
1183.8513	5649.29
1184.0513	5641.24
1184.2513	5638.14
1184.4513	5637.14
1184.6512	5635.58
1184.8513	5632.1
1185.0513	5625.84
1185.2513	5615.91
1185.4513	5601.8
1185.6512	5583.77
1185.8513	5562.26
1186.0513	5537.71
1186.2513	5511.61
1186.4513	5486.63
1186.6512	5465.47
1186.8513	5450.57
1187.0513	5441.55
1187.2513	5436.61
1187.4513	5433.91
1187.6512	5431.62
1187.8513	5427.95
1188.0513	5421.11
1188.2513	5409.32
1188.4513	5392.17
1188.6512	5371.25
1188.8513	5348.35
1189.0513	5325.24
1189.2513	5303.69
1189.4513	5285.44
1189.6512	5272.24
1189.8513	5265.13
1190.0513	5261.75
1190.2513	5258.74
1190.4513	5252.76
1190.6512	5241.93
1190.8513	5227.29
1191.0513	5210.2
1191.2513	5192.03
1191.4513	5173.61
1191.6512	5155.34
1191.8513	5137.62
1192.0513	5120.81
1192.2513	5105.38
1192.4513	5091.77
1192.6512	5080.45
1192.8513	5071.39
1193.0513	5063.36
1193.2513	5054.93
1193.4513	5044.71
1193.6512	5032.48
1193.8513	5019.37
1194.0513	5006.55
1194.2513	4994.98
1194.4513	4983.71
1194.6512	4970.83
1194.8513	4954.42
1195.0513	4933.79
1195.2513	4912.26
1195.4513	4893.97
1195.6512	4882.96
1195.8513	4879.7
1196.0513	4879.61
1196.2513	4877.76
1196.4513	4869.65
1196.6512	4855.59
1196.8513	4838.86
1197.0513	4822.83
1197.2513	4809.87
1197.4513	4798.5
1197.6512	4786.2
1197.8513	4770.51
1198.0513	4751.02
1198.2513	4730.94
1198.4513	4713.81
1198.6512	4702.91
1198.8513	4697.71
1199.0513	4694.84
1199.2513	4690.82
1199.4513	4682.7
1199.6512	4670.01
1199.8513	4653.08
1200.0513	4632.26
1200.2513	4608.68
1200.4513	4585.19
1200.6512	4564.82
1200.8513	4550.44
1201.0513	4542.2
1201.2513	4537.7
1201.4513	4534.51
1201.6512	4530.44
1201.8513	4525.06
1202.0513	4518.64
1202.2513	4511.42
1202.4513	4503.22
1202.6512	4492.76
1202.8513	4478.62
1203.0513	4459.45
1203.2513	4436.55
1203.4513	4413.94
1203.6512	4395.79
1203.8513	4385.56
1204.0513	4381.4
1204.2513	4379.04
1204.4513	4374.22
1204.6512	4364.19
1204.8513	4350.67
1205.0513	4336.15
1205.2513	4323.06
1205.4513	4312.14
1205.6512	4302.06
1205.8513	4291.35
1206.0513	4278.78
1206.2513	4265.11
1206.4513	4252.18
1206.6512	4241.8
1206.8513	4235.01
1207.0513	4230.14
1207.2513	4224.98
1207.4513	4217.36
1207.6512	4206.74
1207.8513	4194.87
1208.0513	4183.64
1208.2513	4174.65
1208.4513	4166.59
1208.6512	4156.39
1208.8513	4140.97
1209.0513	4118.66
1209.2513	4093.24
1209.4513	4069.71
1209.6512	4053.05
1209.8513	4045.05
1210.0513	4042.61
1210.2513	4042.26
1210.4513	4040.72
1210.6512	4037.21
1210.8513	4032.59
1211.0513	4027.74
1211.2513	4023.08
1211.4513	4016.97
1211.6512	4007.28
1211.8513	3991.89
1212.0513	3970.86
1212.2513	3947.89
1212.4513	3927.03
1212.6512	3912.07
1212.8513	3903.47
1213.0513	3899.34
1213.2513	3897.71
1213.4513	3896.77
1213.6512	3895.24
1213.8513	3892
1214.0513	3885.96
1214.2513	3876.43
1214.4513	3863.47
1214.6512	3847.25
1214.8513	3828.02
1215.0513	3807.76
1215.2513	3789.74
1215.4513	3777.23
1215.6512	3772.51
1215.8513	3772.82
1216.0513	3773.9
1216.2513	3771.47
1216.4513	3763.34
1216.6512	3751.2
1216.8513	3737.16
1217.0513	3723.25
1217.2513	3709.83
1217.4513	3695.96
1217.6512	3680.68
1217.8513	3663.49
1218.0513	3646.35
1218.2513	3631.99
1218.4513	3623.13
1218.6512	3620.55
1218.8513	3621.22
1219.0513	3621.7
1219.2513	3618.66
1219.4513	3611.19
1219.6512	3600.35
1219.8513	3587.27
1220.0513	3573.07
1220.2513	3559.02
1220.4513	3546.44
1220.6512	3536.62
1220.8513	3529.87
1221.0513	3524.54
1221.2513	3518.75
1221.4513	3510.69
1221.6512	3500.31
1221.8513	3488.94
1222.0513	3477.96
1222.2513	3468.47
1222.4513	3460.12
1222.6512	3452.08
1222.8513	3443.51
1223.0513	3433.77
1223.2513	3422.58
1223.4513	3409.7
1223.6512	3394.97
1223.8513	3379.52
1224.0513	3365.47
1224.2513	3355.02
1224.4513	3349.73
1224.6512	3348.09
1224.8513	3347.55
1225.0513	3345.58
1225.2513	3340.83
1225.4513	3334.21
1225.6512	3326.93
1225.8513	3320.09
1226.0513	3313.39
1226.2513	3305.39
1226.4513	3294.65
1226.6512	3280.23
1226.8513	3263.89
1227.0513	3248.25
1227.2513	3235.89
1227.4513	3227.89
1227.6512	3222.49
1227.8513	3217.61
1228.0513	3211.27
1228.2513	3203.37
1228.4513	3195.18
1228.6512	3188.03
1228.8513	3182.82
1229.0513	3178.46
1229.2513	3173.24
1229.4513	3165.47
1229.6512	3154.75
1229.8513	3142.98
1230.0513	3132.3
1230.2513	3124.71
1230.4513	3120.27
1230.6512	3117.62
1230.8513	3115.42
1231.0513	3112.36
1231.2513	3107.57
1231.4513	3100.27
1231.6512	3089.68
1231.8513	3075.89
1232.0513	3060.39
1232.2513	3044.81
1232.4513	3030.71
1232.6512	3019.11
1232.8513	3010.67
1233.0513	3006.01
1233.2513	3005.32
1233.4513	3006.99
1233.6512	3008.92
1233.8513	3009.05
1234.0513	3006.19
1234.2513	3000.46
1234.4513	2992.1
1234.6512	2981.4
1234.8513	2969
1235.0513	2955.76
1235.2513	2942.55
1235.4513	2930.26
1235.6512	2919.88
1235.8513	2912.41
1236.0513	2908.79
1236.2513	2908.56
1236.4513	2909.32
1236.6512	2908.49
1236.8513	2903.81
1237.0513	2895.6
1237.2513	2885.61
1237.4513	2875.58
1237.6512	2866.74
1237.8513	2858.67
1238.0513	2850.58
1238.2513	2841.74
1238.4513	2832.32
1238.6512	2823.56
1238.8513	2816.77
1239.0513	2812.99
1239.2513	2811.18
1239.4513	2809.29
1239.6512	2805.28
1239.8513	2798.01
1240.0513	2788.75
1240.2513	2779.18
1240.4513	2770.94
1240.6512	2764.41
1240.8513	2758.67
1241.0513	2752.73
1241.2513	2745.84
1241.4513	2738.66
1241.6512	2732.45
1241.8513	2728.48
1242.0513	2727.36
1242.2513	2728.25
1242.4513	2730.11
1242.6512	2731.88
1242.8513	2732.27
1243.0513	2729.81
1243.2513	2723
1243.4513	2710.92
1243.6512	2695.7
1243.8513	2680.48
1244.0513	2668.4
1244.2513	2661.11
1244.4513	2657.35
1244.6512	2655.53
1244.8513	2654.11
1245.0513	2652.25
1245.2513	2649.59
1245.4513	2645.81
1245.6512	2640.68
1245.8513	2634.37
1246.0513	2627.19
1246.2513	2619.44
1246.4513	2611.47
1246.6512	2603.67
1246.8513	2596.44
1247.0513	2590.13
1247.2513	2584.43
1247.4513	2578.63
1247.6512	2572.02
1247.8513	2564.3
1248.0513	2556.55
1248.2513	2550.2
1248.4513	2546.64
1248.6512	2545.8
1248.8513	2545.81
1249.0513	2544.66
1249.2513	2540.61
1249.4513	2534.11
1249.6512	2526.7
1249.8513	2519.9
1250.0513	2514.71
1250.2513	2510.55
1250.4513	2506.57
1250.6512	2501.98
1250.8513	2496.9
1251.0513	2492.47
1251.2513	2489.83
1251.4513	2489.79
1251.6512	2490.78
1251.8513	2490.32
1252.0513	2485.95
1252.2513	2476.76
1252.4513	2465.13
1252.6512	2453.92
1252.8513	2445.81
1253.0513	2441.3
1253.2513	2439.07
1253.4513	2437.74
1253.6512	2436.15
1253.8513	2434.08
1254.0513	2431.59
1254.2513	2428.75
1254.4513	2425.63
1254.6512	2422.3
1254.8513	2418.81
1255.0513	2415.21
1255.2513	2411.04
1255.4513	2405.54
1255.6512	2397.95
1255.8513	2388.18
1256.0513	2378.47
1256.2513	2371.6
1256.4513	2370.26
1256.6512	2374.37
1256.8513	2380.42
1257.0513	2384.68
1257.2513	2383.86
1257.4513	2378.39
1257.6512	2370.43
1257.8513	2362.15
1258.0513	2355.07
1258.2513	2348.96
1258.4513	2343.33
1258.6512	2337.73
1258.8513	2332.13
1259.0513	2326.98
1259.2513	2322.72
1259.4513	2319.67
1259.6512	2317.44
1259.8513	2315.41
1260.0513	2312.94
1260.2513	2309.62
1260.4513	2305.43
1260.6512	2300.38
1260.8513	2294.55
1261.0513	2288.73
1261.2513	2284.22
1261.4513	2282.33
1261.6512	2283.73
1261.8513	2286.52
1262.0513	2288.24
1262.2513	2286.41
1262.4513	2280.56
1262.6512	2272.8
1262.8513	2265.45
1263.0513	2260.59
1263.2513	2258.1
1263.4513	2256.78
1263.6512	2255.44
1263.8513	2253.25
1264.0513	2250.39
1264.2513	2247.22
1264.4513	2244.09
1264.6512	2241.05
1264.8513	2237.9
1265.0513	2234.42
1265.2513	2230.52
1265.4513	2226.8
1265.6512	2224.13
1265.8513	2223.36
1266.0513	2224.57
1266.2513	2226.44
1266.4513	2227.46
1266.6512	2226.24
1266.8513	2222.67
1267.0513	2217.5
1267.2513	2211.53
1267.4513	2205.57
1267.6512	2200.62
1267.8513	2197.69
1268.0513	2197.78
1268.2513	2200.62
1268.4513	2204.3
1268.6512	2206.81
1268.8513	2206.41
1269.0513	2203.47
1269.2513	2199.35
1269.4513	2195.42
1269.6512	2192.36
1269.8513	2189.15
1270.0513	2184.55
1270.2513	2177.41
1270.4513	2168.79
1270.6512	2161.71
1270.8513	2159.25
1271.0513	2163.46
1271.2513	2171.27
1271.4513	2178.03
1271.6512	2179.16
1271.8513	2173.27
1272.0513	2164.24
1272.2513	2156.45
1272.4513	2153.83
1272.6512	2155.79
1272.8513	2159.04
1273.0513	2160.28
1273.2513	2157.4
1273.4513	2152.07
1273.6512	2146.71
1273.8513	2143.65
1274.0513	2143.54
1274.2513	2145.13
1274.4513	2147.1
1274.6512	2148.23
1274.8513	2148.1
1275.0513	2146.54
1275.2513	2143.43
1275.4513	2138.99
1275.6512	2134.2
1275.8513	2130.12
1276.0513	2127.73
1276.2513	2127.05
1276.4513	2127.38
1276.6512	2128.01
1276.8513	2128.36
1277.0513	2128.3
1277.2513	2127.82
1277.4513	2126.91
1277.6512	2125.5
1277.8513	2123.46
1278.0513	2120.67
1278.2513	2117.06
1278.4513	2113.17
1278.6512	2109.8
1278.8513	2107.75
1279.0513	2107.37
1279.2513	2107.99
1279.4513	2108.8
1279.6512	2109.03
1279.8513	2108.65
1280.0513	2108.22
1280.2513	2108.32
1280.4513	2109.3
1280.6512	2110.52
1280.8513	2111.07
1281.0513	2110.07
1281.2513	2107.17
1281.4513	2102.85
1281.6512	2097.65
1281.8513	2092.1
1282.0513	2086.79
1282.2513	2082.33
1282.4513	2079.32
1282.6512	2078.17
1282.8513	2078.76
1283.0513	2080.91
1283.2513	2084.4
1283.4513	2088.59
1283.6512	2092.44
1283.8513	2094.93
1284.0513	2095.19
1284.2513	2093.26
1284.4513	2089.43
1284.6512	2083.97
1284.8513	2077.75
1285.0513	2072.49
1285.2513	2069.98
1285.4513	2071.72
1285.6512	2076.68
1285.8513	2082.48
1286.0513	2086.74
1286.2513	2088.02
1286.4513	2087.37
1286.6512	2086.26
1286.8513	2086.08
1287.0513	2086.55
1287.2513	2085.92
1287.4513	2082.36
1287.6512	2074.76
1287.8513	2065.33
1288.0513	2057.3
1288.2513	2053.86
1288.4513	2055.85
1288.6512	2060.48
1288.8513	2064.69
1289.0513	2065.72
1289.2513	2063.88
1289.4513	2061.07
1289.6512	2059.2
1289.8513	2059.44
1290.0513	2060.94
1290.2513	2062.55
1290.4513	2063.13
1290.6512	2062.2
1290.8513	2059.86
1291.0513	2056.23
1291.2513	2051.59
1291.4513	2047.05
1291.6512	2043.95
1291.8513	2043.59
1292.0513	2046.04
1292.2513	2049.44
1292.4513	2051.8
1292.6512	2051.4
1292.8513	2048.6
1293.0513	2044.84
1293.2513	2041.56
1293.4513	2039.84
1293.6512	2039.75
1293.8513	2041.23
1294.0513	2044.17
1294.2513	2047.89
1294.4513	2051.22
1294.6512	2052.99
1294.8513	2052.28
1295.0513	2049.48
1295.2513	2045.3
1295.4513	2040.44
1295.6512	2035.48
1295.8513	2030.79
1296.0513	2026.73
1296.2513	2023.65
1296.4513	2021.71
1296.6512	2020.98
1296.8513	2021.55
1297.0513	2023.36
1297.2513	2026.02
1297.4513	2029.11
1297.6512	2032.2
1297.8513	2034.93
1298.0513	2036.97
1298.2513	2038.01
1298.4513	2037.73
1298.6512	2035.89
1298.8513	2032.27
1299.0513	2026.67
1299.2513	2019.68
1299.4513	2012.87
1299.6512	2007.85
1299.8513	2005.98
1300.0513	2006.89
1300.2513	2009.53
1300.4513	2012.87
1300.6512	2016.1
1300.8513	2018.93
1301.0513	2021.13
1301.2513	2022.43
1301.4513	2022.55
1301.6512	2021.18
1301.8513	2017.98
1302.0513	2013.11
1302.2513	2008.1
1302.4513	2004.79
1302.6512	2004.9
1302.8513	2008.15
1303.0513	2012.19
1303.2513	2014.61
1303.4513	2013.58
1303.6512	2010.32
1303.8513	2007.07
1304.0513	2006.02
1304.2513	2007.72
1304.4513	2010.19
1304.6512	2011.23
1304.8513	2008.92
1305.0513	2004.06
1305.2513	1998.79
1305.4513	1995.3
1305.6512	1994.88
1305.8513	1996.73
1306.0513	1999.7
1306.2513	2002.7
1306.4513	2005.06
1306.6512	2006.48
1306.8513	2006.66
1307.0513	2005.44
1307.2513	2003.18
1307.4513	2000.35
1307.6512	1997.45
1307.8513	1994.74
1308.0513	1992.25
1308.2513	1989.99
1308.4513	1988.06
1308.6512	1987.15
1308.8513	1988.17
1309.0513	1992.02
1309.2513	1998.46
1309.4513	2005.09
1309.6512	2009.27
1309.8513	2008.67
1310.0513	2003.82
1310.2513	1997.06
1310.4513	1990.72
1310.6512	1986.53
1310.8513	1984.43
1311.0513	1984.04
1311.2513	1984.98
1311.4513	1986.87
1311.6512	1989.31
1311.8513	1991.9
1312.0513	1994.28
1312.2513	1996.13
1312.4513	1997.19
1312.6512	1997.19
1312.8513	1995.97
1313.0513	1993.59
1313.2513	1990.11
1313.4513	1985.64
1313.6512	1980.82
1313.8513	1976.47
1314.0513	1973.44
1314.2513	1972.17
1314.4513	1972.33
1314.6512	1973.47
1314.8513	1975.18
1315.0513	1977.04
1315.2513	1978.69
1315.4513	1979.73
1315.6512	1979.9
1315.8513	1979.3
1316.0513	1978.08
1316.2513	1976.43
1316.4513	1975
1316.6512	1974.87
1316.8513	1977.15
1317.0513	1982.42
1317.2513	1988.81
1317.4513	1993.77
1317.6512	1994.77
1317.8513	1991.22
1318.0513	1985.13
1318.2513	1978.72
1318.4513	1973.98
1318.6512	1971.34
1318.8513	1970.54
1319.0513	1971.32
1319.2513	1973.12
1319.4513	1974.78
1319.6512	1975.07
1319.8513	1972.95
1320.0513	1969.48
1320.2513	1967.04
1320.4513	1968.01
1320.6512	1973.51
1320.8513	1980.91
1321.0513	1986.93
1321.2513	1988.47
1321.4513	1985.48
1321.6512	1980.63
1321.8513	1976.72
1322.0513	1975.75
1322.2513	1976.54
1322.4513	1977.02
1322.6512	1975.18
1322.8513	1970.73
1323.0513	1965.48
1323.2513	1961.39
1323.4513	1960.07
1323.6512	1960.94
1323.8513	1962.54
1324.0513	1963.44
1324.2513	1962.89
1324.4513	1961.38
1324.6512	1959.5
1324.8513	1957.82
1325.0513	1956.48
1325.2513	1955.41
1325.4513	1954.53
1325.6512	1953.89
1325.8513	1953.8
1326.0513	1954.65
1326.2513	1956.77
1326.4513	1959.85
1326.6512	1963.11
1326.8513	1965.76
1327.0513	1967.18
1327.2513	1967.43
1327.4513	1966.7
1327.6512	1965.18
1327.8513	1963.06
1328.0513	1960.56
1328.2513	1957.87
1328.4513	1955.28
1328.6512	1953.39
1328.8513	1952.92
1329.0513	1954.54
1329.2513	1958.06
1329.4513	1961.99
1329.6512	1964.74
1329.8513	1964.97
1330.0513	1963.02
1330.2513	1959.99
1330.4513	1956.97
1330.6512	1954.72
1330.8513	1953.36
1331.0513	1952.93
1331.2513	1953.47
1331.4513	1954.66
1331.6512	1956.04
1331.8513	1957.11
1332.0513	1957.62
1332.2513	1957.89
1332.4513	1958.33
1332.6512	1959.33
1332.8513	1960.68
1333.0513	1961.69
1333.2513	1961.64
1333.4513	1960
1333.6512	1956.81
1333.8513	1952.22
1334.0513	1946.45
1334.2513	1940.47
1334.4513	1936.11
1334.6512	1935.21
1334.8513	1939.03
1335.0513	1945.74
1335.2513	1952.57
1335.4513	1956.78
1335.6512	1957.39
1335.8513	1955.89
1336.0513	1953.94
1336.2513	1952.92
1336.4513	1952.46
1336.6512	1951.42
1336.8513	1948.69
1337.0513	1944.29
1337.2513	1940.34
1337.4513	1939.18
1337.6512	1942.78
1337.8513	1949.62
1338.0513	1956.21
1338.2513	1959.08
1338.4513	1956.52
1338.6512	1951.06
1338.8513	1945.89
1339.0513	1943.94
1339.2513	1945.31
1339.4513	1948.04
1339.6512	1950.09
1339.8513	1950.05
1340.0513	1948.31
1340.2513	1945.67
1340.4513	1942.86
1340.6512	1940.42
1340.8513	1938.6
1341.0513	1937.67
1341.2513	1937.86
1341.4513	1939.21
1341.6512	1941.74
1341.8513	1945.43
1342.0513	1949.77
1342.2513	1953.64
1342.4513	1955.9
1342.6512	1955.71
1342.8513	1953.75
1343.0513	1951.29
1343.2513	1949.53
1343.4513	1949.04
1343.6512	1949.34
1343.8513	1949.91
1344.0513	1950.23
1344.2513	1950
1344.4513	1949
1344.6512	1947.03
1344.8513	1944.19
1345.0513	1941.18
1345.2513	1938.78
1345.4513	1937.67
1345.6512	1937.69
1345.8513	1938.25
1346.0513	1938.72
1346.2513	1938.86
1346.4513	1939.24
1346.6512	1940.53
1346.8513	1943.32
1347.0513	1946.94
1347.2513	1949.87
1347.4513	1950.59
1347.6512	1948.26
1347.8513	1944.08
1348.0513	1939.62
1348.2513	1936.4
1348.4513	1935.05
1348.6512	1935.44
1348.8513	1937.41
1349.0513	1940.53
1349.2513	1943.25
1349.4513	1943.8
1349.6512	1940.48
1349.8513	1934.23
1350.0513	1928.59
1350.2513	1927.24
1350.4513	1932.6
1350.6512	1941.39
1350.8513	1948.7
1351.0513	1949.74
1351.2513	1943.62
1351.4513	1934.3
1351.6512	1926.03
1351.8513	1922.34
1352.0513	1922.71
1352.2513	1925.19
1352.4513	1927.83
1352.6512	1929.61
1352.8513	1930.87
1353.0513	1932.08
1353.2513	1933.62
1353.4513	1935.42
1353.6512	1937.21
1353.8513	1938.72
1354.0513	1939.59
1354.2513	1939.33
1354.4513	1937.45
1354.6512	1933.59
1354.8513	1928.82
1355.0513	1924.93
1355.2513	1923.72
1355.4513	1926.02
1355.6512	1930.68
1355.8513	1936.29
1356.0513	1941.46
1356.2513	1945.23
1356.4513	1946.84
1356.6512	1945.58
1356.8513	1941.32
1357.0513	1935.56
1357.2513	1930
1357.4513	1926.28
1357.6512	1924.99
1357.8513	1925.98
1358.0513	1929.07
1358.2513	1933.81
1358.4513	1938.92
1358.6512	1942.96
1358.8513	1944.56
1359.0513	1943.71
1359.2513	1941.45
1359.4513	1938.89
1359.6512	1936.85
1359.8513	1935.24
1360.0513	1933.75
1360.2513	1932.12
1360.4513	1930.5
1360.6512	1929.48
1360.8513	1929.66
1361.0513	1931.43
1361.2513	1934.37
1361.4513	1937.83
1361.6512	1941.19
1361.8513	1943.79
1362.0513	1944.98
1362.2513	1944.12
1362.4513	1940.87
1362.6512	1936.38
1362.8513	1932.26
1363.0513	1930.06
1363.2513	1930.08
1363.4513	1931.07
1363.6512	1931.68
1363.8513	1930.85
1364.0513	1929.14
1364.2513	1927.66
1364.4513	1927.48
1364.6512	1928.92
1364.8513	1931.18
1365.0513	1933.4
1365.2513	1934.82
1365.4513	1935.47
1365.6512	1935.65
1365.8513	1935.67
1366.0513	1935.63
1366.2513	1935.33
1366.4513	1934.55
1366.6512	1933.11
1366.8513	1931.23
1367.0513	1929.25
1367.2513	1927.55
1367.4513	1926.54
1367.6512	1926.73
1367.8513	1928.62
1368.0513	1932.58
1368.2513	1937.78
1368.4513	1942.83
1368.6512	1946.35
1368.8513	1947.47
1369.0513	1946.32
1369.2513	1943.13
1369.4513	1938.24
1369.6512	1932.8
1369.8513	1928.38
1370.0513	1926.56
1370.2513	1927.94
1370.4513	1931.01
1370.6512	1934.04
1370.8513	1935.42
1371.0513	1934.94
1371.2513	1933.21
1371.4513	1930.86
1371.6512	1928.4
1371.8513	1926.16
1372.0513	1924.41
1372.2513	1923.42
1372.4513	1923.26
1372.6512	1923.9
1372.8513	1925.28
1373.0513	1927.32
1373.2513	1929.84
1373.4513	1932.65
1373.6512	1935.54
1373.8513	1937.84
1374.0513	1938.61
1374.2513	1936.91
1374.4513	1932.55
1374.6512	1927.27
1374.8513	1923.15
1375.0513	1922.1
1375.2513	1923.83
1375.4513	1926.45
1375.6512	1928.08
1375.8513	1927.64
1376.0513	1926.49
1376.2513	1926.38
1376.4513	1928.91
1376.6512	1933.55
1376.8513	1938.12
1377.0513	1940.39
1377.2513	1938.93
1377.4513	1934.52
1377.6512	1928.39

##### Extended Information
[Comments]
Sample name	
Comment	
User
Division
Company	User

[Detailed Information]
Creation date	1/10/2014 6:38 PM

Data array type	Linear data array
Horizontal axis	Raman Shift [cm-1]
Vertical axis	Int.
Start	580.251 cm-1
End	1377.65 cm-1
Data interval	0.2 cm-1
Data points	3988    

[Measurement Information]
Model Name	NRS-3100
Serial Number	B008561032

Exposure	300 sec
Accumulation	3
Center wavenumber	999.96 cm-1
Binning Upper	102
Binning Lower	149
Valid Channel	1 - 1024

Laser wavelength	490.20 nm
Monochromator	Single
Grating	2400 l/mm
Slit	0.1 x 6 mm
Resolution	2.99 cm-1
Objective lens	SLMPL 50 x
BS/DM	BS 30/70
1/2 plate	Not fitted
Analyser	Not fitted
Laser power	45.5 mW
Attenuator	Open
CCD temperature	-69.0 C
Shift	9.00 cm-1

