#Wave		#Intensity
4002.533203	11487.369141
4001.835938	11422.873047
4001.137695	11775.705078
4000.439453	11480.093750
3999.742188	11313.505859
3999.043945	11472.822266
3998.345703	11578.384766
3997.646484	11587.261719
3996.948242	11384.972656
3996.250000	11379.563477
3995.550781	11574.519531
3994.852539	11601.277344
3994.153320	11556.491211
3993.454102	11579.666992
3992.754883	11427.630859
3992.055664	11211.291992
3991.356445	11620.552734
3990.657227	11429.269531
3989.957031	11380.979492
3989.257813	11657.823242
3988.557617	11648.804688
3987.857422	11418.351563
3987.157227	11427.229492
3986.457031	11578.921875
3985.756836	11609.189453
3985.056641	11553.784180
3984.356445	11701.813477
3983.655273	11528.662109
3982.955078	11512.539063
3982.253906	11628.399414
3981.552734	11633.664063
3980.851563	11457.067383
3980.150391	11590.707031
3979.449219	11624.491211
3978.748047	11508.571289
3978.045898	11574.429688
3977.344727	11451.427734
3976.642578	11506.586914
3975.940430	11380.073242
3975.239258	11399.612305
3974.537109	11419.144531
3973.834961	11623.796875
3973.131836	11817.704102
3972.429688	11523.968750
3971.727539	11646.662109
3971.024414	11605.654297
3970.321289	11283.635742
3969.619141	11292.493164
3968.916016	11614.285156
3968.212891	11580.418945
3967.509766	11340.375000
3966.805664	11402.532227
3966.102539	11578.392578
3965.399414	11590.745117
3964.695313	11517.829102
3963.991211	11636.750977
3963.288086	11418.236328
3962.583984	11597.501953
3961.879883	11602.740234
3961.174805	11661.223633
3960.470703	11488.985352
3959.766602	11551.015625
3959.061523	11573.997070
3958.357422	11529.567383
3957.652344	11793.739258
3956.947266	11557.781250
3956.242188	11485.006836
3955.537109	11770.330078
3954.832031	11378.520508
3954.125977	11727.563477
3953.420898	11569.761719
3952.714844	11720.252930
3952.009766	11764.421875
3951.303711	11557.103516
3950.597656	11509.210938
3949.891602	11500.280273
3949.185547	11601.097656
3948.479492	11524.903320
3947.772461	11477.044922
3947.066406	11645.046875
3946.359375	11621.949219
3945.653320	11683.753906
3944.946289	11678.340820
3944.239258	11743.652344
3943.532227	11791.264648
3942.825195	11382.840820
3942.117188	11540.064453
3941.410156	11573.549805
3940.702148	11451.557617
3939.995117	11407.325195
3939.287109	11543.249023
3938.579102	11474.293945
3937.871094	11521.886719
3937.163086	11597.707031
3936.455078	11571.135742
3935.746094	11791.626953
3935.038086	11525.073242
3934.329102	11547.919922
3933.621094	11383.792969
3932.912109	11554.792969
3932.203125	11517.671875
3931.494141	11572.238281
3930.785156	11591.532227
3930.075195	11367.605469
3929.366211	11587.809570
3928.657227	11663.470703
3927.947266	11566.472656
3927.237305	11670.292969
3926.527344	11788.166992
3925.817383	11472.866211
3925.107422	11492.148438
3924.397461	11448.059570
3923.687500	11358.227539
3922.976563	11476.056641
3922.266602	11467.176758
3921.555664	11468.853516
3920.844727	11618.263672
3920.133789	11939.955078
3919.422852	11463.330078
3918.711914	11415.784180
3918.000977	11765.474609
3917.290039	11833.878906
3916.578125	11501.653320
3915.866211	11650.888672
3915.155273	11420.674805
3914.443359	11566.362305
3913.731445	11220.344727
3913.019531	11299.302734
3912.307617	11466.002930
3911.594727	11660.731445
3910.882813	11486.888672
3910.169922	11555.225586
3909.458008	11416.540039
3908.745117	11474.341797
3908.032227	11384.816406
3907.319336	11526.766602
3906.606445	11447.779297
3905.893555	11368.817383
3905.179688	11261.839844
3904.466797	11277.554688
3903.752930	11139.089844
3903.039063	11410.566406
3902.326172	11468.283203
3901.612305	11568.008789
3900.898438	11657.196289
3900.183594	11746.354492
3899.469727	11485.425781
3898.755859	11427.582031
3898.041016	11492.237305
3897.326172	11882.269531
3896.612305	11373.102539
3895.897461	11612.624023
3895.182617	11407.921875
3894.467773	11503.997070
3893.751953	11442.716797
3893.037109	11329.023438
3892.322266	11687.187500
3891.606445	11486.129883
3890.890625	11610.064453
3890.174805	11510.389648
3889.458984	11539.976563
3888.743164	11461.296875
3888.027344	11616.579102
3887.311523	11695.008789
3886.594727	11724.546875
3885.878906	11862.261719
3885.162109	11724.272461
3884.445313	11638.660156
3883.729492	11654.233398
3883.012695	11694.214844
3882.294922	11636.543945
3881.578125	11788.085938
3880.861328	11538.687500
3880.143555	11488.039063
3879.426758	11649.985352
3878.708984	11561.007813
3877.991211	11900.562500
3877.273438	11452.800781
3876.555664	11600.717773
3875.837891	11501.357422
3875.120117	11715.366211
3874.401367	11515.071289
3873.683594	11474.938477
3872.964844	11567.053711
3872.246094	11488.652344
3871.527344	11806.853516
3870.808594	11648.440430
3870.089844	11535.287109
3869.371094	11922.868164
3868.652344	11562.874023
3867.932617	11700.056641
3867.213867	11406.246094
3866.494141	11845.720703
3865.774414	11784.756836
3865.054688	11772.445313
3864.334961	11593.424805
3863.615234	11768.666992
3862.894531	11548.040039
3862.174805	11514.943359
3861.454102	11575.573242
3860.734375	11809.701172
3860.013672	11814.746094
3859.292969	11701.833984
3858.572266	11682.613281
3857.851563	11757.038086
3857.130859	11574.836914
3856.409180	11763.666992
3855.688477	11706.315430
3854.966797	11697.505859
3854.245117	11848.105469
3853.523438	11569.019531
3852.802734	11691.875977
3852.080078	11658.827148
3851.358398	11847.429688
3850.636719	11821.291016
3849.914063	11798.622070
3849.192383	11827.882813
3848.469727	11780.993164
3847.747070	11578.401367
3847.024414	11694.177734
3846.301758	11764.946289
3845.579102	11666.215820
3844.856445	11667.801758
3844.133789	11811.149414
3843.410156	12013.219727
3842.686523	12038.944336
3841.963867	11798.553711
3841.240234	11654.991211
3840.516602	11742.946289
3839.792969	11744.517578
3839.068359	11770.262695
3838.344727	11751.109375
3837.621094	11801.012695
3836.896484	12199.558594
3836.171875	11973.253906
3835.448242	11798.786133
3834.723633	11707.182617
3833.999023	11877.796875
3833.273438	11793.109375
3832.548828	12060.218750
3831.824219	11854.841797
3831.098633	11894.311523
3830.373047	11616.637695
3829.648438	11993.891602
3828.922852	11519.870117
3828.197266	11962.480469
3827.471680	11974.341797
3826.745117	11710.653320
3826.019531	11691.556641
3825.292969	11920.375977
3824.567383	11577.641602
3823.840820	11603.321289
3823.114258	11845.809570
3822.387695	11802.618164
3821.661133	11862.653320
3820.934570	11754.113281
3820.208008	11824.455078
3819.480469	11698.761719
3818.753906	11662.502930
3818.026367	11753.450195
3817.298828	11844.367188
3816.571289	11488.500000
3815.843750	11325.164063
3815.116211	11302.734375
3814.388672	11469.233398
3813.660156	11920.732422
3812.932617	11747.128906
3812.204102	11601.046875
3811.475586	11750.226563
3810.748047	12016.051758
3810.019531	12045.009766
3809.290039	11806.333984
3808.561523	11763.274414
3807.833008	11950.036133
3807.103516	11985.843750
3806.375000	12031.925781
3805.645508	12201.412109
3804.916016	11798.405273
3804.186523	11779.377930
3803.457031	11904.275391
3802.727539	11868.105469
3801.998047	11941.564453
3801.267578	12155.426758
3800.538086	12112.383789
3799.807617	11980.332031
3799.077148	12077.688477
3798.346680	12192.127930
3797.616211	12060.125977
3796.885742	11846.044922
3796.155273	12193.106445
3795.423828	11849.086914
3794.693359	11980.570313
3793.961914	11879.482422
3793.230469	11829.711914
3792.500000	11810.722656
3791.768555	11972.887695
3791.036133	12039.315430
3790.304688	12143.305664
3789.573242	11922.717773
3788.840820	11688.538086
3788.109375	11956.461914
3787.376953	12005.763672
3786.644531	12031.151367
3785.912109	12073.597656
3785.179688	11918.078125
3784.447266	11585.162109
3783.714844	11665.189453
3782.981445	11704.254883
3782.249023	11637.574219
3781.515625	11980.140625
3780.782227	11927.075195
3780.048828	12030.845703
3779.315430	12325.463867
3778.582031	12071.292969
3777.848633	12243.139648
3777.114258	12087.864258
3776.380859	12188.118164
3775.646484	11975.000000
3774.912109	12041.186523
3774.177734	12195.875000
3773.443359	12214.345703
3772.708984	11929.881836
3771.974609	11842.890625
3771.240234	12034.939453
3770.504883	12281.358398
3769.770508	12146.731445
3769.035156	12100.571289
3768.299805	12261.850586
3767.564453	12263.285156
3766.829102	12145.742188
3766.093750	12398.702148
3765.357422	12240.396484
3764.622070	12109.322266
3763.885742	12243.266602
3763.150391	12125.819336
3762.414063	12266.508789
3761.677734	12257.751953
3760.941406	12167.517578
3760.205078	12314.920898
3759.467773	12319.734375
3758.731445	12456.885742
3757.994141	12207.215820
3757.257813	12320.594727
3756.520508	12372.886719
3755.783203	12272.559570
3755.045898	12511.325195
3754.308594	12302.525391
3753.571289	12368.343750
3752.833008	12454.474609
3752.095703	12516.857422
3751.357422	12508.075195
3750.619141	12644.951172
3749.880859	12161.999023
3749.142578	12254.864258
3748.404297	12378.170898
3747.666016	12514.978516
3746.927734	12353.894531
3746.188477	12362.066406
3745.450195	12620.618164
3744.710938	12331.040039
3743.971680	12562.452148
3743.232422	12316.940430
3742.493164	12568.569336
3741.753906	12485.415039
3741.013672	12706.512695
3740.274414	12545.626953
3739.534180	12425.343750
3738.794922	12521.333984
3738.054688	12232.185547
3737.314453	12561.228516
3736.574219	12508.558594
3735.833984	12699.014648
3735.092773	12798.257813
3734.352539	12553.175781
3733.611328	12669.284180
3732.871094	12744.863281
3732.129883	12769.810547
3731.388672	12764.390625
3730.647461	12556.609375
3729.906250	12767.042969
3729.165039	12360.400391
3728.422852	12813.516602
3727.681641	12764.275391
3726.939453	13075.640625
3726.197266	13002.785156
3725.455078	12869.312500
3724.712891	12762.830078
3723.970703	13030.211914
3723.228516	13179.652344
3722.486328	13022.668945
3721.743164	12855.635742
3721.000977	13136.292969
3720.257813	13117.362305
3719.514648	12990.768555
3718.771484	13022.327148
3718.028320	12936.151367
3717.285156	12853.366211
3716.541016	12989.166992
3715.797852	13205.609375
3715.053711	12978.280273
3714.310547	13150.963867
3713.566406	12836.348633
3712.822266	13173.626953
3712.078125	13221.903320
3711.333008	13055.208984
3710.588867	13355.349609
3709.844727	13504.301758
3709.099609	13374.568359
3708.354492	13409.346680
3707.610352	13611.913086
3706.865234	13405.047852
3706.120117	13745.101563
3705.374023	13612.077148
3704.628906	13821.187500
3703.883789	13855.859375
3703.137695	13783.230469
3702.391602	13734.089844
3701.646484	13778.812500
3700.900391	13795.864258
3700.154297	13812.916016
3699.408203	13829.968750
3698.661133	13847.020508
3697.915039	14236.634766
3697.167969	14010.005859
3696.421875	14007.760742
3695.674805	14002.167969
3694.927734	14210.776367
3694.180664	14382.507813
3693.433594	14403.623047
3692.686523	14344.445313
3691.938477	14325.422852
3691.191406	14326.470703
3690.443359	14785.597656
3689.695313	14545.867188
3688.947266	14974.727539
3688.199219	14862.041016
3687.451172	14665.851563
3686.703125	14556.590820
3685.955078	14818.151367
3685.206055	14932.672852
3684.458008	15087.229492
3683.708984	15124.877930
3682.959961	15079.055664
3682.210938	15076.639648
3681.461914	15144.304688
3680.712891	15101.836914
3679.962891	15349.627930
3679.213867	15553.976563
3678.463867	15454.766602
3677.714844	15348.918945
3676.964844	15459.815430
3676.214844	15777.351563
3675.464844	15694.832031
3674.713867	15778.959961
3673.963867	15909.706055
3673.213867	15650.642578
3672.462891	15924.591797
3671.711914	16305.021484
3670.961914	16249.131836
3670.210938	16143.322266
3669.459961	16526.861328
3668.708008	16470.962891
3667.957031	16501.599609
3667.206055	16741.830078
3666.454102	16868.882813
3665.702148	16540.230469
3664.950195	16750.410156
3664.199219	17017.046875
3663.446289	16848.099609
3662.694336	17214.349609
3661.942383	16978.957031
3661.190430	17418.169922
3660.437500	17219.363281
3659.684570	17246.500000
3658.932617	17466.255859
3658.179688	17908.429688
3657.426758	17962.001953
3656.672852	18002.277344
3655.919922	18089.007813
3655.166992	18348.275391
3654.413086	18421.648438
3653.659180	18587.888672
3652.906250	19118.939453
3652.152344	18611.779297
3651.398438	18622.060547
3650.644531	18950.613281
3649.889648	19093.427734
3649.135742	18918.025391
3648.380859	19206.605469
3647.626953	19664.066406
3646.872070	19323.019531
3646.117188	19902.865234
3645.362305	19919.546875
3644.607422	20091.843750
3643.851563	20078.691406
3643.096680	19903.351563
3642.341797	20436.304688
3641.585938	20198.091797
3640.830078	20628.261719
3640.074219	20694.423828
3639.318359	20856.476563
3638.562500	20955.648438
3637.806641	21177.121094
3637.049805	20899.345703
3636.293945	21114.144531
3635.537109	21249.560547
3634.780273	21180.070313
3634.024414	21447.580078
3633.267578	21596.087891
3632.509766	21559.601563
3631.752930	21982.117188
3630.996094	22130.466797
3630.238281	22258.962891
3629.481445	22275.199219
3628.723633	22463.029297
3627.965820	22403.337891
3627.208008	22247.998047
3626.450195	22415.949219
3625.692383	22451.931641
3624.933594	22685.742188
3624.175781	22418.361328
3623.416992	22803.730469
3622.658203	22964.865234
3621.899414	22460.308594
3621.140625	22595.087891
3620.381836	23454.541016
3619.623047	23421.140625
3618.864258	23312.005859
3618.104492	23505.826172
3617.345703	23772.009766
3616.585938	23646.412109
3615.826172	23665.660156
3615.066406	24007.369141
3614.306641	23934.433594
3613.546875	24322.039063
3612.786133	24051.740234
3612.026367	24169.556641
3611.265625	24297.197266
3610.504883	24480.681641
3609.744141	24259.830078
3608.983398	24554.992188
3608.222656	24097.625000
3607.461914	24330.298828
3606.701172	24786.255859
3605.939453	25064.722656
3605.178711	24843.986328
3604.416992	24928.648438
3603.655273	25092.064453
3602.893555	24950.197266
3602.131836	25146.373047
3601.370117	24850.333984
3600.607422	24665.925781
3599.845703	25150.685547
3599.083008	24851.505859
3598.320313	25578.718750
3597.557617	25420.537109
3596.794922	25380.406250
3596.032227	25274.742188
3595.269531	25185.496094
3594.506836	25571.335938
3593.743164	25400.175781
3592.980469	25536.939453
3592.216797	25539.396484
3591.453125	25473.093750
3590.689453	25495.201172
3589.925781	25586.037109
3589.162109	25346.308594
3588.397461	25682.542969
3587.633789	25586.824219
3586.869141	25530.386719
3586.104492	25480.509766
3585.339844	25724.945313
3584.575195	25943.144531
3583.810547	25618.632813
3583.045898	25699.505859
3582.281250	25891.460938
3581.515625	25537.703125
3580.750977	25275.531250
3579.985352	25660.171875
3579.219727	26096.941406
3578.454102	25635.621094
3577.688477	25670.691406
3576.921875	25829.789063
3576.156250	25737.529297
3575.390625	25831.298828
3574.624023	25732.542969
3573.857422	25868.691406
3573.090820	25978.701172
3572.324219	26013.671875
3571.557617	25213.925781
3570.791016	25803.212891
3570.023438	25528.537109
3569.256836	26316.382813
3568.489258	25663.728516
3567.722656	25659.615234
3566.955078	25583.839844
3566.187500	25508.087891
3565.418945	25744.972656
3564.651367	25916.664063
3563.883789	25821.361328
3563.115234	25631.699219
3562.347656	25783.796875
3561.579102	25968.384766
3560.810547	25482.740234
3560.041992	25462.394531
3559.273438	25565.636719
3558.503906	25304.656250
3557.735352	25498.921875
3556.966797	24880.462891
3556.197266	24951.228516
3555.427734	24976.476563
3554.658203	24429.876953
3553.888672	23805.484375
3553.119141	23288.478516
3552.349609	23219.796875
3551.579102	23891.451172
3550.809570	24699.244141
3550.039063	24578.431641
3549.268555	25012.626953
3548.498047	25157.884766
3547.727539	24942.966797
3546.957031	25081.701172
3546.186523	25307.958984
3545.415039	25086.632813
3544.644531	25115.035156
3543.873047	25208.265625
3543.101563	25275.533203
3542.330078	25670.097656
3541.558594	24936.927734
3540.787109	25230.986328
3540.015625	25181.593750
3539.243164	24950.849609
3538.471680	25141.140625
3537.699219	24560.810547
3536.926758	25032.732422
3536.154297	25138.765625
3535.381836	25442.166016
3534.609375	25247.189453
3533.836914	25146.091797
3533.063477	24702.164063
3532.291016	25212.414063
3531.517578	24901.191406
3530.744141	25252.828125
3529.970703	24679.867188
3529.197266	25144.544922
3528.423828	24781.826172
3527.649414	24991.093750
3526.875977	24786.804688
3526.101563	25231.785156
3525.328125	24891.886719
3524.553711	25159.121094
3523.779297	24783.832031
3523.004883	24605.558594
3522.229492	24934.025391
3521.455078	24875.173828
3520.680664	24884.091797
3519.905273	24280.117188
3519.129883	24366.531250
3518.354492	24507.738281
3517.579102	24497.361328
3516.803711	24822.250000
3516.028320	24402.484375
3515.252930	24347.011719
3514.476563	24265.777344
3513.700195	24348.873047
3512.924805	24348.191406
3512.148438	24949.755859
3511.372070	24227.685547
3510.595703	24474.925781
3509.818359	24065.406250
3509.041992	24393.054688
3508.264648	24337.658203
3507.488281	24256.537109
3506.710938	24619.382813
3505.933594	24226.248047
3505.156250	24209.500000
3504.378906	24093.082031
3503.601563	24294.972656
3502.823242	24217.148438
3502.045898	24267.902344
3501.267578	24231.878906
3500.489258	24128.396484
3499.710938	23951.064453
3498.932617	24027.521484
3498.154297	23936.964844
3497.375977	23990.921875
3496.596680	24304.892578
3495.818359	24188.656250
3495.039063	24082.083984
3494.259766	24081.431641
3493.480469	24064.738281
3492.701172	23714.451172
3491.921875	23890.251953
3491.142578	23998.656250
3490.362305	23770.378906
3489.582031	23984.552734
3488.802734	23794.810547
3488.022461	23790.996094
3487.242188	23646.203125
3486.461914	23863.458984
3485.681641	23741.121094
3484.900391	23695.681641
3484.120117	23557.398438
3483.338867	23460.779297
3482.557617	23757.912109
3481.777344	23619.683594
3480.996094	23443.097656
3480.213867	23503.330078
3479.432617	23669.107422
3478.651367	23297.492188
3477.869141	23546.394531
3477.087891	23235.667969
3476.305664	23324.652344
3475.523438	23340.091797
3474.741211	23425.835938
3473.958984	23300.656250
3473.175781	23379.988281
3472.393555	23309.158203
3471.610352	23378.880859
3470.828125	23445.386719
3470.044922	23004.212891
3469.261719	23096.292969
3468.478516	23006.414063
3467.695313	23047.402344
3466.911133	23081.998047
3466.127930	23145.292969
3465.343750	23345.726563
3464.560547	23351.550781
3463.776367	22917.330078
3462.992188	22818.009766
3462.208008	22906.796875
3461.423828	23062.482422
3460.638672	22701.878906
3459.854492	22984.994141
3459.069336	23169.263672
3458.285156	22888.441406
3457.500000	23018.525391
3456.714844	22655.031250
3455.929688	22957.025391
3455.143555	22918.330078
3454.358398	22822.361328
3453.572266	22675.509766
3452.787109	22617.787109
3452.000977	22836.835938
3451.214844	22515.119141
3450.428711	22444.728516
3449.642578	22415.693359
3448.856445	22100.556641
3448.069336	22128.798828
3447.283203	22611.484375
3446.496094	22522.068359
3445.708984	22003.785156
3444.921875	22032.023438
3444.134766	22082.482422
3443.347656	21948.748047
3442.560547	22291.298828
3441.772461	22471.841797
3440.985352	22008.019531
3440.197266	21880.726563
3439.409180	22070.767578
3438.621094	21762.677734
3437.833008	22120.785156
3437.044922	22076.009766
3436.256836	22221.501953
3435.467773	22129.167969
3434.679688	22189.017578
3433.890625	22099.886719
3433.101563	22029.798828
3432.312500	21947.058594
3431.523438	22136.777344
3430.734375	22152.230469
3429.944336	21980.837891
3429.155273	21796.833984
3428.365234	22014.945313
3427.575195	21995.589844
3426.785156	21846.482422
3425.995117	22115.107422
3425.205078	21754.056641
3424.415039	21899.240234
3423.624023	21633.220703
3422.833984	21772.052734
3422.042969	21730.621094
3421.251953	21363.595703
3420.460938	21720.492188
3419.669922	21742.291016
3418.878906	21656.652344
3418.087891	21330.941406
3417.295898	21273.824219
3416.504883	21545.175781
3415.712891	21207.005859
3414.920898	21550.894531
3414.128906	21354.882813
3413.336914	21436.673828
3412.544922	21546.839844
3411.752930	21303.593750
3410.959961	21413.744141
3410.166992	20934.035156
3409.375000	20924.371094
3408.582031	21230.023438
3407.789063	21141.498047
3406.996094	21238.974609
3406.202148	21267.085938
3405.409180	20913.902344
3404.615234	20548.228516
3403.822266	20856.792969
3403.028320	20834.550781
3402.234375	20642.265625
3401.440430	21095.500000
3400.646484	20771.011719
3399.851563	20632.335938
3399.057617	20713.998047
3398.262695	20647.744141
3397.468750	20282.636719
3396.673828	20140.980469
3395.878906	20420.804688
3395.083984	20332.626953
3394.288086	20181.595703
3393.493164	20011.751953
3392.698242	20426.566406
3391.902344	20080.753906
3391.106445	20237.777344
3390.310547	20344.484375
3389.514648	20171.607422
3388.718750	20281.429688
3387.922852	20271.898438
3387.125977	20391.087891
3386.330078	20623.242188
3385.533203	20309.222656
3384.736328	19938.820313
3383.939453	20371.734375
3383.142578	20390.425781
3382.345703	20299.333984
3381.548828	20490.507813
3380.750977	20568.744141
3379.954102	20107.738281
3379.156250	20151.531250
3378.358398	20311.265625
3377.560547	20167.001953
3376.762695	20339.212891
3375.964844	20113.546875
3375.166016	20414.121094
3374.368164	20028.808594
3373.569336	20329.298828
3372.771484	19997.339844
3371.972656	20163.150391
3371.173828	20072.291016
3370.374023	19928.269531
3369.575195	20172.218750
3368.776367	19828.037109
3367.976563	19878.023438
3367.176758	19584.029297
3366.377930	19827.876953
3365.578125	19705.910156
3364.778320	19752.757813
3363.977539	19830.837891
3363.177734	19908.890625
3362.377930	19565.189453
3361.577148	19921.244141
3360.776367	19974.261719
3359.975586	19874.263672
3359.174805	19702.490234
3358.374023	19721.179688
3357.573242	19796.039063
3356.772461	19599.398438
3355.970703	19696.091797
3355.168945	20170.203125
3354.368164	19474.566406
3353.566406	19767.693359
3352.764648	19873.648438
3351.961914	19758.234375
3351.160156	19832.986328
3350.358398	19723.847656
3349.555664	19474.525391
3348.752930	19290.705078
3347.950195	19138.093750
3347.147461	19103.880859
3346.344727	19212.916016
3345.541992	19427.773438
3344.739258	19689.255859
3343.935547	19602.060547
3343.132813	19773.183594
3342.329102	19483.759766
3341.525391	19247.314453
3340.721680	19682.796875
3339.917969	19405.966797
3339.113281	19206.958984
3338.309570	19306.470703
3337.504883	19256.748047
3336.701172	19337.572266
3335.896484	19415.263672
3335.091797	19387.292969
3334.287109	19402.820313
3333.482422	19297.210938
3332.676758	19135.736328
3331.872070	18878.060547
3331.066406	19079.925781
3330.260742	19154.462891
3329.455078	19176.216797
3328.649414	19132.802734
3327.843750	19294.162109
3327.038086	19362.412109
3326.232422	19213.535156
3325.425781	19294.179688
3324.619141	19148.460938
3323.812500	19343.787109
3323.006836	19439.865234
3322.199219	19511.121094
3321.392578	19356.166016
3320.585938	19207.455078
3319.778320	19145.521484
3318.971680	19154.835938
3318.164063	19099.123047
3317.356445	18709.058594
3316.548828	18681.292969
3315.741211	18817.570313
3314.933594	19108.527344
3314.125000	19059.050781
3313.317383	19405.558594
3312.508789	18851.888672
3311.700195	18950.916016
3310.891602	19090.107422
3310.083008	18978.839844
3309.274414	19272.533203
3308.465820	19056.193359
3307.656250	18812.113281
3306.847656	19139.673828
3306.038086	19121.158203
3305.228516	19047.052734
3304.418945	19043.996094
3303.609375	18917.437500
3302.799805	18824.876953
3301.989258	18871.240234
3301.179688	18587.378906
3300.369141	18905.294922
3299.558594	18686.306641
3298.748047	18852.958984
3297.937500	18979.464844
3297.126953	18911.662109
3296.316406	18757.554688
3295.504883	18856.271484
3294.694336	19013.513672
3293.882813	18976.564453
3293.071289	18822.542969
3292.259766	18597.716797
3291.448242	18751.818359
3290.636719	18890.472656
3289.824219	18715.007813
3289.012695	18721.240234
3288.200195	18856.751953
3287.387695	18669.066406
3286.575195	18315.273438
3285.762695	18340.023438
3284.950195	18075.603516
3284.137695	18737.048828
3283.324219	18552.605469
3282.511719	18715.660156
3281.698242	18451.349609
3280.884766	18595.925781
3280.071289	18940.212891
3279.257813	18841.917969
3278.444336	18734.437500
3277.629883	18593.203125
3276.816406	18292.308594
3276.001953	18645.578125
3275.187500	18618.023438
3274.373047	18274.291016
3273.558594	18384.919922
3272.744141	18243.873047
3271.929688	18590.728516
3271.114258	18544.794922
3270.299805	18612.365234
3269.484375	18189.224609
3268.668945	18597.191406
3267.853516	18750.562500
3267.038086	18407.300781
3266.221680	18419.667969
3265.406250	18137.855469
3264.590820	18422.945313
3263.774414	18208.617188
3262.958008	18058.675781
3262.141602	18453.884766
3261.325195	17970.205078
3260.508789	17774.453125
3259.691406	17783.841797
3258.875000	17631.027344
3258.057617	17888.289063
3257.241211	18133.230469
3256.423828	18209.851563
3255.606445	18332.324219
3254.788086	18433.349609
3253.970703	18182.736328
3253.153320	18173.703125
3252.334961	17984.337891
3251.516602	18351.226563
3250.699219	18415.500000
3249.880859	18247.572266
3249.062500	18357.660156
3248.243164	18559.332031
3247.424805	18037.250000
3246.605469	18040.458984
3245.787109	18300.082031
3244.967773	18208.632813
3244.148438	17757.126953
3243.329102	18211.939453
3242.509766	18138.849609
3241.690430	18129.837891
3240.870117	18117.777344
3240.050781	17873.986328
3239.230469	17730.878906
3238.410156	18118.193359
3237.589844	18505.384766
3236.769531	18145.894531
3235.949219	18286.173828
3235.127930	18398.992188
3234.307617	18237.660156
3233.486328	17930.208984
3232.665039	17985.179688
3231.843750	18274.537109
3231.022461	17997.666016
3230.201172	17918.693359
3229.379883	17879.302734
3228.557617	18062.009766
3227.736328	18183.822266
3226.914063	18110.951172
3226.091797	18062.429688
3225.269531	17983.521484
3224.447266	18132.623047
3223.625000	18369.820313
3222.801758	18354.712891
3221.979492	18063.119141
3221.156250	18376.158203
3220.333008	17966.195313
3219.509766	18115.154297
3218.686523	17805.566406
3217.863281	18009.150391
3217.039063	17699.677734
3216.215820	17772.707031
3215.391602	17842.679688
3214.567383	17888.357422
3213.744141	17921.884766
3212.918945	17730.960938
3212.094727	17861.542969
3211.270508	18307.414063
3210.446289	18316.599609
3209.621094	17807.470703
3208.795898	18001.595703
3207.970703	17780.537109
3207.145508	18010.960938
3206.320313	18005.037109
3205.495117	18214.148438
3204.669922	18147.630859
3203.843750	18265.822266
3203.017578	18314.349609
3202.192383	18017.818359
3201.366211	17866.640625
3200.539063	17936.386719
3199.712891	18175.523438
3198.886719	18039.513672
3198.059570	18042.664063
3197.233398	18051.859375
3196.406250	18251.519531
3195.579102	18018.853516
3194.751953	17934.357422
3193.924805	17937.519531
3193.097656	17711.058594
3192.269531	17783.732422
3191.442383	17847.324219
3190.614258	17796.136719
3189.786133	17865.744141
3188.958008	18104.384766
3188.129883	18137.697266
3187.301758	17998.974609
3186.472656	18177.128906
3185.644531	17775.968750
3184.815430	17607.205078
3183.986328	17492.785156
3183.157227	17806.601563
3182.328125	17960.521484
3181.499023	18126.449219
3180.669922	18361.648438
3179.839844	17834.333984
3179.010742	18003.214844
3178.180664	18220.242188
3177.350586	18021.525391
3176.520508	17979.478516
3175.690430	18084.990234
3174.859375	17955.634766
3174.029297	17790.199219
3173.198242	18091.320313
3172.368164	18025.218750
3171.537109	18244.966797
3170.706055	17902.101563
3169.875000	18245.119141
3169.042969	18094.828125
3168.211914	17809.281250
3167.379883	17641.070313
3166.548828	17445.861328
3165.716797	16920.126953
3164.884766	16920.412109
3164.052734	17308.261719
3163.220703	18020.408203
3162.387695	17849.320313
3161.555664	18146.744141
3160.722656	17999.710938
3159.889648	17576.541016
3159.056641	17621.738281
3158.223633	17952.017578
3157.390625	17769.099609
3156.557617	17886.246094
3155.723633	17685.398438
3154.890625	17748.535156
3154.056641	17787.662109
3153.222656	17676.871094
3152.388672	17656.042969
3151.554688	17545.308594
3150.720703	17614.406250
3149.885742	17347.910156
3149.051758	17246.263672
3148.216797	17201.556641
3147.381836	17863.625000
3146.546875	17690.080078
3145.711914	17777.048828
3144.876953	17693.371094
3144.041992	17906.009766
3143.206055	17403.410156
3142.370117	17921.193359
3141.535156	17927.287109
3140.699219	17828.695313
3139.863281	17867.695313
3139.026367	17721.304688
3138.190430	17601.867188
3137.354492	17590.070313
3136.517578	17476.667969
3135.680664	17423.060547
3134.843750	17456.109375
3134.006836	17928.242188
3133.169922	17790.964844
3132.333008	17779.144531
3131.495117	17585.207031
3130.658203	17370.435547
3129.820313	17415.396484
3128.982422	17266.371094
3128.144531	17472.453125
3127.306641	17577.039063
3126.468750	17538.417969
3125.629883	17681.728516
3124.791992	17649.066406
3123.953125	17380.894531
3123.114258	17550.984375
3122.275391	17411.066406
3121.436523	17667.513672
3120.597656	17143.283203
3119.758789	17244.787109
3118.918945	17495.177734
3118.079102	17465.562500
3117.240234	17361.519531
3116.400391	17620.701172
3115.560547	17448.207031
3114.719727	17549.560547
3113.879883	17490.203125
3113.040039	17481.439453
3112.199219	17722.542969
3111.358398	17330.083984
3110.517578	17285.666016
3109.676758	17348.294922
3108.835938	17497.109375
3107.995117	17604.265625
3107.153320	17280.490234
3106.312500	17494.609375
3105.470703	17637.361328
3104.628906	17533.535156
3103.787109	17117.912109
3102.945313	17302.226563
3102.103516	17320.224609
3101.260742	16943.423828
3100.418945	17463.046875
3099.576172	17537.388672
3098.733398	17053.925781
3097.890625	17380.457031
3097.047852	17359.865234
3096.205078	17158.382813
3095.361328	17075.568359
3094.518555	16951.273438
3093.674805	17307.199219
3092.831055	17437.775391
3091.987305	17117.916016
3091.143555	17141.826172
3090.299805	17242.744141
3089.456055	16863.833984
3088.611328	17328.992188
3087.766602	17296.595703
3086.922852	16917.861328
3086.078125	17199.277344
3085.233398	17453.968750
3084.387695	17326.888672
3083.542969	17324.101563
3082.698242	17256.240234
3081.852539	17395.417969
3081.006836	17212.246094
3080.161133	17236.083984
3079.315430	16908.154297
3078.469727	17056.162109
3077.624023	16938.171875
3076.777344	17154.082031
3075.931641	17183.816406
3075.084961	17225.355469
3074.238281	16794.380859
3073.391602	17060.367188
3072.544922	16960.201172
3071.698242	16957.470703
3070.850586	17037.375000
3070.003906	17034.632813
3069.156250	17058.443359
3068.308594	17247.435547
3067.460938	17200.417969
3066.613281	17062.003906
3065.765625	17023.876953
3064.916992	17118.416016
3064.069336	17065.554688
3063.220703	16974.400391
3062.372070	17169.080078
3061.523438	17092.667969
3060.674805	17458.105469
3059.826172	17234.416016
3058.976563	17116.804688
3058.127930	17187.650391
3057.278320	17002.378906
3056.428711	17120.310547
3055.579102	17002.791016
3054.729492	17085.376953
3053.879883	17082.626953
3053.030273	16829.869141
3052.179688	17121.238281
3051.330078	17121.421875
3050.479492	17136.304688
3049.628906	17160.000000
3048.778320	16795.753906
3047.926758	17092.767578
3047.076172	17207.533203
3046.225586	17143.076172
3045.374023	17116.820313
3044.522461	16887.951172
3043.670898	16917.527344
3042.819336	17290.558594
3041.967773	17035.355469
3041.116211	17270.316406
3040.263672	17188.314453
3039.412109	16997.789063
3038.559570	17091.849609
3037.707031	17191.742188
3036.854492	16760.863281
3036.001953	16857.843750
3035.148438	16773.052734
3034.295898	16702.941406
3033.442383	16925.890625
3032.589844	17227.876953
3031.736328	17099.134766
3030.882813	16674.611328
3030.028320	16917.917969
3029.174805	16871.273438
3028.321289	16801.222656
3027.466797	16968.287109
3026.612305	16971.408203
3025.758789	16673.134766
3024.904297	16904.501953
3024.048828	16936.880859
3023.194336	16995.572266
3022.339844	17019.152344
3021.484375	16726.957031
3020.628906	17118.910156
3019.773438	16838.482422
3018.917969	17087.093750
3018.062500	16666.509766
3017.207031	17093.275391
3016.351563	16932.791016
3015.495117	16754.833984
3014.638672	16647.013672
3013.782227	16620.974609
3012.925781	16892.691406
3012.069336	16621.457031
3011.212891	16878.494141
3010.356445	16700.714844
3009.499023	16406.304688
3008.641602	16415.328125
3007.785156	16433.097656
3006.927734	16617.060547
3006.069336	16547.330078
3005.211914	16311.476563
3004.354492	16562.400391
3003.496094	16807.412109
3002.638672	16571.628906
3001.780273	16659.261719
3000.921875	16775.990234
3000.063477	16971.304688
2999.204102	16802.611328
2998.345703	16779.525391
2997.486328	16811.750000
2996.627930	16509.294922
2995.768555	16777.234375
2994.909180	16832.714844
2994.049805	16806.732422
2993.190430	16801.117188
2992.330078	16542.521484
2991.470703	16737.554688
2990.610352	16699.974609
2989.750000	16621.716797
2988.889648	16569.636719
2988.029297	16991.166016
2987.168945	16796.697266
2986.308594	16974.070313
2985.447266	16538.628906
2984.585938	16663.722656
2983.725586	16867.158203
2982.864258	16687.376953
2982.002930	16847.210938
2981.140625	16713.917969
2980.279297	16670.605469
2979.416992	16667.917969
2978.555664	16552.119141
2977.693359	16621.947266
2976.831055	16642.462891
2975.968750	16694.859375
2975.106445	16387.832031
2974.243164	16532.986328
2973.380859	16486.859375
2972.517578	16637.744141
2971.654297	16640.855469
2970.791016	16901.720703
2969.927734	16907.681641
2969.064453	16904.957031
2968.201172	16884.863281
2967.336914	16627.447266
2966.473633	16581.359375
2965.609375	16535.285156
2964.745117	16521.048828
2963.880859	16544.416016
2963.016602	16307.503906
2962.151367	16417.640625
2961.287109	16761.912109
2960.421875	16360.317383
2959.556641	16843.208984
2958.691406	16704.681641
2957.826172	16730.878906
2956.960938	16693.517578
2956.095703	16586.851563
2955.229492	16806.531250
2954.363281	16480.447266
2953.498047	16532.638672
2952.631836	16538.632813
2951.765625	16830.322266
2950.898438	17095.949219
2950.032227	16882.593750
2949.165039	16724.109375
2948.298828	16995.392578
2947.431641	16831.173828
2946.564453	16984.144531
2945.697266	16848.806641
2944.830078	17053.601563
2943.961914	17145.947266
2943.094727	16872.347656
2942.226563	16875.388672
2941.358398	16745.933594
2940.490234	16950.580078
2939.622070	17160.917969
2938.753906	17192.695313
2937.885742	17100.691406
2937.016602	17034.617188
2936.148438	17256.314453
2935.279297	17210.375000
2934.410156	17532.650391
2933.541016	16971.859375
2932.670898	17368.833984
2931.801758	17003.761719
2930.932617	17018.265625
2930.062500	17185.101563
2929.192383	17394.988281
2928.322266	17288.742188
2927.452148	17498.544922
2926.582031	17366.462891
2925.710938	17412.484375
2924.840820	17128.271484
2923.969727	17059.474609
2923.098633	17099.781250
2922.227539	17231.916016
2921.356445	17002.435547
2920.485352	17186.187500
2919.614258	17071.535156
2918.742188	17367.076172
2917.870117	17556.412109
2916.999023	17341.400391
2916.126953	17625.285156
2915.253906	17373.066406
2914.381836	17416.117188
2913.509766	17737.101563
2912.636719	17336.007813
2911.764648	17124.099609
2910.891602	17668.371094
2910.018555	17316.160156
2909.145508	17636.900391
2908.271484	17473.744141
2907.398438	17365.023438
2906.524414	17439.486328
2905.651367	17285.023438
2904.777344	17533.986328
2903.903320	17302.328125
2903.029297	17325.273438
2902.154297	17385.384766
2901.280273	17271.080078
2900.405273	17208.261719
2899.531250	17296.943359
2898.656250	16959.812500
2897.781250	17197.074219
2896.906250	17294.281250
2896.030273	17114.404297
2895.155273	17023.113281
2894.279297	16934.707031
2893.404297	16703.585938
2892.528320	16909.259766
2891.652344	17131.988281
2890.776367	17126.369141
2889.899414	17297.634766
2889.023438	17243.498047
2888.146484	17021.103516
2887.270508	17072.537109
2886.393555	17112.546875
2885.516602	17084.128906
2884.638672	16756.445313
2883.761719	17138.457031
2882.884766	17155.634766
2882.006836	17036.062500
2881.128906	16990.585938
2880.250977	16808.423828
2879.373047	16968.013672
2878.495117	16948.191406
2877.617188	16965.380859
2876.738281	16959.794922
2875.860352	17033.888672
2874.981445	16729.550781
2874.102539	16743.916016
2873.223633	16596.156250
2872.344727	16784.009766
2871.464844	16619.230469
2870.585938	16713.203125
2869.706055	16497.322266
2868.826172	16696.437500
2867.947266	16443.689453
2867.066406	16247.843750
2866.186523	16361.682617
2865.306641	16503.884766
2864.425781	16734.070313
2863.545898	16668.906250
2862.665039	16552.664063
2861.784180	16462.003906
2860.903320	16360.020508
2860.022461	16317.655273
2859.140625	16567.503906
2858.259766	16267.000977
2857.377930	16522.447266
2856.496094	16718.265625
2855.614258	16868.658203
2854.732422	17050.181641
2853.850586	16761.177734
2852.967773	16775.472656
2852.085938	16676.431641
2851.203125	16968.347656
2850.320313	16693.703125
2849.437500	16832.599609
2848.554688	17076.210938
2847.671875	16895.103516
2846.788086	17008.423828
2845.905273	16671.730469
2845.021484	16592.638672
2844.137695	16451.330078
2843.253906	16827.712891
2842.370117	16601.564453
2841.486328	16477.289063
2840.601563	16624.472656
2839.717773	17028.851563
2838.833008	16816.947266
2837.948242	16825.533203
2837.063477	16777.605469
2836.178711	16927.445313
2835.292969	16950.130859
2834.408203	16910.677734
2833.522461	16843.001953
2832.636719	16820.515625
2831.750977	16888.365234
2830.865234	16984.416016
2829.979492	16786.964844
2829.093750	16575.472656
2828.207031	16366.867188
2827.321289	16849.337891
2826.434570	16905.833984
2825.547852	16669.080078
2824.661133	16900.369141
2823.774414	17109.033203
2822.886719	17007.632813
2822.000000	17004.882813
2821.112305	17199.341797
2820.224609	16819.109375
2819.336914	16762.880859
2818.449219	16982.625000
2817.561523	16703.966797
2816.672852	16906.759766
2815.785156	16946.244141
2814.896484	16788.730469
2814.007813	16873.238281
2813.119141	16755.171875
2812.230469	16783.402344
2811.341797	16791.937500
2810.452148	16752.667969
2809.563477	16823.054688
2808.673828	16848.443359
2807.784180	16972.187500
2806.894531	16758.695313
2806.004883	16761.603516
2805.114258	16916.201172
2804.224609	16972.447266
2803.333984	16950.044922
2802.444336	17037.150391
2801.553711	16829.464844
2800.663086	16470.281250
2799.771484	16506.906250
2798.880859	16967.207031
2797.989258	16824.191406
2797.098633	16919.644531
2796.207031	16555.125000
2795.315430	16630.960938
2794.423828	17006.759766
2793.532227	17060.072266
2792.639648	17132.986328
2791.748047	17205.875000
2790.855469	17225.507813
2789.962891	17189.103516
2789.070313	17287.156250
2788.177734	17186.343750
2787.285156	17138.763672
2786.391602	17443.941406
2785.499023	17018.457031
2784.605469	17345.941406
2783.711914	16942.996094
2782.818359	17108.119141
2781.924805	16901.150391
2781.031250	16853.666016
2780.136719	16582.486328
2779.243164	17015.968750
2778.348633	16725.281250
2777.454102	16907.046875
2776.559570	17203.328125
2775.665039	17105.544922
2774.769531	17105.570313
2773.875000	17027.386719
2772.979492	17055.351563
2772.083984	17225.714844
2771.188477	17161.505859
2770.292969	17122.441406
2769.397461	17476.912109
2768.501953	17248.052734
2767.605469	17368.023438
2766.708984	17292.683594
2765.812500	17069.542969
2764.916016	17312.183594
2764.019531	16896.722656
2763.123047	17061.255859
2762.226563	17248.033203
2761.329102	17289.832031
2760.431641	16969.378906
2759.534180	16924.843750
2758.636719	16961.101563
2757.739258	17061.404297
2756.841797	17108.765625
2755.943359	17267.478516
2755.045898	17206.224609
2754.147461	17504.033203
2753.249023	17403.800781
2752.350586	17545.666016
2751.452148	17378.693359
2750.552734	17370.316406
2749.654297	17281.292969
2748.754883	17114.441406
2747.855469	17562.050781
2746.956055	17161.712891
2746.056641	16950.492188
2745.157227	16900.509766
2744.257813	17200.609375
2743.357422	17403.386719
2742.457031	17083.943359
2741.556641	17120.054688
2740.656250	16981.232422
2739.755859	16600.935547
2738.855469	16992.386719
2737.954102	17039.587891
2737.053711	17181.115234
2736.152344	17197.751953
2735.250977	17258.765625
2734.349609	17333.625000
2733.448242	17433.416016
2732.545898	17641.302734
2731.644531	17192.146484
2730.742188	17363.972656
2729.840820	17275.255859
2728.938477	17147.775391
2728.035156	17446.955078
2727.132813	17480.136719
2726.230469	17324.990234
2725.327148	17324.953125
2724.424805	17180.957031
2723.521484	17463.277344
2722.618164	17333.140625
2721.713867	17349.703125
2720.810547	17385.625000
2719.907227	17285.992188
2719.002930	17144.904297
2718.098633	17601.166016
2717.194336	17487.720703
2716.290039	16943.064453
2715.385742	17197.367188
2714.481445	17028.769531
2713.576172	17164.164063
2712.671875	17166.908203
2711.766602	17042.591797
2710.861328	17133.728516
2709.956055	17017.740234
2709.050781	17398.738281
2708.144531	17379.355469
2707.239258	17500.736328
2706.333008	17657.951172
2705.426758	17318.486328
2704.520508	17263.267578
2703.614258	17070.158203
2702.708008	17119.787109
2701.800781	17183.187500
2700.893555	17003.966797
2699.987305	16901.982422
2699.080078	17174.833984
2698.172852	17293.291016
2697.264648	17152.736328
2696.357422	16739.525391
2695.450195	16915.830078
2694.541992	16951.640625
2693.633789	17070.035156
2692.725586	17441.646484
2691.817383	17298.449219
2690.909180	17229.599609
2690.000000	17419.408203
2689.091797	17488.111328
2688.182617	17367.001953
2687.273438	17331.185547
2686.364258	17465.859375
2685.455078	17377.800781
2684.545898	17325.505859
2683.635742	17171.539063
2682.726563	17435.298828
2681.816406	17226.416016
2680.906250	17396.681641
2679.996094	17462.525391
2679.085938	17275.705078
2678.174805	17322.326172
2677.264648	17341.478516
2676.353516	17418.265625
2675.442383	17327.623047
2674.531250	17127.253906
2673.620117	17242.443359
2672.708984	17368.568359
2671.796875	17373.978516
2670.885742	17497.296875
2669.973633	17505.425781
2669.061523	17162.677734
2668.149414	17483.304688
2667.237305	17206.437500
2666.324219	17559.830078
2665.412109	17507.671875
2664.499023	17617.130859
2663.585938	17345.896484
2662.672852	17540.224609
2661.759766	17249.927734
2660.846680	17189.648438
2659.933594	17340.117188
2659.019531	17846.259766
2658.105469	17463.078125
2657.192383	17607.958984
2656.278320	17703.562500
2655.363281	17648.734375
2654.449219	17465.419922
2653.535156	17664.876953
2652.620117	17391.423828
2651.705078	17456.919922
2650.790039	17232.769531
2649.875000	17902.017578
2648.959961	17623.236328
2648.044922	17369.125000
2647.128906	17549.253906
2646.212891	17393.521484
2645.296875	17652.746094
2644.380859	17933.720703
2643.464844	17747.982422
2642.548828	17496.824219
2641.632813	17447.609375
2640.715820	17308.406250
2639.798828	17049.257813
2638.881836	17046.492188
2637.964844	16885.609375
2637.047852	17103.650391
2636.130859	17419.726563
2635.212891	17762.949219
2634.294922	17392.277344
2633.377930	17885.207031
2632.459961	17642.638672
2631.541992	17460.054688
2630.623047	17427.271484
2629.705078	17527.884766
2628.786133	17642.072266
2627.867188	17579.341797
2626.949219	17791.431641
2626.030273	17633.482422
2625.110352	17815.576172
2624.191406	17725.658203
2623.271484	17899.519531
2622.352539	17776.994141
2621.432617	18059.515625
2620.512695	17811.988281
2619.592773	17858.007813
2618.672852	17643.195313
2617.751953	17841.343750
2616.832031	17754.251953
2615.911133	17748.654297
2614.990234	17797.357422
2614.069336	17930.201172
2613.148438	17802.435547
2612.226563	18081.775391
2611.305664	18097.832031
2610.383789	17834.457031
2609.462891	17638.978516
2608.541016	17850.361328
2607.618164	17682.056641
2606.696289	17896.074219
2605.774414	18134.417969
2604.851563	17979.699219
2603.929688	18304.664063
2603.006836	17984.697266
2602.083984	18125.347656
2601.160156	17886.765625
2600.237305	18130.292969
2599.314453	17805.142578
2598.390625	18024.238281
2597.466797	18099.804688
2596.542969	18107.689453
2595.619141	17961.337891
2594.695313	18196.496094
2593.770508	18212.474609
2592.846680	18079.697266
2591.921875	18209.259766
2590.997070	18071.121094
2590.072266	18203.343750
2589.147461	18105.789063
2588.222656	18170.406250
2587.296875	18529.505859
2586.372070	18218.531250
2585.446289	18018.396484
2584.520508	18074.880859
2583.594727	18155.648438
2582.668945	17750.445313
2581.742188	17763.755859
2580.816406	17936.291016
2579.889648	17720.205078
2578.962891	17979.025391
2578.036133	18065.119141
2577.109375	18178.158203
2576.181641	18525.763672
2575.254883	18350.197266
2574.327148	18269.037109
2573.399414	17872.554688
2572.472656	18114.882813
2571.543945	18198.158203
2570.616211	18184.425781
2569.688477	18036.017578
2568.759766	18313.169922
2567.831055	18051.695313
2566.903320	17911.457031
2565.974609	17695.892578
2565.044922	17841.041016
2564.116211	18007.667969
2563.186523	17829.859375
2562.257813	17412.693359
2561.328125	17436.757813
2560.398438	17775.447266
2559.468750	17863.974609
2558.539063	18084.199219
2557.608398	18030.189453
2556.678711	18188.503906
2555.748047	18134.492188
2554.817383	18034.828125
2553.886719	17986.232422
2552.956055	17913.478516
2552.024414	17972.326172
2551.093750	18015.044922
2550.162109	17998.693359
2549.230469	17885.726563
2548.298828	17974.054688
2547.367188	18129.433594
2546.435547	17954.796875
2545.503906	18026.976563
2544.571289	17763.916016
2543.638672	17712.761719
2542.706055	17873.414063
2541.773438	17926.796875
2540.840820	17872.960938
2539.908203	18068.341797
2538.974609	18231.507813
2538.041016	18223.185547
2537.108398	18469.298828
2536.174805	18458.261719
2535.240234	18206.261719
2534.306641	18171.175781
2533.373047	18173.572266
2532.438477	18218.785156
2531.503906	18247.927734
2530.569336	17977.437500
2529.634766	18215.242188
2528.700195	18541.222656
2527.765625	18118.402344
2526.830078	18302.597656
2525.894531	18173.986328
2524.958984	18203.099609
2524.023438	18261.597656
2523.087891	18231.908203
2522.152344	18183.529297
2521.215820	18343.494141
2520.280273	18388.576172
2519.343750	18321.503906
2518.407227	18460.007813
2517.470703	18230.126953
2516.534180	18112.406250
2515.596680	18170.828125
2514.660156	18258.576172
2513.722656	18485.000000
2512.785156	18305.972656
2511.847656	18172.333984
2510.910156	18260.021484
2509.971680	17998.480469
2509.034180	17798.326172
2508.095703	18107.207031
2507.157227	17963.048828
2506.218750	18042.707031
2505.280273	18239.529297
2504.341797	18399.005859
2503.402344	18276.193359
2502.463867	18358.406250
2501.524414	18312.830078
2500.584961	18312.509766
2499.645508	18285.580078
2498.706055	18144.259766
2497.765625	17928.503906
2496.826172	18087.818359
2495.885742	17699.296875
2494.945313	17715.025391
2494.004883	17653.658203
2493.064453	17762.412109
2492.124023	18155.474609
2491.182617	18327.878906
2490.241211	18144.248047
2489.300781	18353.783203
2488.359375	18210.042969
2487.417969	18464.634766
2486.475586	18158.978516
2485.534180	18299.357422
2484.591797	18179.603516
2483.649414	18611.820313
2482.708008	18348.785156
2481.764648	18356.406250
2480.822266	18337.501953
2479.879883	18536.050781
2478.936523	18437.582031
2477.994141	18402.767578
2477.050781	18455.429688
2476.107422	18333.169922
2475.164063	18526.255859
2474.219727	18091.417969
2473.276367	18125.552734
2472.332031	18276.203125
2471.387695	18053.449219
2470.443359	18378.794922
2469.499023	18126.976563
2468.554688	18182.248047
2467.610352	18531.228516
2466.665039	18470.001953
2465.719727	18440.539063
2464.774414	18374.054688
2463.829102	18199.171875
2462.883789	18431.523438
2461.938477	18587.134766
2460.992188	18182.343750
2460.045898	18483.294922
2459.100586	18070.726563
2458.154297	18313.474609
2457.207031	17916.914063
2456.260742	17763.457031
2455.314453	17908.433594
2454.367188	17953.037109
2453.419922	18398.863281
2452.472656	18321.962891
2451.525391	18527.445313
2450.578125	18263.220703
2449.629883	18429.076172
2448.682617	18291.554688
2447.734375	18420.429688
2446.786133	18580.902344
2445.837891	18411.787109
2444.889648	18653.919922
2443.940430	18418.960938
2442.992188	18634.662109
2442.042969	18468.279297
2441.093750	18557.462891
2440.144531	18488.593750
2439.195313	18590.910156
2438.246094	18551.017578
2437.295898	18792.806641
2436.346680	18823.958984
2435.396484	18962.992188
2434.446289	18878.333984
2433.496094	19004.160156
2432.545898	18932.673828
2431.594727	18971.662109
2430.643555	18897.574219
2429.693359	18744.638672
2428.742188	18615.412109
2427.791016	18593.978516
2426.838867	18693.423828
2425.887695	18574.775391
2424.936523	18561.238281
2423.984375	18655.386719
2423.032227	18534.173828
2422.080078	18565.283203
2421.127930	18197.361328
2420.174805	18207.515625
2419.222656	18020.845703
2418.269531	18062.511719
2417.316406	18085.798828
2416.363281	18347.767578
2415.410156	18342.152344
2414.457031	18155.609375
2413.502930	18113.322266
2412.549805	18181.140625
2411.595703	18110.031250
2410.641602	18062.529297
2409.687500	17946.322266
2408.733398	17830.117188
2407.778320	17713.910156
2406.824219	17597.703125
2405.869141	17576.503906
2404.914063	17249.021484
2403.958984	16984.462891
2403.003906	17222.455078
2402.048828	17337.388672
2401.091797	17318.861328
2400.136719	17582.837891
2399.181641	17836.265625
2398.224609	17600.630859
2397.269531	17744.166016
2396.312500	17785.707031
2395.355469	17950.074219
2394.398438	17740.703125
2393.441406	17677.714844
2392.484375	17502.416016
2391.527344	17436.873047
2390.570313	17426.191406
2389.613281	17378.958984
2388.656250	17310.855469
2387.697266	17169.691406
2386.740234	17143.398438
2385.781250	17143.208984
2384.824219	17372.601563
2383.865234	17401.064453
2382.906250	17085.257813
2381.947266	17413.634766
2380.988281	17530.720703
2380.029297	17131.630859
2379.070313	16980.271484
2378.111328	17378.808594
2377.152344	17000.779297
2376.191406	17115.230469
2375.232422	17341.642578
2374.271484	16919.533203
2373.312500	17195.373047
2372.351563	17109.255859
2371.390625	17166.328125
2370.431641	16973.541016
2369.470703	17022.810547
2368.509766	17053.851563
2367.548828	16949.617188
2366.585938	17056.080078
2365.625000	17102.701172
2364.664063	17050.507813
2363.701172	17089.314453
2362.740234	16875.994141
2361.777344	16790.078125
2360.816406	16763.951172
2359.853516	16763.808594
2358.890625	16820.810547
2357.927734	16618.093750
2356.964844	16815.312500
2356.001953	16726.892578
2355.039063	16757.902344
2354.076172	16768.140625
2353.113281	16755.019531
2352.148438	16850.871094
2351.185547	16767.701172
2350.220703	16687.152344
2349.257813	16611.816406
2348.292969	16619.472656
2347.328125	16816.363281
2346.365234	16909.515625
2345.400391	16691.658203
2344.435547	16663.019531
2343.470703	16600.710938
2342.503906	16846.656250
2341.539063	16610.822266
2340.574219	16678.019531
2339.607422	16693.414063
2338.642578	16447.365234
2337.675781	16219.512695
2336.710938	16651.587891
2335.744141	16677.324219
2334.777344	16819.458984
2333.810547	16821.880859
2332.843750	17000.148438
2331.876953	17074.933594
2330.910156	17615.017578
2329.943359	17601.796875
2328.974609	17456.783203
2328.007813	17198.126953
2327.041016	16877.552734
2326.072266	16861.876953
2325.103516	16461.400391
2324.136719	16675.609375
2323.167969	16419.871094
2322.199219	16313.932617
2321.230469	16109.954102
2320.261719	16380.848633
2319.292969	16357.529297
2318.324219	16280.043945
2317.355469	16509.509766
2316.384766	16385.605469
2315.416016	16529.890625
2314.445313	16225.567383
2313.476563	16447.156250
2312.505859	16449.619141
2311.535156	16459.812500
2310.564453	16222.678711
2309.593750	16305.027344
2308.623047	16250.850586
2307.652344	16209.566406
2306.681641	16127.102539
2305.710938	16119.314453
2304.740234	16374.049805
2303.767578	15846.415039
2302.796875	15967.320313
2301.824219	15877.243164
2300.851563	16054.687500
2299.880859	16196.070313
2298.908203	16337.406250
2297.935547	16306.454102
2296.962891	16021.044922
2295.990234	16116.080078
2295.017578	16177.679688
2294.042969	16008.040039
2293.070313	16352.191406
2292.097656	16208.259766
2291.123047	16316.023438
2290.150391	16228.627930
2289.175781	16159.228516
2288.201172	16215.614258
2287.228516	16395.156250
2286.253906	16097.412109
2285.279297	16338.481445
2284.304688	16074.186523
2283.330078	16227.987305
2282.353516	16235.585938
2281.378906	16061.164063
2280.404297	16017.522461
2279.427734	16132.788086
2278.453125	16168.581055
2277.476563	15807.259766
2276.500000	15858.462891
2275.525391	15850.743164
2274.548828	16311.632813
2273.572266	16224.471680
2272.595703	16173.176758
2271.619141	15978.570313
2270.640625	16078.313477
2269.664063	16170.347656
2268.687500	15945.136719
2267.708984	16208.532227
2266.732422	16272.368164
2265.753906	16080.489258
2264.777344	16075.298828
2263.798828	16320.605469
2262.820313	16192.703125
2261.841797	16118.502930
2260.863281	16143.965820
2259.884766	16154.091797
2258.906250	16067.163086
2257.925781	16072.191406
2256.947266	16253.384766
2255.968750	16176.691406
2254.988281	16148.517578
2254.009766	16230.083984
2253.029297	16020.753906
2252.048828	16084.456055
2251.068359	16015.502930
2250.087891	16390.312500
2249.107422	16068.899414
2248.126953	16295.710938
2247.146484	15966.770508
2246.166016	15874.954102
2245.185547	16094.040039
2244.203125	16071.019531
2243.222656	15895.168945
2242.240234	16045.375977
2241.259766	15793.191406
2240.277344	15877.167969
2239.294922	15897.475586
2238.312500	15800.696289
2237.330078	16141.653320
2236.347656	16342.557617
2235.365234	15958.283203
2234.382813	15914.969727
2233.398438	16278.570313
2232.416016	15899.580078
2231.431641	15919.853516
2230.449219	16079.922852
2229.464844	15858.719727
2228.480469	16044.156250
2227.498047	15828.112305
2226.513672	15632.459961
2225.529297	15916.893555
2224.544922	16066.645508
2223.560547	15952.295898
2222.574219	15774.519531
2221.589844	16167.879883
2220.605469	15614.543945
2219.619141	15979.890625
2218.634766	15863.110352
2217.648438	16256.196289
2216.662109	15705.743164
2215.675781	15977.014648
2214.691406	16055.519531
2213.705078	15867.845703
2212.718750	15753.729492
2211.730469	16171.783203
2210.744141	15758.694336
2209.757813	16320.998047
2208.771484	15938.411133
2207.783203	15890.214844
2206.794922	16067.371094
2205.808594	15917.909180
2204.820313	15846.958008
2203.832031	15958.236328
2202.843750	15740.547852
2201.855469	15722.786133
2200.867188	15879.557617
2199.878906	15588.646484
2198.890625	15841.473633
2197.902344	15750.387695
2196.912109	15818.579102
2195.923828	15846.310547
2194.933594	15995.324219
2193.945313	15745.101563
2192.955078	15878.924805
2191.964844	15724.778320
2190.974609	15828.257813
2189.984375	15411.585938
2188.994141	15560.520508
2188.003906	15873.466797
2187.013672	15699.255859
2186.023438	15898.532227
2185.031250	15880.785156
2184.041016	15449.378906
2183.048828	15595.635742
2182.058594	15524.994141
2181.066406	15956.074219
2180.074219	15592.995117
2179.082031	15449.298828
2178.089844	15711.347656
2177.097656	15726.403320
2176.105469	15895.114258
2175.113281	16124.216797
2174.121094	15867.229492
2173.126953	16126.473633
2172.134766	16098.651367
2171.140625	15831.725586
2170.148438	15615.217773
2169.154297	15685.620117
2168.160156	15833.987305
2167.166016	15886.722656
2166.171875	16271.407227
2165.177734	15997.169922
2164.183594	15883.921875
2163.189453	15903.935547
2162.195313	15951.586914
2161.199219	15979.120117
2160.205078	15624.754883
2159.208984	15961.308594
2158.214844	15830.594727
2157.218750	15697.412109
2156.222656	15890.671875
2155.226563	15998.516602
2154.230469	16216.762695
2153.234375	16354.630859
2152.238281	16096.012695
2151.242188	16065.771484
2150.244141	16075.672852
2149.248047	16090.584961
2148.251953	16012.716797
2147.253906	16100.337891
2146.255859	15413.376953
2145.259766	15483.524414
2144.261719	15982.143555
2143.263672	16210.013672
2142.265625	16420.273438
2141.267578	16041.885742
2140.269531	16207.028320
2139.269531	16154.288086
2138.271484	16114.082031
2137.273438	16066.379883
2136.273438	16379.056641
2135.275391	16151.172852
2134.275391	16233.575195
2133.275391	16088.331055
2132.277344	16025.664063
2131.277344	15687.965820
2130.277344	15772.887695
2129.277344	16000.261719
2128.275391	16125.090820
2127.275391	16319.846680
2126.275391	16284.682617
2125.273438	16299.490234
2124.273438	16201.900391
2123.271484	16106.839844
2122.271484	16338.886719
2121.269531	16061.599609
2120.267578	16193.738281
2119.265625	16255.958984
2118.263672	16013.751953
2117.261719	15676.824219
2116.259766	15993.516602
2115.257813	15963.453125
2114.253906	15970.799805
2113.251953	16207.507813
2112.248047	16130.060547
2111.246094	16129.899414
2110.242188	16172.097656
2109.238281	16171.928711
2108.236328	15982.439453
2107.232422	16323.514648
2106.228516	16290.946289
2105.224609	16213.571289
2104.218750	16198.455078
2103.214844	16295.348633
2102.210938	16043.809570
2101.205078	16148.160156
2100.201172	15906.677734
2099.195313	15752.331055
2098.189453	16122.778320
2097.185547	16147.475586
2096.179688	15963.331055
2095.173828	16196.845703
2094.167969	16027.664063
2093.162109	16139.330078
2092.156250	16168.970703
2091.148438	15806.119141
2090.142578	15907.830078
2089.134766	15962.326172
2088.128906	16103.702148
2087.121094	15664.142578
2086.115234	15711.203125
2085.107422	16108.156250
2084.099609	16013.699219
2083.091797	15887.021484
2082.083984	15673.572266
2081.076172	15599.071289
2080.068359	15903.969727
2079.058594	15774.912109
2078.050781	15683.079102
2077.041016	15816.804688
2076.033203	15965.353516
2075.023438	16118.808594
2074.013672	16150.833008
2073.005859	16078.824219
2071.996094	16222.277344
2070.986328	15773.943359
2069.976563	16073.354492
2068.966797	16085.556641
2067.955078	15845.337891
2066.945313	15778.396484
2065.935547	15864.855469
2064.923828	16087.325195
2063.912109	15842.316406
2062.902344	15958.392578
2061.890625	15770.345703
2060.878906	15631.795898
2059.867188	15945.561523
2058.855469	15700.774414
2057.843750	15638.892578
2056.832031	15586.911133
2055.820313	15858.488281
2054.806641	16001.568359
2053.794922	15566.860352
2052.781250	16011.104492
2051.769531	16018.337891
2050.755859	15862.697266
2049.742188	16114.218750
2048.730469	15904.339844
2047.716797	15955.981445
2046.703125	15945.952148
2045.687500	16039.486328
2044.673828	15955.486328
2043.660156	16021.873047
2042.646484	15772.781250
2041.630859	16125.009766
2040.617188	16097.713867
2039.601563	15991.602539
2038.585938	15814.101563
2037.570313	15774.556641
2036.556641	15895.057617
2035.541016	15867.820313
2034.523438	15727.373047
2033.507813	15742.004883
2032.492188	15722.185547
2031.476563	16068.916992
2030.458984	15889.173828
2029.443359	15933.278320
2028.425781	15832.296875
2027.410156	15819.851563
2026.392578	15918.020508
2025.375000	15962.088867
2024.357422	15922.597656
2023.339844	15765.193359
2022.322266	15878.041992
2021.304688	15922.085938
2020.287109	15889.992188
2019.267578	15862.818359
2018.250000	15931.389648
2017.230469	15818.314453
2016.212891	15705.276367
2015.193359	15894.061523
2014.173828	16048.439453
2013.154297	15773.537109
2012.134766	15962.215820
2011.115234	15697.225586
2010.095703	15738.762695
2009.076172	15424.873047
2008.056641	15753.172852
2007.035156	15544.747070
2006.015625	15620.578125
2004.994141	15426.938477
2003.974609	15762.367188
2002.953125	15632.433594
2001.931641	15350.748047
2000.910156	15536.701172
1999.888672	15370.155273
1998.867188	15695.525391
1997.845703	15472.733398
1996.824219	15582.707031
1995.800781	15724.439453
1994.779297	15142.270508
1993.755859	15335.374023
1992.734375	15447.740234
1991.710938	15183.655273
1990.687500	15271.569336
1989.666016	15220.178711
1988.642578	15608.550781
1987.619141	15513.153320
1986.595703	15283.463867
1985.570313	15078.268555
1984.546875	15002.535156
1983.523438	15285.656250
1982.498047	15051.272461
1981.474609	15287.927734
1980.449219	14907.231445
1979.423828	14997.466797
1978.400391	14885.233398
1977.375000	15202.231445
1976.349609	15377.708008
1975.324219	14970.493164
1974.296875	15050.891602
1973.271484	14877.815430
1972.246094	14719.415039
1971.218750	15177.421875
1970.193359	15048.253906
1969.166016	15048.202148
1968.140625	15133.374023
1967.113281	15101.659180
1966.085938	15106.465820
1965.058594	15330.309570
1964.031250	14875.169922
1963.003906	15021.122070
1961.976563	14709.704102
1960.949219	14967.513672
1959.919922	15072.037109
1958.892578	14870.173828
1957.863281	14843.406250
1956.835938	15015.952148
1955.806641	14923.554688
1954.777344	15144.624023
1953.748047	15188.278320
1952.718750	14993.880859
1951.689453	15171.113281
1950.660156	15003.491211
1949.630859	14816.502930
1948.599609	15054.359375
1947.570313	14814.030273
1946.539063	15071.219727
1945.509766	14862.505859
1944.478516	15158.413086
1943.447266	15017.663086
1942.417969	14988.504883
1941.386719	15063.611328
1940.355469	14952.033203
1939.324219	14775.051758
1938.291016	14767.761719
1937.259766	15097.259766
1936.228516	15031.777344
1935.195313	15109.220703
1934.164063	14939.622070
1933.130859	14990.419922
1932.097656	14987.939453
1931.064453	15111.327148
1930.033203	15256.455078
1929.000000	14898.231445
1927.966797	14888.508789
1926.931641	14675.598633
1925.898438	14861.815430
1924.865234	14856.937500
1923.830078	15180.872070
1922.796875	14844.769531
1921.761719	15183.098633
1920.728516	15112.923828
1919.693359	15066.931641
1918.658203	14946.068359
1917.623047	15301.061523
1916.587891	15015.983398
1915.552734	15414.308594
1914.517578	15047.224609
1913.480469	15201.625977
1912.445313	15020.523438
1911.408203	15186.942383
1910.373047	14916.637695
1909.335938	14904.519531
1908.298828	15041.932617
1907.263672	15220.291016
1906.226563	15133.388672
1905.189453	15116.419922
1904.152344	15005.461914
1903.113281	15051.171875
1902.076172	15248.653320
1901.039063	15421.980469
1900.000000	15460.372070
1898.962891	15188.100586
1897.923828	15378.204102
1896.886719	15142.145508
1895.847656	14920.606445
1894.808594	15096.218750
1893.769531	15084.093750
1892.730469	14932.439453
1891.691406	15100.745117
1890.650391	15153.557617
1889.611328	15360.243164
1888.572266	15049.967773
1887.531250	15047.474609
1886.492188	14799.839844
1885.451172	15016.056641
1884.410156	15184.150391
1883.369141	14917.397461
1882.328125	15063.834961
1881.287109	14636.297852
1880.246094	14727.509766
1879.205078	14943.521484
1878.164063	14967.446289
1877.121094	15096.954102
1876.080078	14945.690430
1875.037109	15161.520508
1873.996094	15108.637695
1872.953125	15178.079102
1871.910156	15403.352539
1870.867188	14830.221680
1869.824219	14985.964844
1868.781250	14971.498047
1867.738281	15009.750977
1866.695313	15081.533203
1865.650391	14707.746094
1864.607422	14827.453125
1863.562500	14980.643555
1862.519531	14882.391602
1861.474609	14772.203125
1860.429688	14946.866211
1859.384766	14944.387695
1858.339844	14755.286133
1857.294922	14951.393555
1856.250000	14999.142578
1855.205078	15003.830078
1854.158203	14822.013672
1853.113281	14996.462891
1852.068359	14941.390625
1851.021484	14764.454102
1849.974609	14807.404297
1848.927734	14740.444336
1847.882813	14654.396484
1846.835938	14668.683594
1845.789063	14587.451172
1844.740234	14432.233398
1843.693359	14429.838867
1842.646484	14520.525391
1841.599609	14637.430664
1840.550781	14374.940430
1839.501953	14510.914063
1838.455078	14408.333008
1837.406250	14229.474609
1836.357422	14389.246094
1835.308594	14229.520508
1834.259766	14241.459961
1833.210938	14308.207031
1832.162109	14119.981445
1831.113281	14079.520508
1830.062500	13391.189453
1829.013672	13112.708984
1827.962891	13331.978516
1826.914063	13908.285156
1825.863281	14236.844727
1824.812500	14391.558594
1823.761719	14434.380859
1822.710938	14384.402344
1821.660156	14236.909180
1820.609375	14146.545898
1819.558594	14229.804688
1818.505859	14310.657227
1817.455078	14298.772461
1816.402344	14103.878906
1815.351563	13790.229492
1814.298828	13673.891602
1813.246094	13467.318359
1812.193359	12963.912109
1811.140625	12643.534180
1810.087891	13268.282227
1809.035156	13940.302734
1807.982422	14037.680664
1806.927734	14438.799805
1805.875000	14350.979492
1804.820313	14341.478516
1803.767578	14201.517578
1802.712891	14355.688477
1801.658203	14538.262695
1800.603516	14237.117188
1799.548828	14405.426758
1798.494141	14595.010742
1797.439453	14564.149414
1796.384766	14244.244141
1795.330078	14320.050781
1794.273438	14225.299805
1793.218750	14185.045898
1792.162109	14537.848633
1791.105469	14483.351563
1790.050781	14514.082031
1788.994141	14748.324219
1787.937500	14513.990234
1786.880859	14580.185547
1785.824219	14494.974609
1784.765625	14544.594727
1783.708984	14556.365234
1782.652344	14754.901367
1781.593750	14653.169922
1780.535156	14563.288086
1779.478516	14277.306641
1778.419922	14801.796875
1777.361328	14593.822266
1776.302734	14402.450195
1775.244141	14763.716797
1774.185547	14513.352539
1773.126953	14423.595703
1772.066406	14444.799805
1771.007813	14668.945313
1769.949219	14489.545898
1768.888672	14645.195313
1767.828125	14661.628906
1766.769531	14602.591797
1765.708984	14732.206055
1764.648438	14647.243164
1763.587891	14574.093750
1762.527344	14590.523438
1761.464844	14722.408203
1760.404297	14557.398438
1759.343750	14931.866211
1758.281250	14790.427734
1757.220703	14571.328125
1756.158203	14486.500977
1755.095703	14773.631836
1754.033203	14740.577148
1752.970703	14521.629883
1751.908203	14389.809570
1750.845703	14488.569336
1749.783203	14688.433594
1748.720703	14584.869141
1747.656250	14565.983398
1746.593750	14478.928711
1745.529297	14586.991211
1744.466797	14474.110352
1743.402344	14546.890625
1742.337891	14737.112305
1741.273438	14610.167969
1740.208984	14429.249023
1739.144531	14412.758789
1738.080078	14607.569336
1737.013672	14607.485352
1735.949219	14633.216797
1734.884766	14447.749023
1733.818359	14546.229492
1732.751953	14363.182617
1731.687500	14433.499023
1730.621094	14290.396484
1729.554688	14691.289063
1728.488281	14698.219727
1727.421875	14444.983398
1726.353516	14698.011719
1725.287109	14379.253906
1724.220703	14597.068359
1723.152344	14536.081055
1722.085938	14437.643555
1721.017578	14636.606445
1719.949219	14500.726563
1718.880859	14327.440430
1717.814453	14006.771484
1716.744141	13985.719727
1715.675781	14397.487305
1714.607422	14451.228516
1713.539063	14411.401367
1712.468750	14425.369141
1711.400391	14514.146484
1710.330078	14521.079102
1709.261719	14387.776367
1708.191406	14357.337891
1707.121094	14277.843750
1706.050781	14170.343750
1704.980469	14466.944336
1703.910156	14389.805664
1702.839844	14410.756836
1701.769531	14191.249023
1700.697266	14361.606445
1699.626953	14398.885742
1698.554688	14457.151367
1697.482422	14445.411133
1696.412109	14468.661133
1695.339844	14445.259766
1694.267578	14291.288086
1693.195313	14377.498047
1692.123047	14323.820313
1691.048828	14211.894531
1689.976563	14267.780273
1688.904297	14300.348633
1687.830078	14332.906250
1686.757813	14286.264648
1685.683594	14132.521484
1684.609375	14195.355469
1683.535156	14279.120117
1682.460938	14160.365234
1681.386719	14299.956055
1680.312500	14316.184570
1679.238281	14341.712891
1678.164063	14383.513672
1677.087891	14385.766602
1676.013672	14362.440430
1674.937500	14227.534180
1673.863281	14545.923828
1672.787109	14329.691406
1671.710938	14297.093750
1670.634766	14078.650391
1669.558594	14324.843750
1668.482422	14396.772461
1667.404297	14466.354492
1666.328125	14285.172852
1665.251953	14333.857422
1664.173828	14294.332031
1663.097656	14243.215820
1662.019531	14050.590820
1660.941406	14027.368164
1659.863281	14236.086914
1658.785156	14201.246094
1657.707031	14131.637695
1656.628906	14296.188477
1655.550781	14136.192383
1654.470703	14180.181641
1653.392578	14136.108398
1652.312500	13990.118164
1651.234375	14233.303711
1650.154297	14124.399414
1649.074219	13990.059570
1647.994141	13971.518555
1646.914063	14036.312500
1645.833984	14422.772461
1644.753906	14223.681641
1643.673828	14200.484375
1642.593750	14149.538086
1641.511719	13943.652344
1640.431641	14006.070313
1639.349609	14003.731445
1638.267578	14015.262695
1637.185547	14165.462891
1636.103516	14105.326172
1635.021484	13673.227539
1633.939453	13952.771484
1632.857422	14052.066406
1631.775391	14049.719727
1630.693359	13798.010742
1629.609375	13994.239258
1628.527344	13756.471680
1627.443359	13998.794922
1626.359375	13851.092773
1625.275391	13890.303711
1624.191406	14042.525391
1623.107422	13652.736328
1622.023438	13823.391602
1620.939453	13685.061523
1619.855469	13537.556641
1618.769531	13934.001953
1617.685547	13698.940430
1616.599609	13777.288086
1615.515625	13565.366211
1614.429688	13519.339844
1613.343750	13620.704102
1612.257813	13572.379883
1611.171875	13438.899414
1610.085938	13616.176758
1609.000000	13597.791992
1607.912109	13340.128906
1606.826172	13701.367188
1605.738281	13595.574219
1604.652344	13572.604492
1603.564453	13384.093750
1602.476563	13425.535156
1601.388672	13494.544922
1600.300781	13499.182617
1599.212891	13230.387695
1598.125000	13062.765625
1597.037109	13276.497070
1595.949219	13267.386719
1594.859375	13221.540039
1593.771484	13453.502930
1592.681641	13336.481445
1591.591797	13322.775391
1590.501953	13575.254883
1589.412109	13419.267578
1588.322266	13472.076172
1587.232422	13653.304688
1586.142578	13472.156250
1585.052734	13169.552734
1583.962891	13435.555664
1582.871094	13307.249023
1581.779297	13199.609375
1580.689453	13566.287109
1579.597656	13470.092773
1578.505859	13385.382813
1577.414063	13369.402344
1576.322266	13312.212891
1575.230469	13383.243164
1574.138672	13211.624023
1573.046875	13522.941406
1571.953125	13502.373047
1570.861328	13685.422852
1569.767578	13561.901367
1568.673828	13404.115234
1567.582031	13408.731445
1566.488281	13415.631836
1565.394531	13280.806641
1564.300781	13392.856445
1563.207031	13591.702148
1562.111328	13482.045898
1561.017578	13664.819336
1559.923828	13644.259766
1558.828125	13699.064453
1557.732422	13826.911133
1556.638672	13879.382813
1555.542969	13991.179688
1554.447266	13950.041992
1553.351563	13781.146484
1552.255859	13913.432617
1551.160156	13630.553711
1550.062500	13619.149414
1548.966797	13505.142578
1547.871094	13605.468750
1546.773438	13851.639648
1545.675781	13641.932617
1544.580078	13678.383789
1543.482422	13313.857422
1542.384766	13491.575195
1541.287109	13436.933594
1540.189453	13266.179688
1539.089844	13423.325195
1537.992188	13528.061523
1536.894531	13559.934570
1535.794922	13439.333984
1534.697266	13625.919922
1533.597656	13500.798828
1532.498047	13496.261719
1531.398438	13428.053711
1530.298828	13673.629883
1529.199219	13216.687500
1528.099609	13323.570313
1527.000000	13291.794922
1525.898438	13450.886719
1524.798828	13471.348633
1523.697266	13457.734375
1522.597656	13330.575195
1521.496094	13471.387695
1520.394531	13693.878906
1519.292969	13830.042969
1518.191406	13618.935547
1517.089844	13423.781250
1515.988281	13330.783203
1514.886719	13303.596680
1513.783203	13339.920898
1512.681641	13339.951172
1511.578125	13222.088867
1510.476563	13528.153320
1509.373047	13185.924805
1508.269531	13263.024414
1507.166016	13131.658203
1506.062500	13238.188477
1504.958984	13088.750000
1503.855469	12914.452148
1502.750000	13018.700195
1501.646484	12781.086914
1500.541016	12984.909180
1499.437500	13111.720703
1498.332031	13086.894531
1497.226563	12774.774414
1496.121094	12924.174805
1495.015625	12732.042969
1493.910156	12757.040039
1492.804688	12917.669922
1491.699219	12865.774414
1490.591797	12836.496094
1489.486328	12707.806641
1488.378906	12766.671875
1487.271484	12868.434570
1486.166016	12965.645508
1485.058594	12891.211914
1483.951172	12968.066406
1482.843750	12916.229492
1481.736328	12929.859375
1480.626953	12970.562500
1479.519531	12925.518555
1478.412109	12751.909180
1477.302734	12808.409180
1476.195313	12957.344727
1475.085938	12718.431641
1473.976563	12533.701172
1472.867188	12806.570313
1471.757813	12513.717773
1470.648438	12912.672852
1469.539063	12698.746094
1468.427734	12766.436523
1467.318359	12696.733398
1466.208984	12667.581055
1465.097656	12660.951172
1463.986328	12544.031250
1462.876953	12879.496094
1461.765625	12906.583984
1460.654297	12969.657227
1459.542969	13016.963867
1458.431641	13142.968750
1457.318359	13275.675781
1456.207031	13282.438477
1455.095703	12985.740234
1453.982422	12850.958984
1452.869141	12806.104492
1451.757813	12844.393555
1450.644531	12943.319336
1449.531250	12831.092773
1448.417969	13010.828125
1447.304688	12799.838867
1446.191406	12694.425781
1445.076172	12865.114258
1443.962891	12849.487305
1442.847656	12934.831055
1441.734375	12750.949219
1440.619141	12818.335938
1439.503906	12661.445313
1438.390625	12618.958008
1437.275391	12491.295898
1436.158203	12466.781250
1435.042969	12711.200195
1433.927734	12805.411133
1432.812500	12720.368164
1431.695313	12919.821289
1430.580078	12769.838867
1429.462891	12532.580078
1428.345703	12911.065430
1427.228516	12821.596680
1426.113281	12544.162109
1424.996094	12835.184570
1423.876953	12810.653320
1422.759766	12922.581055
1421.642578	12842.128906
1420.523438	12784.064453
1419.406250	12466.669922
1418.287109	12600.931641
1417.169922	12645.748047
1416.050781	12710.659180
1414.931641	12726.395508
1413.812500	12605.857422
1412.693359	12514.395508
1411.574219	12005.367188
1410.453125	12612.891602
1409.333984	12360.741211
1408.214844	12349.733398
1407.093750	12309.716797
1405.972656	12448.214844
1404.853516	12459.504883
1403.732422	12544.398438
1402.611328	12571.278320
1401.490234	12379.632813
1400.369141	12551.441406
1399.246094	12455.709961
1398.125000	12478.127930
1397.003906	12380.211914
1395.880859	12351.393555
1394.757813	12327.038086
1393.636719	12238.104492
1392.513672	12089.078125
1391.390625	12089.268555
1390.267578	12276.444336
1389.144531	12294.407227
1388.021484	12370.220703
1386.896484	12339.214844
1385.773438	12337.136719
1384.648438	12341.730469
1383.525391	12497.539063
1382.400391	12337.574219
1381.275391	12528.897461
1380.150391	12424.545898
1379.025391	12373.563477
1377.900391	12355.925781
1376.775391	12316.078125
1375.650391	12360.647461
1374.523438	12240.864258
1373.398438	12303.193359
1372.271484	12456.521484
1371.146484	12287.949219
1370.019531	12190.450195
1368.892578	12419.161133
1367.765625	12277.300781
1366.638672	12370.612305
1365.511719	12355.220703
1364.384766	12517.226563
1363.255859	12395.397461
1362.128906	12535.173828
1361.000000	12506.464844
1359.873047	12267.254883
1358.744141	12495.602539
1357.615234	12442.547852
1356.486328	12396.154297
1355.357422	12305.488281
1354.228516	12460.610352
1353.099609	12569.192383
1351.968750	12593.632813
1350.839844	12421.114258
1349.708984	12445.570313
1348.580078	12312.953125
1347.449219	12379.442383
1346.318359	12510.041016
1345.187500	12399.588867
1344.056641	12328.966797
1342.925781	12393.196289
1341.794922	12333.647461
1340.664063	12391.225586
1339.531250	12294.140625
1338.400391	12444.474609
1337.267578	12466.667969
1336.136719	12473.397461
1335.003906	12588.300781
1333.871094	12623.702148
1332.738281	12586.260742
1331.605469	12520.146484
1330.472656	12495.971680
1329.337891	12449.746094
1328.205078	12352.810547
1327.072266	12555.798828
1325.937500	12439.035156
1324.802734	12485.431641
1323.669922	12547.239258
1322.535156	12443.755859
1321.400391	12481.313477
1320.265625	12514.452148
1319.130859	12439.658203
1317.994141	12373.696289
1316.859375	12622.606445
1315.722656	12402.540039
1314.587891	12497.290039
1313.451172	12488.578125
1312.314453	12237.839844
1311.179688	12295.170898
1310.042969	12407.469727
1308.906250	12409.772461
1307.769531	12242.768555
1306.630859	12392.391602
1305.494141	12339.743164
1304.355469	12205.799805
1303.218750	12260.868164
1302.080078	12197.283203
1300.943359	12072.216797
1299.804688	12076.765625
1298.666016	12333.831055
1297.527344	12208.802734
1296.388672	12039.916016
1295.248047	12134.448242
1294.109375	12299.166016
1292.970703	12123.766602
1291.830078	12115.136719
1290.691406	12086.771484
1289.550781	12005.787109
1288.410156	12124.343750
1287.269531	11982.000977
1286.128906	12085.178711
1284.988281	11861.809570
1283.847656	12032.892578
1282.705078	11713.219727
1281.564453	11684.957031
1280.423828	11621.665039
1279.281250	11764.208008
1278.138672	11821.326172
1276.996094	12040.392578
1275.855469	11622.562500
1274.712891	11395.230469
1273.568359	11625.195313
1272.425781	11750.092773
1271.283203	11820.274414
1270.140625	11770.170898
1268.996094	11866.558594
1267.851563	12174.936523
1266.708984	11742.346680
1265.564453	11742.545898
1264.419922	11744.929688
1263.275391	11437.136719
1262.130859	12022.687500
1260.986328	11896.189453
1259.839844	12062.285156
1258.695313	12095.169922
1257.550781	12056.021484
1256.404297	12112.899414
1255.257813	12211.209961
1254.113281	12174.242188
1252.966797	12036.959961
1251.820313	11976.045898
1250.673828	11843.204102
1249.525391	11793.242188
1248.378906	11889.325195
1247.232422	12188.037109
1246.083984	12050.889648
1244.937500	12321.153320
1243.789063	12234.123047
1242.640625	12195.032227
1241.492188	12044.910156
1240.343750	12064.641602
1239.195313	12136.602539
1238.046875	12232.477539
1236.898438	12521.969727
1235.748047	12519.849609
1234.599609	12482.928711
1233.449219	12680.890625
1232.300781	12498.271484
1231.150391	12539.634766
1230.000000	12348.405273
1228.849609	12465.843750
1227.699219	12667.985352
1226.548828	12707.118164
1225.398438	12707.137695
1224.246094	12724.532227
1223.095703	12733.234375
1221.943359	12765.814453
1220.791016	12796.211914
1219.640625	12802.725586
1218.488281	12820.086914
1217.335938	13106.469727
1216.183594	12813.574219
1215.031250	13095.523438
1213.876953	12911.151367
1212.724609	13034.714844
1211.570313	13127.887695
1210.417969	12954.439453
1209.263672	12917.572266
1208.109375	12856.883789
1206.957031	13090.829102
1205.802734	13355.018555
1204.646484	13287.788086
1203.492188	13246.563477
1202.337891	13291.943359
1201.183594	13542.930664
1200.027344	13603.393555
1198.873047	13393.371094
1197.716797	13414.897461
1196.560547	13594.313477
1195.404297	13501.178711
1194.248047	13442.671875
1193.091797	13758.188477
1191.935547	13481.343750
1190.779297	13522.280273
1189.621094	13833.300781
1188.464844	13969.220703
1187.306641	13964.692383
1186.150391	14018.475586
1184.992188	14288.170898
1183.833984	14102.237305
1182.675781	14086.894531
1181.517578	14188.098633
1180.359375	14181.376953
1179.199219	14541.427734
1178.041016	14476.405273
1176.882813	14396.305664
1175.722656	14484.431641
1174.562500	14611.334961
1173.404297	14582.988281
1172.244141	14679.657227
1171.083984	14683.630859
1169.923828	14661.749023
1168.761719	14506.313477
1167.601563	14926.000977
1166.441406	14983.764648
1165.279297	15015.670898
1164.119141	15006.664063
1162.957031	15163.392578
1161.794922	15528.809570
1160.632813	15229.249023
1159.470703	15506.328125
1158.308594	15645.655273
1157.146484	15337.623047
1155.984375	15601.640625
1154.820313	15859.118164
1153.658203	15953.150391
1152.494141	15948.292969
1151.330078	15975.666016
1150.167969	15841.904297
1149.003906	15972.389648
1147.839844	16111.419922
1146.675781	16338.439453
1145.509766	16438.714844
1144.345703	16569.007813
1143.181641	16471.761719
1142.015625	16814.437500
1140.849609	17178.449219
1139.685547	17033.957031
1138.519531	17221.941406
1137.353516	17349.820313
1136.187500	17702.771484
1135.021484	17502.552734
1133.855469	17810.349609
1132.687500	17758.037109
1131.521484	17830.007813
1130.353516	18021.912109
1129.187500	18100.238281
1128.019531	18563.992188
1126.851563	18500.888672
1125.683594	19009.369141
1124.515625	18941.929688
1123.347656	19152.705078
1122.179688	19318.478516
1121.009766	19554.791016
1119.841797	19572.855469
1118.671875	19841.119141
1117.503906	19576.890625
1116.333984	19783.066406
1115.164063	20467.953125
1113.994141	20759.386719
1112.824219	21116.958984
1111.654297	21252.228516
1110.484375	21481.435547
1109.312500	21548.257813
1108.142578	21732.494141
1106.970703	21935.880859
1105.800781	22109.316406
1104.628906	22754.337891
1103.457031	22709.925781
1102.285156	22991.941406
1101.113281	23391.179688
1099.941406	23935.304688
1098.769531	23956.820313
1097.595703	24119.039063
1096.423828	24786.394531
1095.250000	24694.794922
1094.076172	25103.986328
1092.904297	25170.021484
1091.730469	25463.960938
1090.556641	26092.179688
1089.382813	26051.539063
1088.207031	26428.208984
1087.033203	26743.019531
1085.859375	27266.298828
1084.683594	27797.910156
1083.509766	27905.943359
1082.333984	28441.517578
1081.158203	28517.498047
1079.982422	28899.673828
1078.806641	28881.998047
1077.630859	29212.958984
1076.455078	29448.162109
1075.279297	29863.916016
1074.101563	30084.052734
1072.925781	30240.382813
1071.748047	30420.021484
1070.570313	30856.558594
1069.392578	31239.865234
1068.214844	31139.013672
1067.037109	31479.687500
1065.859375	31474.326172
1064.681641	31636.589844
1063.503906	31811.527344
1062.324219	32262.146484
1061.146484	32583.248047
1059.966797	32768.531250
1058.787109	32962.230469
1057.607422	33189.781250
1056.427734	33023.058594
1055.248047	33362.820313
1054.068359	33439.761719
1052.888672	33353.570313
1051.707031	33638.031250
1050.527344	33585.714844
1049.345703	33601.164063
1048.166016	33824.050781
1046.984375	34180.191406
1045.802734	33977.574219
1044.621094	33923.121094
1043.439453	33655.035156
1042.257813	34243.609375
1041.074219	34068.601563
1039.892578	33942.281250
1038.708984	34207.074219
1037.527344	34061.746094
1036.343750	34093.976563
1035.160156	34280.429688
1033.976563	33940.816406
1032.792969	33873.777344
1031.609375	34138.304688
1030.425781	34212.714844
1029.242188	34086.550781
1028.056641	33572.070313
1026.873047	33802.699219
1025.687500	33495.210938
1024.501953	33616.074219
1023.316406	33291.847656
1022.130859	33197.597656
1020.945313	33415.433594
1019.759766	33177.835938
1018.574219	32818.070313
1017.386719	32867.265625
1016.201172	32796.335938
1015.013672	32636.953125
1013.828125	32005.800781
1012.640625	31930.841797
1011.453125	31948.554688
1010.265625	31164.156250
1009.078125	31615.601563
1007.890625	31250.328125
1006.701172	31547.998047
1005.513672	31140.781250
1004.324219	31255.363281
1003.136719	30850.439453
1001.947266	30790.500000
1000.757813	30413.121094
999.568359	30622.335938
998.378906	30119.013672
997.189453	29973.082031
996.000000	29858.714844
994.808594	29677.166016
993.619141	29525.082031
992.427734	29448.644531
991.238281	29069.902344
990.046875	28964.177734
988.855469	28940.341797
987.664063	28754.933594
986.472656	28473.074219
985.281250	28195.505859
984.089844	27792.191406
982.896484	27229.638672
981.705078	27283.693359
980.511719	27379.654297
979.318359	27027.052734
978.126953	27372.394531
976.933594	27202.195313
975.740234	27226.875000
974.546875	27414.917969
973.351563	26903.449219
972.158203	26704.130859
970.964844	26504.876953
969.769531	26448.021484
968.574219	26324.216797
967.380859	26213.005859
966.185547	26070.455078
964.990234	26036.714844
963.794922	26044.812500
962.599609	25998.541016
961.402344	25433.824219
960.207031	25506.814453
959.009766	25439.757813
957.814453	25514.808594
956.617188	25240.947266
955.419922	25295.117188
954.222656	24987.968750
953.025391	25359.548828
951.828125	24877.125000
950.630859	24743.455078
949.433594	25029.316406
948.234375	24528.414063
947.037109	24755.796875
945.837891	24574.257813
944.638672	24267.646484
943.441406	24267.666016
942.242188	23619.294922
941.042969	23611.085938
939.841797	23942.591797
938.642578	23698.859375
937.443359	23717.722656
936.242188	23253.306641
935.042969	23305.560547
933.841797	23399.441406
932.640625	23641.113281
931.439453	23260.289063
930.238281	23295.853516
929.037109	23150.363281
927.835938	22453.568359
926.634766	22418.521484
925.431641	22522.835938
924.230469	22637.513672
923.027344	22515.125000
921.824219	22529.980469
920.623047	22114.591797
919.419922	21948.714844
918.216797	21942.878906
917.011719	21490.408203
915.808594	21484.652344
914.605469	20822.671875
913.400391	21078.642578
912.197266	21189.210938
910.992188	21119.162109
909.787109	20995.181641
908.582031	20528.886719
907.376953	20475.580078
906.171875	20156.798828
904.966797	20352.431641
903.761719	20274.300781
902.554688	19891.449219
901.349609	19517.019531
900.142578	19360.316406
898.935547	19292.767578
897.728516	19316.392578
896.521484	19018.953125
895.314453	18879.009766
894.107422	18776.384766
892.900391	18578.562500
891.693359	18608.496094
890.484375	18131.378906
889.275391	18064.125000
888.068359	18106.542969
886.859375	18070.343750
885.650391	18298.876953
884.441406	18109.638672
883.232422	17986.623047
882.023438	18215.050781
880.812500	17951.521484
879.603516	18037.296875
878.392578	17823.470703
877.183594	17719.197266
875.972656	17637.677734
874.761719	17374.468750
873.550781	17518.076172
872.339844	17420.115234
871.128906	17332.507813
869.916016	17271.755859
868.705078	17198.646484
867.494141	17226.638672
866.281250	17122.621094
865.068359	17012.453125
863.855469	16704.394531
862.642578	16936.529297
861.429688	16717.210938
860.216797	16726.707031
859.003906	16725.898438
857.791016	16364.587891
856.576172	16460.642578
855.363281	16336.319336
854.148438	16267.629883
852.933594	16225.724609
851.718750	16461.693359
850.503906	16314.817383
849.289063	16186.507813
848.074219	15906.011719
846.859375	15792.212891
845.642578	15386.435547
844.427734	15616.133789
843.210938	16071.885742
841.994141	16122.566406
840.777344	16019.100586
839.560547	15790.333008
838.343750	15900.610352
837.126953	15671.941406
835.910156	15704.161133
834.691406	15446.856445
833.474609	15540.691406
832.255859	15691.964844
831.039063	15949.902344
829.820313	15842.516602
828.601563	15913.650391
827.382813	15902.711914
826.164063	16109.163086
824.943359	16227.372070
823.724609	16044.173828
822.505859	15943.028320
821.285156	16079.648438
820.064453	16212.123047
818.845703	16508.447266
817.625000	16343.791016
816.404297	16306.166016
815.183594	16397.554688
813.960938	16177.723633
812.740234	16643.691406
811.519531	16518.035156
810.296875	16897.843750
809.074219	17001.324219
807.853516	16924.761719
806.630859	17218.404297
805.408203	17289.056641
804.185547	17316.751953
802.962891	17150.244141
801.738281	17196.345703
800.515625	17275.125000
799.291016	17355.919922
798.068359	17301.867188
796.843750	17307.060547
795.619141	17551.167969
794.394531	17633.900391
793.169922	17718.642578
791.945313	17546.195313
790.720703	17643.166016
789.496094	17589.125000
788.269531	17447.384766
787.042969	17642.218750
785.818359	17769.693359
784.591797	17874.695313
783.365234	17798.234375
782.138672	18078.474609
780.912109	17879.734375
779.685547	18027.429688
778.457031	17975.435547
777.230469	17817.548828
776.001953	17995.720703
774.775391	18245.093750
773.546875	18134.062500
772.318359	17968.111328
771.089844	18081.013672
769.861328	18073.832031
768.632813	18044.273438
767.402344	17990.318359
766.173828	18009.169922
764.943359	18028.019531
763.714844	18046.871094
762.484375	18065.720703
761.253906	18084.572266
760.023438	18396.394531
758.792969	18332.281250
757.562500	18710.980469
756.332031	18366.582031
755.099609	18720.777344
753.869141	18500.332031
752.636719	18588.484375
751.404297	18453.371094
750.173828	18598.312500
748.941406	18591.050781
747.708984	18825.164063
746.474609	18876.675781
745.242188	19128.908203
744.009766	18939.099609
742.775391	19053.400391
741.542969	19137.259766
740.308594	19350.771484
739.074219	18836.906250
737.839844	19188.132813
736.605469	19314.439453
735.371094	19100.523438
734.136719	19382.687500
732.900391	19073.697266
731.666016	19481.242188
730.429688	19591.197266
729.195313	19838.687500
727.958984	19699.740234
726.722656	19872.292969
725.486328	19939.638672
724.250000	19564.203125
723.013672	19758.923828
721.775391	19864.652344
720.539063	20166.347656
719.300781	20611.382813
718.064453	20308.869141
716.826172	20359.896484
715.587891	20398.789063
714.349609	20817.226563
713.111328	20765.189453
711.873047	20771.697266
710.632813	20963.849609
709.394531	20954.179688
708.154297	21192.626953
706.916016	20882.410156
705.675781	21390.996094
704.435547	21310.689453
703.195313	21254.601563
701.955078	20857.919922
700.714844	21106.207031
699.472656	21606.253906
698.232422	21699.214844
696.990234	21971.396484
695.750000	21993.781250
694.507813	22193.333984
693.265625	22431.064453
692.023438	22543.925781
690.781250	22757.365234
689.539063	22882.201172
688.296875	22803.820313
687.052734	23079.449219
685.810547	23334.875000
684.566406	23513.808594
683.322266	23244.394531
682.080078	23708.685547
680.835938	23531.769531
679.589844	23847.166016
678.345703	24102.189453
677.101563	24290.841797
675.857422	24419.183594
674.611328	24822.548828
673.365234	24768.074219
672.121094	24703.580078
670.875000	24996.314453
669.628906	25068.238281
668.382813	25420.988281
667.136719	25432.640625
665.888672	25229.710938
664.642578	25588.261719
663.396484	25325.234375
662.148438	25621.507813
660.900391	25945.734375
659.652344	26235.787109
658.404297	26373.484375
657.156250	26569.220703
655.908203	26226.187500
654.660156	26556.029297
653.412109	26721.601563
652.162109	26777.027344
650.912109	26652.324219
649.664063	26899.826172
648.414063	26747.134766
647.164063	26994.531250
645.914063	27349.833984
644.664063	27249.128906
643.412109	27502.304688
642.162109	27577.500000
640.912109	27570.730469
639.660156	27547.978516
638.408203	27709.027344
637.156250	27646.306641
635.906250	27893.156250
634.652344	28022.109375
633.400391	28115.083984
632.148438	28122.195313
630.896484	27859.884766
629.642578	27855.062500
628.390625	28374.927734
627.136719	28264.298828
625.882813	28580.492188
624.628906	28808.837891
623.375000	28724.107422
622.121094	28753.019531
620.867188	28767.970703
619.611328	29035.974609
618.357422	28811.800781
617.101563	29376.496094
615.845703	29564.589844
614.591797	29404.156250
613.335938	29420.962891
612.080078	29833.876953
610.822266	30182.960938
609.566406	30295.132813
608.310547	30540.560547
607.052734	30754.076172
605.796875	31094.800781
604.539063	30751.376953
603.281250	31066.134766
602.023438	31124.361328
600.765625	31448.880859
599.507813	31550.732422
598.250000	31771.753906
596.990234	31947.009766
595.732422	32630.628906
594.472656	32374.777344
593.212891	32913.152344
591.955078	32984.863281
590.695313	33225.246094
589.435547	33364.343750
588.173828	33596.636719
586.914063	33572.960938
585.654297	33963.796875
584.392578	34082.835938
583.132813	34404.054688
581.871094	34364.390625
580.609375	34568.515625
579.347656	34701.234375
578.085938	35041.929688
576.824219	35487.496094
575.562500	35267.441406
574.298828	35516.773438
573.037109	35540.308594
571.773438	35698.445313
570.509766	35822.878906
569.248047	35834.472656
567.984375	36115.136719
566.718750	36168.214844
565.455078	36302.363281
564.191406	36462.171875
562.927734	36730.664063
561.662109	36900.222656
560.396484	37036.121094
559.132813	36976.343750
557.867188	37185.281250
556.601563	37196.605469
555.335938	37279.027344
554.070313	37665.523438
552.802734	37469.449219
551.537109	38063.046875
550.269531	38567.621094
549.003906	38671.433594
547.736328	38575.937500
546.468750	38569.238281
545.201172	38688.773438
543.933594	39391.960938
542.666016	39976.609375
541.396484	40208.191406
540.128906	40471.230469
538.859375	40678.996094
537.591797	40991.113281
536.322266	41364.187500
535.052734	41731.218750
533.783203	41842.125000
532.513672	42285.734375
531.244141	42105.156250
529.972656	42515.101563
528.703125	42761.570313
527.431641	43826.437500
526.162109	44190.617188
524.890625	44251.781250
523.619141	44674.753906
522.347656	44841.976563
521.076172	44810.593750
519.804688	46219.910156
518.531250	45848.328125
517.259766	46451.410156
515.986328	46910.871094
514.712891	46672.917969
513.441406	47114.507813
512.167969	47210.378906
510.894531	47300.324219
509.621094	47539.406250
508.345703	48119.859375
507.072266	47803.453125
505.796875	47983.464844
504.523438	48102.609375
503.248047	48486.453125
501.972656	48764.281250
500.697266	48618.578125
499.421875	48761.042969
498.146484	48064.718750
496.871094	48577.539063
495.593750	47995.109375
494.318359	48678.160156
493.041016	48381.824219
491.765625	48659.269531
490.488281	48848.523438
489.210938	47875.085938
487.933594	47530.164063
486.654297	47426.019531
485.376953	47159.539063
484.099609	47388.000000
482.820313	47409.085938
481.541016	47254.195313
480.263672	47047.472656
478.984375	46840.753906
477.705078	46634.031250
476.425781	46427.312500
475.146484	46220.589844
473.865234	46013.867188
472.585938	45807.148438
471.304688	45600.425781
470.023438	45393.707031
468.744141	45186.984375
467.462891	45477.695313
466.181641	45582.941406
464.900391	44784.925781
463.617188	44572.324219
462.335938	44289.593750
461.054688	43884.121094
459.771484	43428.101563
458.488281	43441.976563
457.205078	43693.597656
455.921875	43446.328125
454.638672	43532.269531
453.355469	43474.042969
452.072266	43314.570313
450.789063	42861.140625
449.503906	43182.671875
448.218750	42688.546875
446.935547	42463.148438
445.650391	42492.718750
444.365234	42294.664063
443.080078	42234.777344
441.794922	42202.136719
440.507813	42006.175781
439.222656	41967.750000
437.935547	41849.644531
436.650391	41482.828125
435.363281	41268.289063
434.076172	41053.750000
432.789063	40839.210938
431.501953	40624.671875
430.214844	40582.640625
428.925781	40794.933594
427.638672	41090.613281
426.349609	40996.117188
425.062500	40694.042969
423.773438	40264.031250
422.484375	40823.378906
421.195313	40670.812500
419.906250	40506.664063
418.615234	40542.246094
417.326172	40424.691406
416.037109	40088.191406
414.746094	40245.890625
413.455078	40052.894531
412.164063	39846.402344
410.873047	39901.417969
409.582031	40010.632813
408.291016	39825.546875
407.000000	39648.972656
405.707031	39472.394531
404.416016	39295.820313
403.123047	39383.753906
401.832031	38833.363281
400.539063	38679.609375
399.246094	39096.304688
397.953125	38666.105469
396.658203	38694.148438
395.365234	38322.140625
394.072266	38336.703125
392.777344	38277.851563
391.482422	38018.136719
390.187500	38003.773438
388.894531	37805.984375
387.597656	37928.722656
386.302734	37758.035156
385.007813	37786.175781
383.712891	37584.699219
382.416016	37391.003906
381.121094	37318.890625
379.824219	37428.082031
378.527344	37662.562500
377.230469	37900.812500
375.933594	37527.968750
374.636719	36897.019531
373.337891	36919.476563
372.041016	36826.332031
370.742188	37012.507813
369.445313	37271.800781
368.146484	37479.011719
366.847656	37493.636719
365.548828	37415.867188
364.250000	37201.484375
362.951172	37218.070313
361.650391	37076.902344
360.351563	36947.320313
359.050781	36881.242188
357.751953	37232.429688
356.451172	36872.191406
355.150391	36836.914063
353.849609	36526.835938
352.548828	36681.843750
351.246094	36677.351563
349.945313	36613.312500
348.642578	36923.777344
347.341797	36709.953125
346.039063	36692.011719
344.736328	36474.457031
343.433594	36308.796875
342.130859	36327.386719
340.828125	36399.683594
339.523438	36402.906250
338.220703	36055.183594
336.916016	36144.742188
335.613281	36297.531250
334.308594	36387.015625
333.003906	36001.203125
331.699219	36109.867188
330.394531	36084.390625
329.089844	35827.160156
327.783203	36184.746094
326.478516	35529.324219
325.171875	35193.832031
323.865234	35153.218750
322.558594	34982.488281
321.251953	34679.789063
319.945313	35104.148438
318.638672	34876.128906
317.332031	34428.265625
316.023438	34693.746094
314.716797	34863.546875
313.408203	34737.023438
312.099609	34392.687500
310.791016	34476.464844
309.482422	34415.027344
308.173828	34305.859375
306.865234	34194.816406
305.556641	34421.765625
304.246094	33938.480469
302.935547	34215.019531
301.626953	34109.789063
300.316406	34670.492188
299.005859	34776.968750
297.695313	34255.894531
296.384766	34413.890625
295.072266	34217.191406
293.761719	34460.925781
292.449219	34153.738281
291.138672	33764.710938
289.826172	33920.746094
288.513672	34343.425781
287.201172	34025.039063
285.888672	33562.031250
284.574219	33885.539063
283.261719	34224.164063
281.947266	33995.472656
280.634766	34427.199219
279.320313	33835.140625
278.005859	33924.324219
276.691406	34247.417969
275.376953	34018.917969
274.062500	33644.093750
272.748047	33624.882813
271.431641	33609.480469
270.117188	33620.687500
268.800781	33572.992188
267.484375	33553.824219
266.167969	33534.652344
264.851563	33515.484375
263.535156	33496.312500
262.218750	33477.144531
260.900391	33457.976563
259.583984	33438.804688
258.265625	33419.636719
256.947266	33605.371094
255.630859	33286.519531
254.312500	33663.738281
252.994141	33365.843750
251.673828	33672.773438
250.355469	33573.988281
249.035156	33865.609375
247.716797	33543.253906
246.396484	33696.488281
245.076172	33567.460938
243.755859	33794.488281
242.435547	33803.699219
241.115234	33833.730469
239.794922	34013.269531
238.474609	33882.402344
237.152344	34092.140625
235.830078	33872.390625
234.509766	33855.093750
233.187500	34257.605469
231.865234	34062.515625
230.542969	34186.964844
229.218750	34273.570313
227.896484	34182.511719
226.572266	34123.605469
225.250000	34191.281250
223.925781	34451.574219
222.601563	34009.312500
221.277344	34137.382813
219.953125	33751.957031
218.628906	33940.421875
217.304688	33921.246094
215.978516	33819.062500
214.654297	33539.593750
213.328125	33595.937500
212.001953	33793.683594
210.675781	33491.738281
209.349609	33992.925781
208.023438	33706.128906
206.697266	33803.839844
205.371094	33707.460938
204.042969	33874.835938
202.714844	33842.511719
201.388672	34009.796875
200.060547	34382.242188
198.732422	34255.722656
197.404297	34255.339844
196.076172	34484.531250
194.746094	34337.359375
193.417969	34713.175781
192.087891	34714.589844
190.757813	34716.003906
189.429688	35014.464844
188.099609	35008.304688
186.769531	35325.402344
185.437500	35191.406250
184.107422	35651.140625
182.777344	35451.390625
181.445313	35486.468750
180.113281	35472.710938
178.783203	35796.890625
177.451172	35574.722656
176.119141	35559.078125
174.787109	35624.121094
173.453125	35298.910156
172.121094	35377.105469
170.787109	35335.242188
169.455078	35548.406250
168.121094	35185.937500
166.787109	35676.468750
165.453125	35495.890625
164.119141	35617.058594
162.785156	36017.324219
161.451172	35752.488281
160.115234	35616.964844
158.779297	35438.425781
157.445313	35870.261719
156.109375	35837.734375
154.773438	36110.273438
153.437500	36042.160156
152.101563	35974.074219
150.763672	35891.042969
149.427734	36189.554688
148.089844	36386.988281
146.753906	36788.125000
145.416016	36533.039063
144.078125	36692.929688
142.740234	36936.839844
141.402344	37044.289063
140.064453	37534.609375
138.724609	38019.148438
137.386719	37863.070313
136.046875	38143.890625
134.707031	38262.222656
133.367188	38511.148438
132.027344	39073.449219
130.687500	39010.589844
129.347656	39070.859375
128.007813	39002.425781
126.666016	39262.179688
125.326172	39506.925781
123.984375	39576.375000
122.642578	39584.300781
121.300781	39513.968750
119.958984	39654.167969
118.617188	39285.828125
117.273438	39822.675781
115.931641	39564.285156
114.587891	39438.160156
113.246094	39446.093750
111.902344	39474.488281
110.558594	39519.617188
109.214844	39750.757813
107.871094	40115.734375
106.525391	39982.199219
105.181641	40122.027344
103.835938	39878.851563
102.492188	40122.730469
101.146484	40498.460938
