#Wave		#Intensity
4002.533203	2153.433838
4001.835938	2078.188965
4001.137695	2138.757568
4000.439453	2177.814941
3999.742188	2234.766602
3999.043945	2105.499268
3998.345703	2080.099365
3997.646484	2183.574219
3996.948242	2208.276611
3996.250000	2068.361084
3995.550781	2050.138916
3994.852539	2268.026611
3994.153320	2149.629150
3993.454102	2174.316895
3992.754883	2145.362549
3992.055664	2145.017578
3991.356445	2151.821777
3990.657227	2155.049805
3989.957031	2054.650879
3989.257813	2157.929932
3988.557617	2132.577881
3987.857422	2189.380615
3987.157227	2135.463379
3986.457031	2135.120361
3985.756836	2202.604492
3985.056641	2102.310547
3984.356445	2219.740234
3983.655273	2148.020508
3982.955078	2158.378174
3982.253906	2097.392334
3981.552734	2225.446533
3980.851563	2175.166992
3980.150391	2210.470215
3979.449219	2199.420898
3978.748047	2127.784668
3978.045898	2102.498047
3977.344727	2219.738525
3976.642578	2148.133545
3975.940430	2126.417480
3975.239258	2115.391846
3974.537109	2189.826660
3973.834961	2260.677246
3973.131836	2189.122803
3972.429688	2099.796631
3971.727539	2174.185791
3971.024414	2205.856934
3970.321289	2198.388184
3969.619141	2183.808105
3968.916016	2229.686768
3968.212891	2190.217529
3967.509766	2097.436279
3966.805664	2104.208008
3966.102539	2139.408203
3965.399414	2114.191650
3964.695313	2184.906006
3963.991211	2205.867676
3963.288086	2155.791504
3962.583984	2258.423584
3961.879883	2215.455811
3961.174805	2222.199707
3960.470703	2296.377197
3959.766602	2221.485596
3959.061523	2111.136719
3958.357422	2234.962158
3957.652344	2177.851318
3956.947266	2184.594238
3956.242188	2205.518555
3955.537109	2155.530273
3954.832031	2098.468750
3954.125977	2101.675781
3953.420898	2115.512451
3952.714844	2154.145508
3952.009766	2206.936035
3951.303711	2146.369873
3950.597656	2096.447021
3949.891602	2138.598877
3949.185547	2177.197266
3948.479492	2106.055664
3947.772461	2247.278320
3947.066406	2151.379150
3946.359375	2221.791260
3945.653320	2069.329834
3944.946289	2185.710205
3944.239258	2188.895264
3943.532227	2181.472412
3942.825195	2166.981934
3942.117188	2099.478760
3941.410156	2085.006104
3940.702148	2180.071289
3939.995117	2211.516113
3939.287109	2105.194824
3938.579102	2126.046631
3937.871094	2062.145752
3937.163086	2185.382324
3936.455078	2132.082275
3935.746094	2096.446289
3935.038086	2194.916016
3934.329102	2134.583496
3933.621094	2091.908691
3932.912109	2066.883057
3932.203125	2161.767578
3931.494141	2214.310059
3930.785156	2252.733887
3930.075195	2284.095703
3929.366211	2266.107666
3928.657227	2138.890137
3927.947266	2205.486328
3927.237305	2046.616455
3926.527344	2130.815918
3925.817383	2148.081055
3925.107422	2077.318604
3924.397461	2105.147461
3923.687500	2108.329346
3922.976563	2093.914063
3922.266602	2188.580566
3921.555664	2096.759766
3920.844727	2177.325195
3920.133789	2148.840332
3919.422852	2141.462646
3918.711914	2225.497803
3918.000977	2249.747070
3917.290039	2186.121826
3916.578125	2090.890137
3915.866211	2143.257568
3915.155273	2163.991211
3914.443359	2212.817627
3913.731445	2089.547852
3913.019531	2103.257324
3912.307617	2148.559082
3911.594727	2085.031494
3910.882813	2053.110352
3910.169922	2263.322266
3909.458008	2062.976563
3908.745117	2206.469238
3908.032227	2237.681152
3907.319336	2146.145752
3906.606445	2156.319824
3905.893555	2096.377686
3905.179688	2229.234375
3904.466797	2053.650391
3903.752930	2084.856445
3903.039063	2168.603271
3902.326172	2203.283447
3901.612305	2241.454834
3900.898438	2160.555664
3900.183594	2142.703125
3899.469727	2236.875000
3898.755859	2205.015869
3898.041016	2148.670410
3897.326172	2106.338623
3896.612305	2207.452393
3895.897461	2088.173584
3895.182617	2150.788330
3894.467773	2164.429932
3893.751953	2122.129395
3893.037109	2282.583252
3892.322266	2089.993408
3891.606445	2239.917725
3890.890625	2162.693359
3890.174805	2232.212158
3889.458984	2228.361084
3888.743164	2028.949829
3888.027344	2060.048584
3887.311523	2164.449463
3886.594727	2108.254395
3885.878906	2251.002930
3885.162109	2076.173340
3884.445313	2138.638672
3883.729492	2138.295410
3883.012695	2106.562988
3882.294922	2158.531982
3881.578125	2186.078125
3880.861328	2077.660889
3880.143555	2262.056396
3879.426758	2174.571045
3878.708984	2219.518311
3877.991211	2125.100342
3877.273438	2103.860107
3876.555664	2110.487793
3875.837891	2176.308838
3875.120117	2155.070313
3874.401367	2123.395752
3873.683594	2039.525024
3872.964844	2234.069824
3872.246094	2240.669922
3871.527344	2142.905518
3870.808594	2208.647217
3870.089844	2204.815186
3869.371094	2221.846680
3868.652344	2117.195068
3867.932617	2144.662842
3867.213867	2186.023438
3866.494141	2265.593994
3865.774414	2084.567871
3865.054688	2160.655273
3864.334961	2201.986572
3863.615234	2139.126221
3862.894531	2166.559570
3862.174805	2096.781982
3861.454102	2179.748047
3860.734375	2290.450439
3860.013672	2283.143311
3859.292969	2182.168213
3858.572266	2206.099121
3857.851563	2191.872559
3857.130859	2125.636475
3856.409180	2201.570313
3855.688477	2204.683594
3854.966797	2259.784912
3854.245117	2242.095459
3853.523438	2272.918945
3852.802734	2244.840332
3852.080078	2105.931885
3851.358398	2171.393799
3850.636719	2219.521973
3849.914063	2174.159180
3849.192383	2229.194092
3848.469727	2218.453857
3847.747070	2290.765625
3847.024414	2207.362549
3846.301758	2193.171387
3845.579102	2185.902100
3844.856445	2268.547119
3844.133789	2306.216797
3843.410156	2288.561523
3842.686523	2153.391602
3841.963867	2260.179932
3841.240234	2159.611328
3840.516602	2217.997070
3839.792969	2179.644287
3839.068359	2224.192871
3838.344727	2244.554932
3837.621094	2251.100098
3836.896484	2261.095215
3836.171875	2295.247559
3835.448242	2125.782959
3834.723633	2180.648193
3833.999023	2138.900391
3833.273438	2245.485107
3832.548828	2224.432617
3831.824219	2248.213135
3831.098633	2209.928467
3830.373047	2206.989990
3829.648438	2204.051758
3828.922852	2201.113281
3828.197266	2198.174805
3827.471680	2218.491455
3826.745117	2204.358398
3826.019531	2200.561035
3825.292969	2169.219238
3824.567383	2265.265625
3823.840820	2206.386475
3823.114258	2171.617188
3822.387695	2129.976807
3821.661133	2095.230713
3820.934570	2174.012207
3820.208008	2170.224121
3819.480469	2207.702881
3818.753906	2203.910400
3818.026367	2231.058594
3817.298828	2144.772217
3816.571289	2139.281006
3815.843750	2133.789795
3815.116211	2128.298828
3814.388672	2122.807617
3813.660156	2117.316406
3812.932617	2111.825195
3812.204102	2106.333984
3811.475586	2100.843018
3810.748047	2095.351807
3810.019531	2089.860596
3809.290039	2219.906494
3808.561523	2212.689209
3807.833008	2246.634277
3807.103516	2235.985596
3806.375000	2235.627197
3805.645508	2221.555176
3804.916016	2180.065674
3804.186523	2279.105713
3803.457031	2199.926514
3802.727539	2196.147705
3801.998047	2288.286133
3801.267578	2157.768066
3800.538086	2099.205811
3799.807617	2232.402588
3799.077148	2238.891357
3798.346680	2204.303955
3797.616211	2241.595459
3796.885742	2391.792480
3796.155273	2299.036865
3795.423828	2288.406250
3794.693359	2236.738037
3793.961914	2147.471191
3793.230469	2256.534668
3792.500000	2249.335938
3791.768555	2190.871094
3791.036133	2262.283936
3790.304688	2268.754883
3789.573242	2251.309814
3788.840820	2158.724854
3788.109375	2243.757568
3787.376953	2089.740479
3786.644531	2195.241211
3785.912109	2112.964844
3785.179688	2276.448486
3784.447266	2095.225342
3783.714844	2156.302979
3782.981445	2227.594971
3782.249023	2302.274902
3781.515625	2267.803467
3780.782227	2185.607422
3780.048828	2263.667236
3779.315430	2246.261230
3778.582031	2341.326416
3777.848633	2262.578613
3777.114258	2245.180908
3776.380859	2261.853027
3775.646484	2264.896240
3774.912109	2244.101318
3774.177734	2247.146240
3773.443359	2260.402832
3772.708984	2321.306641
3771.974609	2327.740723
3771.240234	2143.627930
3770.504883	2374.622803
3769.770508	2244.985352
3769.035156	2214.016846
3768.299805	2342.877197
3767.564453	2284.704102
3766.829102	2212.952148
3766.093750	2256.781250
3765.357422	2263.216064
3764.622070	2286.636963
3763.885742	2201.342041
3763.150391	2370.818359
3762.414063	2299.121338
3761.677734	2261.402344
3760.941406	2301.779297
3760.205078	2216.550049
3759.467773	2297.647461
3758.731445	2273.525879
3757.994141	2252.804688
3757.257813	2344.033936
3756.520508	2238.515625
3755.783203	2278.850586
3755.045898	2322.562988
3754.308594	2274.729980
3753.571289	2270.975586
3752.833008	2338.391113
3752.095703	2307.520264
3751.357422	2246.168457
3750.619141	2313.555176
3749.880859	2374.146729
3749.142578	2255.247070
3748.404297	2285.357178
3747.666016	2264.679688
3746.927734	2304.932129
3746.188477	2392.548828
3745.450195	2317.727539
3744.710938	2351.185791
3743.971680	2286.542236
3743.232422	2265.884277
3742.493164	2333.148438
3741.753906	2278.681152
3741.013672	2312.118896
3740.274414	2382.722900
3739.534180	2345.169678
3738.794922	2236.676514
3738.054688	2216.049072
3737.314453	2212.316406
3736.574219	2309.895996
3735.833984	2296.019531
3735.092773	2380.050537
3734.352539	2386.419922
3733.611328	2348.913574
3732.871094	2385.654785
3732.129883	2385.272461
3731.388672	2408.502930
3730.647461	2428.353027
3729.906250	2340.287354
3729.165039	2309.567627
3728.422852	2342.908203
3727.681641	2308.827148
3726.939453	2321.937012
3726.197266	2409.171143
3725.455078	2371.726807
3724.712891	2324.189209
3723.970703	2370.966553
3723.228516	2357.117188
3722.486328	2383.673584
3721.743164	2457.348633
3721.000977	2389.640869
3720.257813	2412.813965
3719.514648	2304.759521
3718.771484	2358.215332
3718.028320	2314.111328
3717.285156	2424.719238
3716.541016	2394.068604
3715.797852	2289.465332
3715.053711	2366.410156
3714.310547	2406.360840
3713.566406	2409.335449
3712.822266	2519.821533
3712.078125	2448.874023
3711.333008	2367.873047
3710.588867	2441.372559
3709.844727	2407.405273
3709.099609	2353.306396
3708.354492	2413.346680
3707.610352	2513.639648
3706.865234	2379.018555
3706.120117	2442.380615
3705.374023	2589.582031
3704.628906	2512.028564
3703.883789	2571.985352
3703.137695	2538.045654
3702.391602	2591.274414
3701.646484	2503.715088
3700.900391	2513.367188
3700.154297	2559.873047
3699.408203	2549.412598
3698.661133	2532.256348
3697.915039	2541.897461
3697.167969	2397.505859
3696.421875	2527.690918
3695.674805	2587.539063
3694.927734	2563.696289
3694.180664	2667.021484
3693.433594	2683.322998
3692.686523	2485.522949
3691.938477	2615.568604
3691.191406	2457.972900
3690.443359	2594.668457
3689.695313	2637.713135
3688.947266	2493.559570
3688.199219	2603.447266
3687.451172	2656.493896
3686.703125	2716.205566
3685.955078	2632.259521
3685.206055	2708.655273
3684.458008	2497.841553
3683.708984	2714.464844
3682.959961	2757.427490
3682.210938	2803.714111
3681.461914	2816.613770
3680.712891	2782.795410
3679.962891	2588.852783
3679.213867	2825.266602
3678.463867	2701.415771
3677.714844	2717.655518
3676.964844	2743.892090
3676.214844	2740.118896
3675.464844	2756.344482
3674.713867	2765.899902
3673.963867	2855.417480
3673.213867	2898.267090
3672.462891	2757.908691
3671.711914	2950.622803
3670.961914	2870.236084
3670.210938	2893.080566
3669.459961	2992.477051
3668.708008	2782.324707
3667.957031	2961.569580
3667.206055	2904.534668
3666.454102	2900.742676
3665.702148	2980.102051
3664.950195	3119.294189
3664.199219	3062.270264
3663.446289	2908.856934
3662.694336	3018.078613
3661.942383	2991.008057
3661.190430	2917.427002
3660.437500	3056.495117
3659.684570	3242.022949
3658.932617	3102.012451
3658.179688	3177.891113
3657.426758	3283.626465
3656.672852	3180.192139
3655.919922	3209.554199
3655.166992	3215.677002
3654.413086	3284.840088
3653.659180	3267.726318
3652.906250	3247.300781
3652.152344	3356.222412
3651.398438	3262.839600
3650.644531	3205.955566
3649.889648	3231.960449
3649.135742	3523.101074
3648.380859	3277.317383
3647.626953	3498.779297
3646.872070	3481.655029
3646.117188	3494.345703
3645.362305	3341.449951
3644.607422	3506.470215
3643.851563	3356.932129
3643.096680	3594.718018
3642.341797	3557.737305
3641.585938	3560.476074
3640.830078	3427.566895
3640.074219	3599.030273
3639.318359	3522.383057
3638.562500	3601.183594
3637.806641	3597.300293
3637.049805	3570.277344
3636.293945	3586.231445
3635.537109	3631.923340
3634.780273	3694.121582
3634.024414	3677.010986
3633.267578	3633.480713
3632.509766	3801.332764
3631.752930	3780.911133
3630.996094	3796.812988
3630.238281	3697.173096
3629.481445	3861.606689
3628.723633	3768.588135
3627.965820	3734.989502
3627.208008	3909.234375
3626.450195	3842.639893
3625.692383	3940.960449
3624.933594	3831.516357
3624.175781	3840.792725
3623.416992	3972.028809
3622.658203	3852.745117
3621.899414	3871.898926
3621.140625	3854.804932
3620.381836	4088.073730
3619.623047	4005.077393
3618.864258	4067.004883
3618.104492	4115.742188
3617.345703	4029.489014
3616.585938	4068.341553
3615.826172	4044.652588
3615.066406	4083.490234
3614.306641	4178.244629
3613.546875	4006.524658
3612.786133	4035.482910
3612.026367	4084.161865
3611.265625	4165.703613
3610.504883	4109.151367
3609.744141	4147.934570
3608.983398	4262.289063
3608.222656	4074.318848
3607.461914	4142.655273
3606.701172	4243.816895
3605.939453	4230.000488
3605.178711	4206.336914
3604.416992	4320.571777
3603.655273	4247.662598
3602.893555	4191.187012
3602.131836	4305.368652
3601.370117	4327.645996
3600.607422	4267.903809
3599.845703	4290.179688
3599.083008	4259.977051
3598.320313	4315.035645
3597.557617	4176.652344
3596.794922	4330.042480
3596.032227	4358.844238
3595.269531	4236.904297
3594.506836	4295.198242
3593.743164	4438.643066
3592.980469	4365.876465
3592.216797	4224.364746
3591.453125	4459.428711
3590.689453	4393.241211
3589.925781	4294.343262
3589.162109	4293.654785
3588.397461	4292.966797
3587.633789	4475.485840
3586.869141	4428.974121
3586.104492	4480.592773
3585.339844	4466.794922
3584.575195	4325.492188
3583.810547	4295.378906
3583.045898	4324.105957
3582.281250	4378.967285
3581.515625	4296.581543
3580.750977	4361.229492
3579.985352	4321.334961
3579.219727	4304.313477
3578.454102	4326.480469
3577.688477	4655.526367
3576.921875	4468.719727
3576.156250	4412.520996
3575.390625	4421.603027
3574.624023	4404.581543
3573.857422	4423.448242
3573.090820	4341.199219
3572.324219	4386.158691
3571.557617	4359.371582
3570.791016	4365.192871
3570.023438	4423.164551
3569.256836	4402.901855
3568.489258	4222.980469
3567.722656	4430.812500
3566.955078	4211.854492
3566.187500	4360.997070
3565.418945	4311.452637
3564.651367	4330.296875
3563.883789	4371.922363
3563.115234	4296.360840
3562.347656	4386.792969
3561.579102	4337.283203
3560.810547	4291.042480
3560.041992	4329.387695
3559.273438	4097.786621
3558.503906	4360.517090
3557.735352	4249.278320
3556.966797	4323.362305
3556.197266	4153.663086
3555.427734	4240.736816
3554.658203	4275.796875
3553.888672	4119.180664
3553.119141	3881.413086
3552.349609	3955.484131
3551.579102	4055.507324
3550.809570	4334.055176
3550.039063	4093.159180
3549.268555	4180.130371
3548.498047	4273.562988
3547.727539	4259.900391
3546.957031	4174.876953
3546.186523	4287.725586
3545.415039	4264.338379
3544.644531	4088.569580
3543.873047	4285.664551
3543.101563	4171.532715
3542.330078	4371.791504
3541.558594	4270.643066
3540.787109	4211.644043
3540.015625	4214.208008
3539.243164	4226.487305
3538.471680	4280.858887
3537.699219	4341.687988
3536.926758	4185.610352
3536.154297	4301.457520
3535.381836	4333.128906
3534.609375	4219.189453
3533.836914	4493.493164
3533.063477	4185.491699
3532.291016	4298.011719
3531.517578	4190.617188
3530.744141	4189.945801
3529.970703	4202.204102
3529.197266	4253.241699
3528.423828	4158.848633
3527.649414	4219.569336
3526.875977	4183.358887
3526.101563	4143.929688
3525.328125	4240.146484
3524.553711	4210.407227
3523.779297	4177.449219
3523.004883	4260.702637
3522.229492	4356.838379
3521.455078	4198.028320
3520.680664	4271.559570
3519.905273	4296.680664
3519.129883	4050.875488
3518.354492	4169.540039
3517.579102	4230.131348
3516.803711	4142.414551
3516.028320	4231.998535
3515.252930	4124.973633
3514.476563	4098.535156
3513.700195	4123.651367
3512.924805	4158.422363
3512.148438	4025.712402
3511.372070	4073.368164
3510.595703	4017.983154
3509.818359	4130.004883
3509.041992	4097.157715
3508.264648	4122.245117
3507.488281	4118.366699
3506.710938	4169.178223
3505.933594	4059.150879
3505.156250	4154.978027
3504.378906	4173.604492
3503.601563	4124.712402
3502.823242	4027.619629
3502.045898	4187.667480
3501.267578	4180.569336
3500.489258	4163.835449
3499.710938	4089.284424
3498.932617	4088.629150
3498.154297	4081.551025
3497.375977	4090.529297
3496.596680	3977.514404
3495.818359	4005.764648
3495.039063	4014.750244
3494.259766	3959.558594
3493.480469	4055.169922
3492.701172	3993.573975
3491.921875	4101.978027
3491.142578	4043.600342
3490.362305	4161.579590
3489.582031	4007.042236
3488.802734	4019.220459
3488.022461	4034.599121
3487.242188	3989.095215
3486.461914	3831.480469
3485.681641	3978.207275
3484.900391	3961.556885
3484.120117	4098.609375
3483.338867	3877.047363
3482.557617	3902.033936
3481.777344	3927.012451
3480.996094	4009.582520
3480.213867	4002.541016
3479.432617	3909.129639
3478.651367	3918.098145
3477.869141	4163.711426
3477.087891	3952.013916
3476.305664	3964.167969
3475.523438	3982.710938
3474.741211	4014.031494
3473.958984	4029.364746
3473.175781	3894.534668
3472.393555	4053.627930
3471.610352	3963.550781
3470.828125	3985.268555
3470.044922	3831.374756
3469.261719	3977.606445
3468.478516	4037.612793
3467.695313	3893.358154
3466.911133	3950.167725
3466.127930	3943.154053
3465.343750	4019.075684
3464.560547	3868.537598
3463.776367	3791.388184
3462.992188	3870.485596
3462.208008	3850.738770
3461.423828	3767.254639
3460.638672	3976.971436
3459.854492	3797.908691
3459.069336	3880.126709
3458.285156	3854.023682
3457.500000	3952.129395
3456.714844	4015.178223
3455.929688	3890.373779
3455.143555	3953.412109
3454.358398	3876.395996
3453.572266	3863.046387
3452.787109	3945.147949
3452.000977	3912.704834
3451.214844	3800.758301
3450.428711	3854.209473
3449.642578	3786.821533
3448.856445	3763.961182
3448.069336	3715.680176
3447.283203	3928.010742
3446.496094	3746.263916
3445.708984	3704.362305
3444.921875	3694.239014
3444.134766	3674.591064
3443.347656	3689.879150
3442.560547	3905.184082
3441.772461	3790.278076
3440.985352	3853.148926
3440.197266	3814.450195
3439.409180	3893.161377
3438.621094	3676.813965
3437.833008	3717.458984
3437.044922	3720.034424
3436.256836	3916.032227
3435.467773	3725.182373
3434.679688	3683.376953
3433.890625	3765.189453
3433.101563	3758.248047
3432.312500	3798.833984
3431.523438	3696.854492
3430.734375	3734.269531
3429.944336	3689.335449
3429.155273	3625.417725
3428.365234	3678.655029
3427.575195	3754.032227
3426.785156	3756.594971
3425.995117	3699.035645
3425.205078	3723.752686
3424.415039	3685.196533
3423.624023	3678.280273
3422.833984	3813.666992
3422.042969	3718.203369
3421.251953	3793.476563
3420.460938	3713.850342
3419.669922	3511.000977
3418.878906	3652.625000
3418.087891	3655.198486
3417.295898	3594.597168
3416.504883	3672.975342
3415.712891	3530.290771
3414.920898	3674.954834
3414.128906	3718.558838
3413.336914	3676.932373
3412.544922	3692.121094
3411.752930	3637.891602
3410.959961	3703.555664
3410.166992	3415.935059
3409.375000	3604.605469
3408.582031	3559.883545
3407.789063	3556.160156
3406.996094	3599.719482
3406.202148	3659.022949
3405.409180	3693.098389
3404.615234	3585.385498
3403.822266	3540.709229
3403.028320	3502.346436
3402.234375	3574.213623
3401.440430	3589.383545
3400.646484	3595.104004
3399.851563	3603.970215
3399.057617	3518.421387
3398.262695	3577.641846
3397.468750	3466.956055
3396.673828	3548.184570
3395.878906	3516.165039
3395.083984	3446.421143
3394.288086	3445.868408
3393.493164	3382.445068
3392.698242	3495.051758
3391.902344	3428.498047
3391.106445	3512.782959
3390.310547	3399.124756
3389.514648	3382.874512
3388.718750	3514.233643
3387.922852	3479.129883
3387.125977	3450.316406
3386.330078	3402.677979
3385.533203	3367.608887
3384.736328	3426.690674
3383.939453	3357.116211
3383.142578	3529.112061
3382.345703	3563.047363
3381.548828	3465.260498
3380.750977	3530.549805
3379.954102	3326.209961
3379.156250	3526.282959
3378.358398	3535.119141
3377.560547	3515.751465
3376.762695	3374.204102
3375.964844	3401.854980
3375.166016	3514.060059
3374.368164	3419.552490
3373.569336	3497.278076
3372.771484	3340.194336
3371.972656	3471.116455
3371.173828	3555.054932
3370.374023	3391.779541
3369.575195	3406.877686
3368.776367	3253.062012
3367.976563	3490.225830
3367.176758	3358.334473
3366.377930	3520.370605
3365.578125	3422.901855
3364.778320	3487.986816
3363.977539	3374.929688
3363.177734	3346.268311
3362.377930	3252.013672
3361.577148	3276.479492
3360.776367	3366.518799
3359.975586	3378.468506
3359.174805	3399.780029
3358.374023	3352.413330
3357.573242	3326.908203
3356.772461	3354.458252
3355.970703	3435.038330
3355.168945	3269.157715
3354.368164	3418.341553
3353.566406	3305.530029
3352.764648	3435.952393
3351.961914	3363.700439
3351.160156	3428.616211
3350.358398	3481.045410
3349.555664	3371.429688
3348.752930	3402.042969
3347.950195	3342.313721
3347.147461	3260.802490
3346.344727	3356.811035
3345.541992	3281.550293
3344.739258	3271.685059
3343.935547	3367.645264
3343.132813	3373.328857
3342.329102	3332.339111
3341.525391	3282.029541
3340.721680	3340.601318
3339.917969	3284.086670
3339.113281	3280.450195
3338.309570	3279.923828
3337.504883	3229.662842
3336.701172	3232.252441
3335.896484	3275.238037
3335.091797	3445.593994
3334.287109	3314.570801
3333.482422	3245.708252
3332.676758	3198.605957
3331.872070	3393.704102
3331.066406	3306.235107
3330.260742	3386.407227
3329.455078	3258.622559
3328.649414	3258.099609
3327.843750	3291.703857
3327.038086	3362.520752
3326.232422	3281.343262
3325.425781	3116.465820
3324.619141	3407.409180
3323.812500	3295.263672
3323.006836	3260.640869
3322.199219	3241.523682
3321.392578	3296.776123
3320.585938	3262.169434
3319.778320	3221.378662
3318.971680	3279.704346
3318.164063	3152.222168
3317.356445	3126.948486
3316.548828	3107.873779
3315.741211	3172.369873
3314.933594	3119.254395
3314.125000	3245.607910
3313.317383	3260.554443
3312.508789	3120.845947
3311.700195	3296.618164
3310.891602	3172.408447
3310.083008	3224.455322
3309.274414	3288.849365
3308.465820	3313.045654
3307.656250	3229.083252
3306.847656	3268.729004
3306.038086	3169.354980
3305.228516	3264.591309
3304.418945	3294.947754
3303.609375	3245.018066
3302.799805	3198.191406
3301.989258	3191.505127
3301.179688	3305.177246
3300.369141	3215.165283
3299.558594	3236.244873
3298.748047	3285.078613
3297.937500	3232.122070
3297.126953	3250.104736
3296.316406	3224.918457
3295.504883	3236.731201
3294.694336	3282.443115
3293.882813	3217.202637
3293.071289	3195.118408
3292.259766	3219.250488
3291.448242	3277.256104
3290.636719	3276.730225
3289.824219	3211.542236
3289.012695	3247.970459
3288.200195	3219.745850
3287.387695	3142.287598
3286.575195	3144.860352
3285.762695	3144.355469
3284.950195	3008.499023
3284.137695	3161.800293
3283.324219	3247.397949
3282.511719	3114.664795
3281.698242	3221.761719
3280.884766	3144.402100
3280.071289	3159.263184
3279.257813	3217.137695
3278.444336	3109.093506
3277.629883	3093.235596
3276.816406	3132.665283
3276.001953	3205.860352
3275.187500	3131.659424
3274.373047	3235.528564
3273.558594	3265.701904
3272.744141	3194.595703
3271.929688	3089.761230
3271.114258	3129.146484
3270.299805	3140.913330
3269.484375	3312.150146
3268.668945	3170.568115
3267.853516	3121.005859
3267.038086	3025.479492
3266.221680	3159.846680
3265.406250	3104.181152
3264.590820	3137.385254
3263.774414	3253.289063
3262.958008	3160.880615
3262.141602	3163.435547
3261.325195	3120.061279
3260.508789	3073.639404
3259.691406	2975.197021
3258.875000	3042.048340
3258.057617	3145.597168
3257.241211	3200.161865
3256.423828	3095.644043
3255.606445	3156.315918
3254.788086	3143.577393
3253.970703	3213.394287
3253.153320	3173.137695
3252.334961	3010.634521
3251.516602	3196.566650
3250.699219	3104.388184
3249.880859	3109.999756
3249.062500	3060.628174
3248.243164	3145.649414
3247.424805	2980.253174
3246.605469	3065.260010
3245.787109	3058.662598
3244.967773	3164.993896
3244.148438	3118.711914
3243.329102	3133.466553
3242.509766	3087.204346
3241.690430	3144.660645
3240.870117	3101.460938
3240.050781	3131.454102
3239.230469	3085.221680
3238.410156	3087.774170
3237.589844	3075.087646
3236.769531	3147.725830
3235.949219	3177.687256
3235.127930	3146.714844
3234.307617	3143.163818
3233.486328	3136.568604
3232.665039	3117.796631
3231.843750	3080.764893
3231.022461	3128.969971
3230.201172	3140.640625
3229.379883	3179.692139
3228.557617	3115.293457
3227.736328	3269.924561
3226.914063	3144.705811
3226.091797	3156.364014
3225.269531	3158.897461
3224.447266	3179.668945
3223.625000	3154.843262
3222.801758	3063.170654
3221.979492	3068.755371
3221.156250	3132.058105
3220.333008	3125.480225
3219.509766	3185.716309
3218.686523	3197.350342
3217.863281	3060.219727
3217.039063	3093.117920
3216.215820	2928.733398
3215.391602	3116.400146
3214.567383	3067.355713
3213.744141	3103.264893
3212.918945	3033.007324
3212.094727	3014.324951
3211.270508	3010.808594
3210.446289	3037.608887
3209.621094	3097.741943
3208.795898	3218.467285
3207.970703	3033.114990
3207.145508	3059.894043
3206.320313	3026.082275
3205.495117	3213.370850
3204.669922	2988.772217
3203.843750	3024.624023
3203.017578	2945.431641
3202.192383	2999.438721
3201.366211	3023.166260
3200.539063	3092.271729
3199.712891	3173.455811
3198.886719	3169.921387
3198.059570	3081.708740
3197.233398	3111.451172
3196.406250	2935.601318
3195.579102	2992.562500
3194.751953	3131.107666
3193.924805	3024.841064
3193.097656	2985.077637
3192.269531	2957.410400
3191.442383	2944.853760
3190.614258	3016.857422
3189.786133	2919.752197
3188.958008	3082.303955
3188.129883	3024.458740
3187.301758	3084.331299
3186.472656	3059.696045
3185.644531	3032.051758
3184.815430	3031.564453
3183.986328	2967.741455
3183.157227	2922.031738
3182.328125	2993.922852
3181.499023	3083.877930
3180.669922	3089.410400
3179.839844	3155.212646
3179.010742	3025.142578
3178.180664	3024.656494
3177.350586	2982.000732
3176.520508	3071.870605
3175.690430	3083.421387
3174.859375	3085.936523
3174.029297	2971.053467
3173.198242	3078.925293
3172.368164	3018.246094
3171.537109	3077.935547
3170.706055	2987.193359
3169.875000	3010.775391
3169.042969	2989.240479
3168.211914	3015.821289
3167.379883	3039.386963
3166.548828	2978.781738
3165.716797	2855.083496
3164.884766	2959.794922
3164.052734	3004.385010
3163.220703	3024.929443
3162.387695	2991.405518
3161.555664	3123.053955
3160.722656	3029.475830
3159.889648	2965.947510
3159.056641	2911.443848
3158.223633	2913.976807
3157.390625	2976.519287
3156.557617	3024.041504
3155.723633	2945.566895
3154.890625	3098.046143
3154.056641	2983.601563
3153.222656	3040.085938
3152.388672	3057.583008
3151.554688	2955.188477
3150.720703	2957.709961
3149.885742	2963.226807
3149.051758	2890.853516
3148.216797	3010.197754
3147.381836	3099.555908
3146.546875	2946.350342
3145.711914	2975.814453
3144.876953	3029.215332
3144.041992	3013.764160
3143.206055	2980.364014
3142.370117	3033.738037
3141.535156	2985.388428
3140.699219	2904.154297
3139.863281	2951.533936
3139.026367	2989.928223
3138.190430	2962.542480
3137.354492	2962.066162
3136.517578	2997.451660
3135.680664	2880.437500
3134.843750	2993.500244
3134.006836	2972.109619
3133.169922	2947.739014
3132.333008	2932.334717
3131.495117	3036.359131
3130.658203	3074.677490
3129.820313	2954.797363
3128.982422	2915.528076
3128.144531	2953.846924
3127.306641	2845.976563
3126.468750	2973.776123
3125.629883	2871.901611
3124.791992	2978.783203
3123.953125	3073.705322
3123.114258	2894.362549
3122.275391	3001.188721
3121.436523	3093.081299
3120.597656	2845.296387
3119.758789	2925.268799
3118.918945	3088.610596
3118.079102	2882.636719
3117.240234	2911.947510
3116.400391	3003.765381
3115.560547	2919.940430
3114.719727	2910.542725
3113.879883	3020.169434
3113.040039	2969.107666
3112.199219	2885.341797
3111.358398	3009.789795
3110.517578	2869.545410
3109.676758	2875.030029
3108.835938	2972.665527
3107.995117	2924.632324
3107.153320	2900.388184
3106.312500	2962.317627
3105.470703	2941.045654
3104.628906	2866.315674
3103.787109	2919.311035
3102.945313	2978.227783
3102.103516	2861.963623
3101.260742	2900.092041
3100.418945	2938.208008
3099.576172	3017.855225
3098.733398	2880.890869
3097.890625	2921.957764
3097.047852	2912.589844
3096.205078	2974.396729
3095.361328	3006.533203
3094.518555	2911.184082
3093.674805	2901.823486
3092.831055	2936.919678
3091.987305	2841.627441
3091.143555	2900.423096
3090.299805	2902.918457
3089.456055	2819.524170
3088.611328	2854.604980
3087.766602	2922.242432
3086.922852	2995.778564
3086.078125	2927.221680
3085.233398	2843.890137
3084.387695	2828.638428
3083.542969	2999.767578
3082.698242	2854.348877
3081.852539	2913.037598
3081.006836	2832.731934
3080.161133	3012.619141
3079.315430	2935.279053
3078.469727	2810.676025
3077.624023	2946.154541
3076.777344	2830.453125
3075.931641	2954.068604
3075.084961	2879.753174
3074.238281	2902.914795
3073.391602	2952.642334
3072.544922	2987.593262
3071.698242	2815.914307
3070.850586	2948.265625
3070.003906	2850.416748
3069.156250	2785.052002
3068.308594	2837.699951
3067.460938	2840.192627
3066.613281	2686.395508
3065.765625	2883.503906
3064.916992	2989.163818
3064.069336	2867.838623
3063.220703	2837.907471
3062.372070	2713.698975
3061.523438	2872.345703
3060.674805	3013.268555
3059.826172	2892.036377
3058.976563	2853.291504
3058.127930	2967.651855
3057.278320	2775.838623
3056.428711	2798.937012
3055.579102	2804.371582
3054.729492	2786.266846
3053.879883	2874.070313
3053.030273	2905.961426
3052.179688	2902.552734
3051.330078	2896.204834
3050.479492	2892.798584
3049.628906	2821.788330
3048.778320	2803.700684
3047.926758	2800.310791
3047.076172	2835.115234
3046.225586	2875.783203
3045.374023	2854.761230
3044.522461	2877.793701
3043.670898	2824.481445
3042.819336	2735.959229
3041.967773	2876.403809
3041.116211	2849.529053
3040.263672	2860.806641
3039.412109	2877.948242
3038.559570	2912.683350
3037.707031	2850.626709
3036.854492	2814.980469
3036.001953	2867.299561
3035.148438	2781.829102
3034.295898	2798.966309
3033.442383	2886.427002
3032.589844	2941.630615
3031.736328	2853.273682
3030.882813	2808.879639
3030.028320	2866.997070
3029.174805	2910.455811
3028.321289	2772.392090
3027.466797	2809.997559
3026.612305	2876.856934
3025.758789	2820.796875
3024.904297	2785.234619
3024.048828	2846.215088
3023.194336	2766.789063
3022.339844	2883.313477
3021.484375	2874.077881
3020.628906	2818.072021
3019.773438	2817.617920
3018.917969	2852.232666
3018.062500	2837.163574
3017.207031	2731.535156
3016.351563	2877.143066
3015.495117	2824.110840
3014.638672	2730.215332
3013.782227	2721.016846
3012.925781	2954.104492
3012.069336	2761.000732
3011.212891	2929.807617
3010.356445	2795.123047
3009.499023	2791.755615
3008.641602	2657.136475
3007.785156	2744.196045
3006.927734	2810.816895
3006.069336	2807.448730
3005.211914	2757.444092
3004.354492	2727.855957
3003.496094	2800.264160
3002.638672	2828.947266
3001.780273	2912.967529
3000.921875	2828.035889
3000.063477	2868.348389
2999.204102	2757.247070
2998.345703	2806.291260
2997.486328	2756.358398
2996.627930	2790.836182
2995.768555	2784.567139
2994.909180	2819.029053
2994.049805	2792.395996
2993.190430	2876.285889
2992.330078	2771.141357
2991.470703	2808.490234
2990.610352	2831.292480
2989.750000	2801.772217
2988.889648	2842.003662
2988.029297	2824.113037
2987.168945	2768.462891
2986.308594	2829.011719
2985.447266	2831.459961
2984.585938	2801.967529
2983.725586	2737.647217
2982.864258	2853.312256
2982.002930	2725.156006
2981.140625	2768.242676
2980.279297	2793.907715
2979.416992	2825.365967
2978.555664	2845.212891
2977.693359	2827.354980
2976.831055	2760.213379
2975.968750	2730.779297
2975.106445	2799.901855
2974.243164	2732.797119
2973.380859	2752.639160
2972.517578	2923.121094
2971.654297	2893.684082
2970.791016	2762.892578
2969.927734	2814.568848
2969.064453	2788.058350
2968.201172	2836.819092
2967.336914	2807.419189
2966.473633	2673.852783
2965.609375	2641.595215
2964.745117	2739.526123
2963.880859	2756.438721
2963.016602	2753.102295
2962.151367	2729.526855
2961.287109	2798.470215
2960.421875	2696.851074
2959.556641	2762.887207
2958.691406	2629.520996
2957.826172	2764.885498
2956.960938	2744.218994
2956.095703	2917.067627
2955.229492	2757.772705
2954.363281	2737.117188
2953.498047	2713.581543
2952.631836	2742.007080
2951.765625	2833.912354
2950.898438	2784.403809
2950.032227	2968.590088
2949.165039	2872.924072
2948.298828	2889.764648
2947.431641	2736.471436
2946.564453	2747.562256
2945.697266	2773.062744
2944.830078	2913.840088
2943.961914	2849.973389
2943.094727	2910.019043
2942.226563	2788.558594
2941.358398	2776.587646
2940.490234	2905.731445
2939.622070	2807.364746
2938.753906	2824.185303
2937.885742	2889.933350
2937.016602	2877.955322
2936.148438	2842.961182
2935.279297	2885.657959
2934.410156	2850.673828
2933.541016	2896.231445
2932.670898	2780.739014
2931.801758	2863.670166
2930.932617	2822.962402
2930.062500	2744.902344
2929.192383	2744.459473
2928.322266	2925.035645
2927.452148	2918.818115
2926.582031	2835.047852
2925.710938	2920.748291
2924.840820	2851.361816
2923.969727	2830.804932
2923.098633	2775.807861
2922.227539	2749.529541
2921.356445	2869.609375
2920.485352	2820.370850
2919.614258	2880.158203
2918.742188	2934.189697
2917.870117	2816.137939
2916.999023	2921.773438
2916.126953	2961.437744
2915.253906	2794.710449
2914.381836	2831.516113
2913.509766	2914.157227
2912.636719	2893.632080
2911.764648	2896.029541
2910.891602	2835.416992
2910.018555	2840.686523
2909.145508	2860.270020
2908.271484	2985.765869
2907.398438	2893.693359
2906.524414	2981.940430
2905.651367	2961.430176
2904.777344	2817.911133
2903.903320	2991.938232
2903.029297	2902.798584
2902.154297	2873.735596
2901.280273	2899.002441
2900.405273	2892.817627
2899.531250	2743.731934
2898.656250	2723.285889
2897.781250	2897.131104
2896.906250	2793.823486
2896.030273	2901.908447
2895.155273	2892.872559
2894.279297	2721.088379
2893.404297	2712.084717
2892.528320	2737.336182
2891.652344	2679.816162
2890.776367	2839.176270
2889.899414	2730.304688
2889.023438	2764.093994
2888.146484	2806.428711
2887.270508	2837.343262
2886.393555	2751.350830
2885.516602	2759.458740
2884.638672	2798.916260
2883.761719	2866.858643
2882.884766	2835.053467
2882.006836	2843.142090
2881.128906	2836.986328
2880.250977	2671.348877
2879.373047	2796.205811
2878.495117	2801.448242
2877.617188	2744.064941
2876.738281	2649.701172
2875.860352	2657.810059
2874.981445	2725.664795
2874.102539	2864.614990
2873.223633	2790.202148
2872.344727	2769.844971
2871.464844	2701.157959
2870.585938	2757.579102
2869.706055	2754.291260
2868.826172	2787.949707
2867.947266	2582.912354
2867.066406	2821.141602
2866.186523	2792.280273
2865.306641	2666.864258
2864.425781	2748.783447
2863.545898	2674.520508
2862.665039	2710.991943
2861.784180	2682.171387
2860.903320	2667.548828
2860.022461	2630.232422
2859.140625	2822.716797
2858.259766	2819.424316
2857.377930	2637.465820
2856.496094	2804.335938
2855.614258	2801.047852
2854.732422	2641.856934
2853.850586	2726.454834
2852.967773	2802.524170
2852.085938	2793.571533
2851.203125	2716.635254
2850.320313	2648.220459
2849.437500	2772.394775
2848.554688	2650.196289
2847.671875	2573.332520
2846.788086	2646.509521
2845.905273	2708.342529
2845.021484	2702.245850
2844.137695	2665.030518
2843.253906	2704.201172
2842.370117	2746.187256
2841.486328	2748.571289
2840.601563	2731.163330
2839.717773	2801.392822
2838.833008	2761.370850
2837.948242	2642.236084
2837.063477	2737.874756
2836.178711	2695.057129
2835.292969	2722.867188
2834.408203	2722.427002
2833.522461	2744.576172
2832.636719	2755.425293
2831.750977	2780.384521
2830.865234	2794.046387
2829.979492	2796.416748
2829.093750	2716.966797
2828.207031	2739.094727
2827.321289	2696.345215
2826.434570	2788.969238
2825.547852	2763.142578
2824.661133	2633.018311
2823.774414	2711.514160
2822.886719	2818.166016
2822.000000	2643.012451
2821.112305	2648.219727
2820.224609	2811.166016
2819.336914	2633.281738
2818.449219	2663.830811
2817.561523	2753.494141
2816.672852	2719.269043
2815.785156	2735.716553
2814.896484	2600.198975
2814.007813	2732.018555
2813.119141	2678.126709
2812.230469	2624.252441
2811.341797	2660.387207
2810.452148	2659.957031
2809.563477	2794.471191
2808.673828	2737.801758
2807.784180	2734.548584
2806.894531	2773.446045
2806.004883	2581.950195
2805.114258	2640.522949
2804.224609	2670.990723
2803.333984	2718.297363
2802.444336	2698.203857
2801.553711	2742.683594
2800.663086	2627.161377
2799.771484	2691.282471
2798.880859	2679.623535
2797.989258	2693.217285
2797.098633	2771.321289
2796.207031	2714.782471
2795.315430	2705.931152
2794.423828	2798.012939
2793.532227	2696.646240
2792.639648	2785.896973
2791.748047	2782.644043
2790.855469	2801.806641
2789.962891	2798.552002
2789.070313	2786.895752
2788.177734	2680.027832
2787.285156	2816.793945
2786.391602	2732.352051
2785.499023	2813.083740
2784.605469	2801.434082
2783.711914	2582.722656
2782.818359	2708.202637
2781.924805	2632.238037
2781.031250	2729.700928
2780.136719	2664.942627
2779.243164	2658.919678
2778.348633	2773.103760
2777.454102	2783.834961
2776.559570	2749.849854
2775.665039	2771.757813
2774.769531	2709.848877
2773.875000	2670.305420
2772.979492	2775.998047
2772.083984	2649.895264
2771.188477	2719.262695
2770.292969	2752.319336
2769.397461	2693.264160
2768.501953	2695.618652
2767.605469	2709.132568
2766.708984	2689.166992
2765.812500	2660.840332
2764.916016	2682.719238
2764.019531	2760.355713
2763.123047	2790.574707
2762.226563	2820.783691
2761.329102	2759.015625
2760.431641	2674.976074
2759.534180	2643.897217
2758.636719	2649.040527
2757.739258	2704.313232
2756.841797	2820.829834
2755.943359	2812.020752
2755.045898	2755.891113
2754.147461	2744.311768
2753.249023	2738.301758
2752.350586	2701.687744
2751.452148	2673.431152
2750.552734	2787.038818
2749.654297	2789.368652
2748.754883	2761.111328
2747.855469	2832.947510
2746.956055	2807.471680
2746.056641	2776.445557
2745.157227	2664.845215
2744.257813	2772.768311
2743.357422	2744.540527
2742.457031	2841.306152
2741.556641	2674.227539
2740.656250	2765.419922
2739.755859	2742.763428
2738.855469	2670.153076
2737.954102	2664.170166
2737.053711	2730.332275
2736.152344	2738.212891
2735.250977	2757.186279
2734.349609	2673.538330
2733.448242	2775.703857
2732.545898	2741.984619
2731.644531	2758.172607
2730.742188	2741.096436
2729.840820	2798.846191
2728.938477	2723.584473
2728.035156	2656.657715
2727.132813	2722.702148
2726.230469	2722.261230
2725.327148	2658.135742
2724.424805	2765.674561
2723.521484	2770.762451
2722.618164	2626.401123
2721.713867	2733.892578
2720.810547	2725.149658
2719.907227	2741.305420
2719.002930	2660.654541
2718.098633	2660.223389
2717.194336	2728.914063
2716.290039	2722.943115
2715.385742	2794.364746
2714.481445	2716.533691
2713.576172	2619.386230
2712.671875	2770.906006
2711.766602	2668.256592
2710.861328	2673.347656
2709.956055	2661.869385
2709.050781	2658.677246
2708.144531	2721.735352
2707.239258	2652.295898
2706.333008	2693.258301
2705.426758	2706.617188
2704.520508	2620.662109
2703.614258	2769.177246
2702.708008	2583.962891
2701.800781	2622.145508
2700.893555	2778.858398
2699.987305	2568.924805
2699.080078	2675.989014
2698.172852	2659.022461
2697.264648	2631.041504
2696.357422	2682.951904
2695.450195	2572.352051
2694.541992	2673.821045
2693.633789	2736.711914
2692.725586	2661.943115
2691.817383	2727.567871
2690.909180	2729.877686
2690.000000	2685.411865
2689.091797	2684.976563
2688.182617	2695.543457
2687.273438	2700.606689
2686.364258	2832.152832
2685.455078	2743.718750
2684.545898	2729.530029
2683.635742	2690.610840
2682.726563	2673.687500
2681.816406	2733.697510
2680.906250	2601.398682
2679.996094	2713.585205
2679.085938	2696.668701
2678.174805	2611.116211
2677.264648	2646.380615
2676.353516	2632.227539
2675.442383	2612.590576
2674.531250	2592.959717
2673.620117	2812.013428
2672.708984	2753.954834
2671.796875	2731.567871
2670.885742	2711.930176
2669.973633	2749.873535
2669.061523	2689.121094
2668.149414	2740.759277
2667.237305	2762.237305
2666.324219	2745.350098
2665.412109	2742.165527
2664.499023	2736.242676
2663.585938	2831.647705
2662.672852	2672.378906
2661.759766	2751.337402
2660.846680	2657.826172
2659.933594	2742.234619
2659.019531	2689.799805
2658.105469	2694.835205
2657.192383	2757.312744
2656.278320	2781.480469
2655.363281	2772.825439
2654.449219	2764.173340
2653.535156	2736.388428
2652.620117	2823.407227
2651.705078	2680.845215
2650.790039	2817.026367
2649.875000	2666.315918
2648.959961	2671.346191
2648.044922	2709.146729
2647.128906	2763.318115
2646.212891	2842.042969
2645.296875	2650.505127
2644.380859	2718.305664
2643.464844	2726.050781
2642.548828	2627.388428
2641.632813	2774.268311
2640.715820	2694.721924
2639.798828	2784.275879
2638.881836	2682.941162
2637.964844	2655.244385
2637.047852	2616.654053
2636.130859	2741.590332
2635.212891	2708.447754
2634.294922	2776.116943
2633.377930	2770.218506
2632.459961	2805.174072
2631.541992	2668.567383
2630.623047	2736.198730
2629.705078	2632.313232
2628.786133	2838.735107
2627.867188	2770.242920
2626.949219	2671.843750
2626.030273	2725.817627
2625.110352	2709.055420
2624.191406	2607.994385
2623.271484	2732.647217
2622.352539	2783.857178
2621.432617	2663.805908
2620.512695	2785.671143
2619.592773	2687.396484
2618.672852	2752.164551
2617.751953	2835.926270
2616.832031	2753.986816
2615.911133	2813.281006
2614.990234	2861.695801
2614.069336	2817.796875
2613.148438	2760.341064
2612.226563	2773.461670
2611.305664	2735.024658
2610.383789	2745.432129
2609.462891	2734.136475
2608.541016	2861.156250
2607.618164	2782.056396
2606.696289	2754.493408
2605.774414	2835.366455
2604.851563	2715.655518
2603.929688	2847.994385
2603.006836	2806.891602
2602.083984	2749.548340
2601.160156	2722.017090
2600.237305	2754.071289
2599.314453	2694.056885
2598.390625	2891.241455
2597.466797	2787.916748
2596.542969	2795.582520
2595.619141	2768.070068
2594.695313	2878.541748
2593.770508	2791.515381
2592.846680	2788.357422
2591.921875	2988.006104
2590.997070	2738.785889
2590.072266	2768.076172
2589.147461	2797.356689
2588.222656	2810.413818
2587.296875	2793.745850
2586.372070	2760.874512
2585.446289	2746.920898
2584.520508	2843.694824
2583.594727	2908.035889
2582.668945	2834.671631
2581.742188	2777.526855
2580.816406	2688.014648
2579.889648	2679.482910
2578.962891	2797.756348
2578.036133	2732.561768
2577.109375	2848.091064
2576.181641	2850.324951
2575.254883	2750.103027
2574.327148	2795.483643
2573.399414	2778.857422
2572.472656	2737.982666
2571.543945	2732.148926
2570.616211	2747.868652
2569.688477	2728.567139
2568.759766	2795.451416
2567.831055	2792.304199
2566.903320	2751.466797
2565.974609	2619.121338
2565.044922	2699.436523
2564.116211	2623.651611
2563.186523	2771.201904
2562.257813	2759.991211
2561.328125	2646.578613
2560.398438	2605.810791
2559.468750	2624.208252
2558.539063	2699.053955
2557.608398	2674.424316
2556.678711	2789.548828
2555.748047	2657.432861
2554.817383	2648.940918
2553.886719	2702.232422
2552.956055	2696.421875
2552.024414	2704.039063
2551.093750	2719.708008
2550.162109	2711.212646
2549.230469	2683.932373
2548.298828	2764.000732
2547.367188	2691.108643
2546.435547	2712.131836
2545.503906	2751.923584
2544.571289	2713.931641
2543.638672	2700.083496
2542.706055	2648.707764
2541.773438	2626.833252
2540.840820	2704.126221
2539.908203	2861.781006
2538.974609	2778.262207
2538.041016	2812.633301
2537.108398	2774.680176
2536.174805	2827.785156
2535.240234	2704.165283
2534.306641	2735.848633
2533.373047	2647.078369
2532.438477	2692.141357
2531.503906	2758.594482
2530.569336	2691.265381
2529.634766	2803.167969
2528.700195	2703.761230
2527.765625	2700.647461
2526.830078	2697.534424
2525.894531	2795.998047
2524.958984	2726.055176
2524.023438	2666.823975
2523.087891	2818.678711
2522.152344	2689.997803
2521.215820	2788.381836
2520.280273	2774.575928
2519.343750	2763.444336
2518.407227	2730.959961
2517.470703	2567.698730
2516.534180	2609.979980
2515.596680	2764.313965
2514.660156	2678.493652
2513.722656	2854.105469
2512.785156	2824.304443
2511.847656	2725.183350
2510.910156	2708.743164
2509.971680	2828.256592
2509.034180	2691.870117
2508.095703	2686.102295
2507.157227	2794.903320
2506.218750	2685.227783
2505.280273	2751.377686
2504.341797	2745.603516
2503.402344	2683.916504
2502.463867	2643.546631
2501.524414	2762.895020
2500.584961	2687.928223
2499.645508	2730.064697
2498.706055	2705.676270
2497.765625	2622.775146
2496.826172	2646.284180
2495.885742	2603.306885
2494.945313	2658.716064
2494.004883	2631.700195
2493.064453	2583.430420
2492.124023	2699.936035
2491.182617	2622.443604
2490.241211	2728.278564
2489.300781	2802.205566
2488.359375	2711.455811
2487.417969	2748.187744
2486.475586	2702.608154
2485.534180	2680.932861
2484.591797	2749.499023
2483.649414	2762.318848
2482.708008	2844.114746
2481.764648	2825.082764
2480.822266	2776.882324
2479.879883	2683.617188
2478.936523	2730.904541
2477.994141	2709.252197
2477.050781	2679.655273
2476.107422	2689.819092
2475.164063	2692.030273
2474.219727	2691.591797
2473.276367	2797.104004
2472.332031	2754.274902
2471.387695	2735.290771
2470.443359	2652.773193
2469.499023	2699.987793
2468.554688	2768.359863
2467.610352	2783.785889
2466.665039	2688.084961
2465.719727	2753.780029
2464.774414	2734.816895
2463.829102	2705.282227
2462.883789	2776.229980
2461.938477	2799.570068
2460.992188	2767.395752
2460.045898	2692.947998
2459.100586	2674.012939
2458.154297	2713.205322
2457.207031	2712.762939
2456.260742	2643.654297
2455.314453	2600.974121
2454.367188	2714.076660
2453.419922	2705.715088
2452.472656	2718.470459
2451.525391	2749.693604
2450.578125	2796.737061
2449.629883	2711.864990
2448.682617	2661.309082
2447.734375	2921.952148
2446.786133	2744.816162
2445.837891	2715.369385
2444.889648	2765.007813
2443.940430	2764.557129
2442.992188	2735.121338
2442.042969	2882.210938
2441.093750	2750.034180
2440.144531	2760.120605
2439.195313	2833.402100
2438.246094	2817.143066
2437.295898	2882.493896
2436.346680	2863.599854
2435.396484	2955.237305
2434.446289	2888.977295
2433.496094	2917.443604
2432.545898	2898.555908
2431.594727	2895.453369
2430.643555	2834.504639
2429.693359	2939.201416
2428.742188	3004.435791
2427.791016	2846.258301
2426.838867	2811.634033
2425.887695	2842.702637
2424.936523	2821.224121
2423.984375	2828.643066
2423.032227	2906.960938
2422.080078	2769.958008
2421.127930	2685.502197
2420.174805	2774.303711
2419.222656	2674.128906
2418.269531	2655.325684
2417.316406	2759.828857
2416.363281	2643.967285
2415.410156	2654.025879
2414.457031	2671.947754
2413.502930	2668.890137
2412.549805	2707.773682
2411.595703	2778.094482
2410.641602	2662.342773
2409.687500	2630.468506
2408.733398	2679.810791
2407.778320	2592.942139
2406.824219	2663.223877
2405.869141	2592.095703
2404.914063	2596.908447
2403.958984	2583.397461
2403.003906	2517.550781
2402.048828	2566.854736
2401.091797	2631.839111
2400.136719	2526.781006
2399.181641	2693.746826
2398.224609	2638.395020
2397.269531	2603.976807
2396.312500	2587.867432
2395.355469	2650.170898
2394.398438	2717.680420
2393.441406	2654.531250
2392.484375	2651.485352
2391.527344	2606.650635
2390.570313	2559.218994
2389.613281	2671.074951
2388.656250	2571.436279
2387.697266	2557.965576
2386.740234	2567.986816
2385.781250	2674.549316
2384.824219	2648.023682
2383.865234	2626.723633
2382.906250	2644.550781
2381.947266	2610.219971
2380.988281	2612.400879
2380.029297	2562.445801
2379.070313	2494.262451
2378.111328	2629.362305
2377.152344	2571.612305
2376.191406	2576.402344
2375.232422	2544.725830
2374.271484	2549.518555
2373.312500	2523.064209
2372.351563	2608.562988
2371.390625	2511.828369
2370.431641	2667.568359
2369.470703	2492.792969
2368.509766	2575.638672
2367.548828	2533.598389
2366.585938	2520.180420
2365.625000	2595.179688
2364.664063	2456.958008
2363.701172	2641.123047
2362.740234	2591.308594
2361.777344	2505.128662
2360.816406	2551.487793
2359.853516	2512.103516
2358.890625	2540.264404
2357.927734	2537.252197
2356.964844	2567.996338
2356.001953	2489.692627
2355.039063	2525.625732
2354.076172	2592.690430
2353.113281	2553.343750
2352.148438	2568.492920
2351.185547	2500.628662
2350.220703	2388.695801
2349.257813	2473.879639
2348.292969	2535.701172
2347.328125	2462.701660
2346.365234	2345.663818
2345.400391	2495.585693
2344.435547	2430.401611
2343.470703	2554.354004
2342.503906	2375.212646
2341.539063	2449.927979
2340.574219	2586.762939
2339.607422	2490.549805
2338.642578	2440.960938
2337.675781	2396.564453
2336.710938	2440.162842
2335.744141	2481.159424
2334.777344	2470.406494
2333.810547	2511.384766
2332.843750	2544.591553
2331.876953	2663.110596
2330.910156	2727.302979
2329.943359	2760.458008
2328.974609	2713.489746
2328.007813	2612.275635
2327.041016	2534.345459
2326.072266	2634.668213
2325.103516	2556.759766
2324.136719	2502.116211
2323.167969	2504.288574
2322.199219	2488.391113
2321.230469	2384.748047
2320.261719	2464.352783
2319.292969	2500.070313
2318.324219	2455.807617
2317.355469	2457.985107
2316.384766	2480.791992
2315.416016	2488.121094
2314.445313	2467.090576
2313.476563	2386.783691
2312.505859	2466.283203
2311.535156	2440.113037
2310.564453	2416.527344
2309.593750	2465.072754
2308.623047	2487.848145
2307.652344	2384.441406
2306.681641	2422.669678
2305.710938	2422.273193
2304.740234	2450.187744
2303.767578	2382.880859
2302.796875	2320.741699
2301.824219	2379.528564
2300.851563	2410.003662
2299.880859	2422.467285
2298.908203	2375.789063
2297.935547	2395.966309
2296.962891	2462.403564
2295.990234	2593.067383
2295.017578	2345.969238
2294.042969	2427.796143
2293.070313	2391.437256
2292.097656	2380.772705
2291.123047	2442.010986
2290.150391	2457.015625
2289.175781	2353.933594
2288.201172	2322.749512
2287.228516	2314.670654
2286.253906	2388.697998
2285.279297	2360.088379
2284.304688	2390.480713
2283.330078	2467.023438
2282.353516	2476.875488
2281.378906	2499.542725
2280.404297	2240.248779
2279.427734	2406.463379
2278.453125	2385.570313
2277.476563	2464.600342
2276.500000	2330.996826
2275.525391	2366.470703
2274.548828	2371.204346
2273.572266	2468.106445
2272.595703	2447.223389
2271.619141	2423.787598
2270.640625	2541.105469
2269.664063	2407.642090
2268.687500	2455.853027
2267.708984	2452.892822
2266.732422	2490.851318
2265.753906	2390.723145
2264.777344	2403.114014
2263.798828	2458.954102
2262.820313	2369.103027
2261.841797	2366.159424
2260.863281	2478.184326
2259.884766	2388.373779
2258.906250	2382.874512
2257.925781	2415.680420
2256.947266	2323.371094
2255.968750	2368.939453
2254.988281	2373.656006
2254.009766	2365.611328
2253.029297	2406.047363
2252.048828	2346.978516
2251.068359	2486.879395
2250.087891	2422.716064
2249.107422	2315.227051
2248.126953	2345.440186
2247.146484	2431.720947
2246.166016	2380.351074
2245.185547	2344.286865
2244.203125	2417.786621
2243.222656	2425.032227
2242.240234	2450.103516
2241.259766	2373.307861
2240.277344	2383.102783
2239.294922	2464.172363
2238.312500	2361.959717
2237.330078	2448.095703
2236.347656	2406.984131
2235.365234	2409.133545
2234.382813	2327.344971
2233.398438	2489.723633
2232.416016	2418.119385
2231.431641	2415.180420
2230.449219	2348.695557
2229.464844	2383.890869
2228.480469	2302.186523
2227.498047	2355.162109
2226.513672	2387.798584
2225.529297	2410.265137
2224.544922	2323.531006
2223.560547	2371.390137
2222.574219	2368.462646
2221.589844	2467.061035
2220.605469	2339.770752
2219.619141	2339.386963
2218.634766	2417.646484
2217.648438	2369.057129
2216.662109	2343.307861
2215.675781	2413.921143
2214.691406	2372.961670
2213.705078	2347.224365
2212.718750	2362.045654
2211.730469	2338.852295
2210.744141	2244.727051
2209.757813	2310.220459
2208.771484	2281.981445
2207.783203	2436.077393
2206.794922	2311.615234
2205.808594	2402.368896
2204.820313	2358.946533
2203.832031	2444.601318
2202.843750	2383.474609
2201.855469	2337.546875
2200.867188	2370.045410
2199.878906	2364.598389
2198.890625	2298.467529
2197.902344	2298.090332
2196.912109	2355.851074
2195.923828	2309.972656
2194.933594	2312.120361
2193.945313	2397.641357
2192.955078	2298.730713
2191.964844	2313.507324
2190.974609	2255.046875
2189.984375	2295.073975
2188.994141	2256.830811
2188.003906	2337.228516
2187.013672	2288.896484
2186.023438	2402.063721
2185.031250	2373.918945
2184.041016	2340.738525
2183.048828	2239.476807
2182.058594	2350.055908
2181.066406	2301.769043
2180.074219	2369.449707
2179.082031	2195.161377
2178.089844	2209.920166
2177.097656	2320.412842
2176.105469	2345.222168
2175.113281	2314.613525
2174.121094	2377.188477
2173.126953	2313.853271
2172.134766	2290.816650
2171.140625	2338.262695
2170.148438	2252.315918
2169.154297	2307.300781
2168.160156	2246.544434
2167.166016	2175.746582
2166.171875	2293.589355
2165.177734	2207.719971
2164.183594	2302.892090
2163.189453	2337.705078
2162.195313	2261.923584
2161.199219	2251.500488
2160.205078	2210.931641
2159.208984	2303.512695
2158.214844	2285.553223
2157.218750	2255.043213
2156.222656	2312.420410
2155.226563	2239.239990
2154.230469	2341.779785
2153.234375	2333.866455
2152.238281	2310.900635
2151.242188	2290.451172
2150.244141	2290.074707
2149.248047	2299.729736
2148.251953	2316.904053
2147.253906	2336.579834
2146.255859	2200.836670
2145.259766	2197.968750
2144.261719	2237.700439
2143.263672	2227.311035
2142.265625	2297.084961
2141.267578	2176.487061
2140.269531	2276.296143
2139.269531	2305.967041
2138.271484	2217.970703
2137.273438	2267.664795
2136.273438	2317.342529
2135.275391	2251.906250
2134.275391	2178.986572
2133.275391	2248.664551
2132.277344	2295.811523
2131.277344	2190.414063
2130.277344	2232.554932
2129.277344	2279.681152
2128.275391	2321.793213
2127.275391	2283.928955
2126.275391	2211.099121
2125.273438	2328.141846
2124.273438	2327.758789
2123.271484	2244.968750
2122.271484	2331.986572
2121.269531	2299.150391
2120.267578	2306.260010
2119.265625	2263.456299
2118.263672	2315.481689
2117.261719	2190.364746
2116.259766	2199.981689
2115.257813	2179.668457
2114.253906	2231.673096
2113.251953	2243.771240
2112.248047	2235.924072
2111.246094	2292.878174
2110.242188	2272.565918
2109.238281	2319.529297
2108.236328	2192.105225
2107.232422	2326.237793
2106.228516	2323.364746
2105.224609	2330.451904
2104.218750	2257.875977
2103.214844	2334.662842
2102.210938	2259.621338
2101.205078	2306.524414
2100.201172	2206.634766
2099.195313	2273.429932
2098.189453	2223.316895
2097.185547	2232.896973
2096.179688	2274.793457
2095.173828	2339.047119
2094.167969	2293.926758
2093.162109	2268.700195
2092.156250	2268.326660
2091.148438	2168.590576
2090.142578	2275.030762
2089.134766	2160.426758
2088.128906	2135.242676
2087.121094	2340.932861
2086.115234	2258.640625
2085.107422	2183.820313
2084.099609	2312.483398
2083.091797	2148.369873
2082.083984	2252.192383
2081.076172	2137.742432
2080.068359	2261.368896
2079.058594	2278.350586
2078.050781	2238.315186
2077.041016	2213.163086
2076.033203	2153.328125
2075.023438	2309.057617
2074.013672	2229.409424
2073.005859	2186.937988
2071.996094	2258.390625
2070.986328	2171.362061
2069.976563	2250.220215
2068.966797	2158.271240
2067.955078	2175.238525
2066.945313	2244.159424
2065.935547	2209.155762
2064.923828	2137.061768
2063.912109	2196.062500
2062.902344	2158.611084
2061.890625	2237.366699
2060.878906	2167.787109
2059.867188	2088.344482
2058.855469	2073.174316
2057.843750	2114.832764
2056.832031	2208.351563
2055.820313	2188.229492
2054.806641	2180.460449
2053.794922	2093.687256
2052.781250	2147.650391
2051.769531	2199.127686
2050.755859	2176.555420
2049.742188	2193.468018
2048.730469	2215.308838
2047.716797	2232.209473
2046.703125	2226.909180
2045.687500	2206.816406
2044.673828	2245.897461
2043.660156	2169.115234
2042.646484	2158.899414
2041.630859	2178.256348
2040.617188	2214.852295
2039.601563	2147.978516
2038.585938	2150.087158
2037.570313	2213.756836
2036.556641	2114.909424
2035.541016	2144.100342
2034.523438	2126.518066
2033.507813	2089.254639
2032.492188	2157.802246
2031.476563	2184.506836
2030.458984	2164.469482
2029.443359	2060.825195
2028.425781	2149.002686
2027.410156	2104.396729
2026.392578	2131.087646
2025.375000	2106.160156
2024.357422	2206.557617
2023.339844	2110.378906
2022.322266	2196.003906
2021.304688	2168.625977
2020.287109	2141.256836
2019.267578	2172.820801
2018.250000	2187.190674
2017.230469	2130.379639
2016.212891	2218.370361
2015.193359	2164.026367
2014.173828	2183.294189
2013.154297	2202.555908
2012.134766	2165.407471
2011.115234	2194.473145
2010.095703	2105.856201
2009.076172	2188.846680
2008.056641	2134.569580
2007.035156	2141.568359
2006.015625	2168.163574
2004.994141	2189.851318
2003.974609	2101.322510
2002.953125	2105.872803
2001.931641	2059.007813
2000.910156	2063.563721
1999.888672	2087.697754
1998.867188	2124.059326
1997.845703	2165.302002
1996.824219	2152.713135
1995.800781	2049.631348
1994.779297	2147.111328
1993.755859	2134.531494
1992.734375	2087.730713
1991.710938	2092.274414
1990.687500	2028.389038
1989.666016	2057.375244
1988.642578	2154.756836
1987.619141	2086.007324
1986.595703	2119.854004
1985.570313	2153.689453
1984.546875	2072.766846
1983.523438	2096.834717
1982.498047	2089.166504
1981.474609	2064.419189
1980.449219	1959.166382
1979.423828	1983.236816
1978.400391	1997.543213
1977.375000	2048.423828
1976.349609	2128.545898
1975.324219	2059.936035
1974.296875	2140.029541
1973.271484	2047.070435
1972.246094	2022.366333
1971.218750	2075.628174
1970.193359	1990.032837
1969.166016	2079.812988
1968.140625	2069.729492
1967.113281	2152.162842
1966.085938	2071.479492
1965.058594	2168.488037
1964.031250	2051.327881
1963.003906	2082.617432
1961.976563	2072.542969
1960.949219	2147.597412
1959.919922	1998.905151
1958.892578	1991.280640
1957.863281	2029.846802
1956.835938	1978.469604
1955.806641	2094.789795
1954.777344	2104.162598
1953.748047	2125.678711
1952.718750	2096.179932
1951.689453	2137.118652
1950.660156	2042.067749
1949.630859	2078.146240
1948.599609	2055.956543
1947.570313	2045.908813
1946.539063	2089.248047
1945.509766	2064.641357
1944.478516	2110.388916
1943.447266	2110.039795
1942.417969	2083.016602
1941.386719	2053.577637
1940.355469	2045.965698
1939.324219	2043.203613
1938.291016	2040.442261
1937.259766	2064.333984
1936.228516	2068.837646
1935.195313	2138.737061
1934.164063	2085.105225
1933.130859	2007.277954
1932.097656	2089.257324
1931.064453	2108.275879
1930.033203	2040.163574
1929.000000	2068.862793
1927.966797	2073.359131
1926.931641	2029.475464
1925.898438	2092.021240
1924.865234	2082.002441
1923.830078	2047.809937
1922.796875	2151.415771
1921.761719	2054.383057
1920.728516	2056.459473
1919.693359	2041.622437
1918.658203	2000.217285
1917.623047	2096.499023
1916.587891	2069.587891
1915.552734	2047.514771
1914.517578	2018.206299
1913.480469	2058.905518
1912.445313	2123.724365
1911.408203	2092.004883
1910.373047	2065.120850
1909.335938	2100.960693
1908.298828	2016.202515
1907.263672	2138.846436
1906.226563	2039.644287
1905.189453	2027.253906
1904.152344	2031.738525
1903.113281	2000.075562
1902.076172	2045.521729
1901.039063	2095.770508
1900.000000	2129.143066
1898.962891	2063.770752
1897.923828	2099.544922
1896.886719	2034.199219
1895.847656	2057.931641
1894.808594	2021.492798
1893.769531	2090.936035
1892.730469	2016.011719
1891.691406	2075.811279
1890.650391	1938.385620
1889.611328	2002.987305
1888.572266	2038.717651
1887.531250	2074.436279
1886.492188	2107.739502
1885.451172	1929.571655
1884.410156	2123.858887
1883.369141	1981.779785
1882.328125	2048.700684
1881.287109	1949.905396
1880.246094	1937.577515
1879.205078	2028.477905
1878.164063	2061.744141
1877.121094	2087.800049
1876.080078	2022.670898
1875.037109	2065.517334
1873.996094	2043.587769
1872.953125	2004.878174
1871.910156	1973.374756
1870.867188	1963.458130
1869.824219	1929.574829
1868.781250	2001.152710
1867.738281	2039.160034
1866.695313	2007.676636
1865.650391	2000.157593
1864.607422	1980.666016
1863.562500	1965.970093
1862.519531	1946.490479
1861.474609	2003.619141
1860.429688	1933.878052
1859.384766	2005.347778
1858.339844	1969.125977
1857.294922	1983.152832
1856.250000	1978.040283
1855.205078	2049.455322
1854.158203	1979.775391
1853.113281	1950.759399
1852.068359	2022.143066
1851.021484	1983.570190
1849.974609	1976.072876
1848.927734	2049.805664
1847.882813	1939.587646
1846.835938	1967.924927
1845.789063	1962.822876
1844.740234	1883.710815
1843.693359	1928.752686
1842.646484	1964.232788
1841.599609	1959.134399
1840.550781	1934.950562
1839.501953	1925.087524
1838.455078	1915.227783
1837.406250	1950.680420
1836.357422	1993.274170
1835.308594	1864.212646
1834.259766	1878.204346
1833.210938	1873.126465
1832.162109	1908.556274
1831.113281	1955.885986
1830.062500	1788.826538
1829.013672	1743.280640
1827.962891	1738.229004
1826.914063	1752.224976
1825.863281	1828.105103
1824.812500	1868.260864
1823.761719	1941.716919
1822.710938	1922.361328
1821.660156	1886.360718
1820.609375	1902.696167
1819.558594	1873.844604
1818.505859	1847.380127
1817.455078	1896.994263
1816.402344	1899.056152
1815.351563	1820.319702
1814.298828	1879.417480
1813.246094	1890.983521
1812.193359	1710.153320
1811.140625	1657.623291
1810.087891	1733.329590
1809.035156	1835.125000
1807.982422	1868.051147
1806.927734	1889.100098
1805.875000	1860.312134
1804.820313	1886.100220
1803.767578	1843.089844
1802.712891	1909.190308
1801.658203	1961.041138
1800.603516	1934.635742
1799.548828	2069.431885
1798.494141	1877.110840
1797.439453	1981.065674
1796.384766	1980.736450
1795.330078	1975.669556
1794.273438	1920.865479
1793.218750	1946.595703
1792.162109	1913.124023
1791.105469	1908.071411
1790.050781	1903.020508
1788.994141	1921.636719
1787.937500	1923.683472
1786.880859	1956.484375
1785.824219	1953.793945
1784.765625	1920.359497
1783.708984	1993.342407
1782.652344	1893.715210
1781.593750	1940.676270
1780.535156	1968.714600
1779.478516	1928.216187
1778.419922	1977.510620
1777.361328	1967.732910
1776.302734	2012.280640
1775.244141	2030.837646
1774.185547	1933.697021
1773.126953	2013.637817
1772.066406	1928.333618
1771.007813	1968.130737
1769.949219	1972.522461
1768.888672	1903.781006
1767.828125	2004.888184
1766.769531	2021.062866
1765.708984	2008.937256
1764.648438	2020.390625
1763.587891	1994.126343
1762.527344	1972.584106
1761.464844	2009.957397
1760.404297	2007.267212
1759.343750	1985.733276
1758.281250	1971.271973
1757.220703	1973.298828
1756.158203	2012.994995
1755.095703	1887.898804
1754.033203	1951.131836
1752.970703	1856.678955
1751.908203	1952.835449
1750.845703	1912.519409
1749.783203	1928.665405
1748.720703	2020.058472
1747.656250	1880.998657
1746.593750	1977.070801
1745.529297	1899.176392
1744.466797	1915.310913
1743.402344	1919.691528
1742.337891	1949.912842
1741.273438	1984.821777
1740.208984	1996.234009
1739.144531	1937.198730
1738.080078	1882.878540
1737.013672	1971.764038
1735.949219	1886.945679
1734.884766	1987.533447
1733.818359	2003.625732
1732.751953	1890.695068
1731.687500	1937.287964
1730.621094	1906.480469
1729.554688	1744.385376
1728.488281	1933.976196
1727.421875	1828.182129
1726.353516	1926.302002
1725.287109	1996.272461
1724.220703	1885.835449
1723.152344	1913.628540
1722.085938	1920.335449
1721.017578	1875.527466
1719.949219	1896.284912
1718.880859	1856.177124
1717.814453	1816.082642
1716.744141	1656.665405
1715.675781	1899.700928
1714.607422	1885.349609
1713.539063	1885.035522
1712.468750	1844.969360
1711.400391	1828.296143
1710.330078	1846.692261
1709.261719	1897.802856
1708.191406	1876.455444
1707.121094	1876.142822
1706.050781	1819.765503
1704.980469	1856.832520
1703.910156	1940.592163
1702.839844	1888.901855
1701.769531	1827.890747
1700.697266	1864.931519
1699.626953	1806.278320
1698.554688	1819.977173
1697.482422	1794.011719
1696.412109	1828.700684
1695.339844	1800.410156
1694.267578	1818.764038
1693.195313	1809.135498
1692.123047	1892.748901
1691.048828	1817.854736
1689.976563	1817.551636
1688.904297	1854.525513
1687.830078	1791.322021
1686.757813	1844.591064
1685.683594	1839.626221
1684.609375	1857.945557
1683.535156	1752.881836
1682.460938	1745.607178
1681.386719	1829.091187
1680.312500	1779.925537
1679.238281	1756.365479
1678.164063	1765.376343
1677.087891	1788.337280
1676.013672	1841.517456
1674.937500	1806.338867
1673.863281	1878.093140
1672.787109	1791.792358
1671.710938	1826.347534
1670.634766	1802.810669
1669.558594	1804.832764
1668.482422	1860.270142
1667.404297	1834.417236
1666.328125	1829.467896
1665.251953	1845.411621
1664.173828	1782.439819
1663.097656	1888.885254
1662.019531	1756.323853
1660.941406	1809.384399
1659.863281	1690.796265
1658.785156	1818.056396
1657.707031	1725.010498
1656.628906	1829.040405
1655.550781	1872.773193
1654.470703	1844.651733
1653.392578	1709.957031
1652.312500	1783.803711
1651.234375	1841.411987
1650.154297	1808.682617
1649.074219	1822.273560
1647.994141	1789.558228
1646.914063	1840.182739
1645.833984	1714.902832
1644.753906	1735.441895
1643.673828	1783.736328
1642.593750	1739.488647
1641.511719	1808.581177
1640.431641	1794.404907
1639.349609	1773.297363
1638.267578	1749.885132
1637.185547	1855.909058
1636.103516	1746.989868
1635.021484	1781.354858
1633.939453	1725.615845
1632.857422	1856.979248
1631.775391	1819.720337
1630.693359	1736.295898
1629.609375	1784.484741
1628.527344	1798.035522
1627.443359	1834.659058
1626.359375	1799.742188
1625.275391	1810.976318
1624.191406	1852.192383
1623.107422	1778.084473
1622.023438	1766.258179
1620.939453	1768.268555
1619.855469	1733.397339
1618.769531	1799.942993
1617.685547	1815.772095
1616.599609	1755.567505
1615.515625	1776.005615
1614.429688	1856.318237
1613.343750	1796.136719
1612.257813	1782.022461
1611.171875	1737.987183
1610.085938	1818.252197
1609.000000	1725.900146
1607.912109	1783.132080
1606.826172	1736.825439
1605.738281	1727.334839
1604.652344	1823.631958
1603.564453	1735.954468
1602.476563	1781.642090
1601.388672	1811.224854
1600.300781	1737.382080
1599.212891	1815.214722
1598.125000	1713.827515
1597.037109	1725.025757
1595.949219	1754.593018
1594.859375	1687.709595
1593.771484	1793.035156
1592.681641	1739.940186
1591.591797	1778.665161
1590.501953	1766.894287
1589.412109	1736.773071
1588.322266	1715.837402
1587.232422	1749.953247
1586.142578	1738.194824
1585.052734	1671.414307
1583.962891	1655.088135
1582.871094	1748.782471
1581.779297	1661.409180
1580.689453	1713.829224
1579.597656	1841.828979
1578.505859	1777.388306
1577.414063	1749.610107
1576.322266	1763.055420
1575.230469	1732.999512
1574.138672	1783.065674
1573.046875	1746.150757
1571.953125	1766.451782
1570.861328	1784.458374
1569.767578	1775.010132
1568.673828	1738.120972
1567.582031	1705.817383
1566.488281	1812.984985
1565.394531	1776.107910
1564.300781	1723.244751
1563.207031	1709.245728
1562.111328	1800.347778
1561.017578	1697.251831
1559.923828	1747.214355
1558.828125	1799.443726
1557.732422	1751.195679
1556.638672	1835.365845
1555.542969	1837.340942
1554.447266	1805.084839
1553.351563	1811.627441
1552.255859	1831.855469
1551.160156	1769.964844
1550.062500	1783.351440
1548.966797	1830.935303
1547.871094	1741.718872
1546.773438	1787.014160
1545.675781	1745.693359
1544.580078	1724.893677
1543.482422	1751.943237
1542.384766	1765.316650
1541.287109	1780.963013
1540.189453	1716.906860
1539.089844	1716.619263
1537.992188	1800.554810
1536.894531	1720.595825
1535.794922	1754.440674
1534.697266	1742.770874
1533.597656	1717.456299
1532.498047	1619.369507
1531.398438	1689.592529
1530.298828	1793.896484
1529.199219	1593.549683
1528.099609	1716.017700
1527.000000	1604.378052
1525.898438	1608.653320
1524.798828	1776.491577
1523.697266	1651.269653
1522.597656	1737.289551
1521.496094	1700.668945
1520.394531	1775.300659
1519.292969	1775.003052
1518.191406	1776.974854
1517.089844	1710.874146
1515.988281	1701.512451
1514.886719	1696.690552
1513.783203	1721.353271
1512.681641	1691.586548
1511.578125	1566.608887
1510.476563	1618.482178
1509.373047	1668.071655
1508.269531	1685.920044
1507.166016	1642.590088
1506.062500	1640.049316
1504.958984	1628.449829
1503.855469	1632.705688
1502.750000	1580.356934
1501.646484	1593.674316
1500.541016	1631.884155
1499.437500	1602.191528
1498.332031	1617.760986
1497.226563	1635.587402
1496.121094	1669.240601
1495.015625	1573.979004
1493.910156	1569.192749
1492.804688	1580.232910
1491.699219	1575.447144
1490.591797	1581.962646
1489.486328	1577.177979
1488.378906	1615.319458
1487.271484	1612.789551
1486.166016	1648.653809
1485.058594	1655.151245
1483.951172	1634.554321
1482.843750	1720.057129
1481.736328	1584.353516
1480.626953	1793.945313
1479.519531	1631.200928
1478.412109	1714.390747
1477.302734	1659.973389
1476.195313	1675.479858
1475.085938	1591.776855
1473.976563	1616.306396
1472.867188	1598.003906
1471.757813	1633.791748
1470.648438	1606.479858
1469.539063	1630.990234
1468.427734	1619.454468
1467.318359	1630.442505
1466.208984	1587.387939
1465.097656	1589.372559
1463.986328	1625.119385
1462.876953	1582.087280
1461.765625	1658.324951
1460.654297	1619.801147
1459.542969	1646.521118
1458.431641	1711.464600
1457.318359	1753.900269
1456.207031	1670.421753
1455.095703	1690.371582
1453.982422	1703.572388
1452.869141	1557.225952
1451.757813	1671.546021
1450.644531	1525.254028
1449.531250	1630.557251
1448.417969	1652.738892
1447.304688	1695.119873
1446.191406	1569.125366
1445.076172	1566.617188
1443.962891	1667.336548
1442.847656	1676.031006
1441.734375	1610.693359
1440.619141	1617.151489
1439.503906	1565.300903
1438.390625	1645.756104
1437.275391	1517.696899
1436.158203	1499.510376
1435.042969	1606.828369
1433.927734	1626.724243
1432.812500	1675.737061
1431.695313	1614.977661
1430.580078	1693.089844
1429.462891	1636.826172
1428.345703	1576.103760
1427.228516	1600.461182
1426.113281	1582.287720
1424.996094	1577.546265
1423.876953	1653.348389
1422.759766	1572.541870
1421.642578	1646.082642
1420.523438	1585.429688
1419.406250	1638.821533
1418.287109	1638.545898
1417.169922	1703.085815
1416.050781	1689.391479
1414.931641	1617.610596
1413.812500	1610.636719
1412.693359	1632.700928
1411.574219	1563.198853
1410.453125	1605.358276
1409.333984	1634.109253
1408.214844	1636.066284
1407.093750	1642.485840
1405.972656	1590.890381
1404.853516	1572.775513
1403.732422	1534.592163
1402.611328	1578.936523
1401.490234	1600.968384
1400.369141	1654.204102
1399.246094	1645.009644
1398.125000	1617.989136
1397.003906	1550.868896
1395.880859	1592.937622
1394.757813	1599.351929
1393.636719	1567.902832
1392.513672	1605.493652
1391.390625	1554.016479
1390.267578	1569.336914
1389.144531	1535.688110
1388.021484	1615.538818
1386.896484	1541.845581
1385.773438	1557.157471
1384.648438	1632.515869
1383.525391	1563.304321
1382.400391	1540.807129
1381.275391	1600.568848
1380.150391	1531.397461
1379.025391	1606.696533
1377.900391	1588.650757
1376.775391	1581.718506
1375.650391	1585.894409
1374.523438	1536.770264
1373.398438	1587.580444
1372.271484	1618.393188
1371.146484	1593.704346
1370.019531	1517.980591
1368.892578	1588.729492
1367.765625	1615.084106
1366.638672	1503.904419
1365.511719	1645.588623
1364.384766	1647.528564
1363.255859	1558.569824
1362.128906	1545.007202
1361.000000	1500.421265
1359.873047	1540.054565
1358.744141	1568.596924
1357.615234	1466.435181
1356.486328	1596.860352
1355.357422	1647.522583
1354.228516	1618.462280
1353.099609	1620.403076
1351.968750	1533.811523
1350.839844	1653.050537
1349.708984	1539.931885
1348.580078	1614.886108
1347.449219	1563.742310
1346.318359	1556.844360
1345.187500	1541.104492
1344.056641	1509.895020
1342.925781	1620.155762
1341.794922	1440.877686
1340.664063	1531.226685
1339.531250	1530.968384
1338.400391	1561.633545
1337.267578	1559.161743
1336.136719	1605.268188
1335.003906	1408.512085
1333.871094	1545.128784
1332.738281	1558.109741
1331.605469	1610.804810
1330.472656	1542.140503
1329.337891	1530.851196
1328.205078	1559.263794
1327.072266	1543.565063
1325.937500	1620.469849
1324.802734	1560.678955
1323.669922	1432.584839
1322.535156	1505.062012
1321.400391	1542.262939
1320.265625	1513.365356
1319.130859	1647.461792
1317.994141	1488.631226
1316.859375	1453.151978
1315.722656	1527.753418
1314.587891	1509.887451
1313.451172	1536.040039
1312.314453	1463.172241
1311.179688	1526.721802
1310.042969	1522.065063
1308.906250	1548.197754
1307.769531	1488.569458
1306.630859	1499.310059
1305.494141	1507.848999
1304.355469	1459.245850
1303.218750	1511.734253
1302.080078	1414.814575
1300.943359	1491.454712
1299.804688	1431.906006
1298.666016	1477.776001
1297.527344	1532.412231
1296.388672	1477.276855
1295.248047	1479.221924
1294.109375	1529.441406
1292.970703	1522.601074
1291.830078	1511.375977
1290.691406	1568.144043
1289.550781	1462.622803
1288.410156	1398.794067
1287.269531	1433.631226
1286.128906	1391.746216
1284.988281	1494.504761
1283.847656	1421.949585
1282.705078	1373.515747
1281.564453	1449.942139
1280.423828	1408.089478
1279.281250	1403.472412
1278.138672	1451.396118
1276.996094	1462.094604
1275.855469	1424.644653
1274.712891	1358.763062
1273.568359	1343.219849
1272.425781	1445.795044
1271.283203	1371.195557
1270.140625	1467.171631
1268.996094	1431.944702
1267.851563	1540.992920
1266.708984	1486.096313
1265.564453	1516.435913
1264.419922	1503.071289
1263.275391	1384.863403
1262.130859	1386.813110
1260.986328	1493.574463
1259.839844	1512.970703
1258.695313	1503.983398
1257.550781	1464.444336
1256.404297	1451.103882
1255.257813	1429.041016
1254.113281	1393.897339
1252.966797	1474.358643
1251.820313	1543.889404
1250.673828	1478.220215
1249.525391	1475.790161
1248.378906	1455.924683
1247.232422	1514.515625
1246.083984	1514.259277
1244.937500	1496.575684
1243.789063	1544.239502
1242.640625	1520.023682
1241.492188	1463.156128
1240.343750	1521.686035
1239.195313	1469.190552
1238.046875	1501.585083
1236.898438	1531.792603
1235.748047	1616.376831
1234.599609	1516.048340
1233.449219	1526.665283
1232.300781	1532.929932
1231.150391	1510.930298
1230.000000	1560.668091
1228.849609	1627.774902
1227.699219	1531.891846
1226.548828	1546.840088
1225.398438	1613.915161
1224.246094	1578.893188
1223.095703	1587.311401
1221.943359	1650.003174
1220.791016	1588.944458
1219.640625	1558.290771
1218.488281	1577.556396
1217.335938	1646.715942
1216.183594	1670.298340
1215.031250	1587.598999
1213.876953	1591.666992
1212.724609	1656.440796
1211.570313	1578.121216
1210.417969	1690.557617
1209.263672	1586.254517
1208.109375	1661.818359
1206.957031	1707.028564
1205.802734	1650.425537
1204.646484	1708.615601
1203.492188	1697.500122
1202.337891	1625.773560
1201.183594	1703.417969
1200.027344	1683.652588
1198.873047	1730.968750
1197.716797	1706.878540
1196.560547	1756.337646
1195.404297	1701.974731
1194.248047	1708.172852
1193.091797	1686.264404
1191.935547	1694.624634
1190.779297	1718.109863
1189.621094	1722.140015
1188.464844	1808.264526
1187.306641	1801.477661
1186.150391	1835.727051
1184.992188	1785.751465
1183.833984	1824.309692
1182.675781	1789.463013
1181.517578	1838.798340
1180.359375	1808.276611
1179.199219	1769.135132
1178.041016	1824.920044
1176.882813	1835.394165
1175.722656	1863.115845
1174.562500	1888.671997
1173.404297	1799.969727
1172.244141	1959.155518
1171.083984	1952.358398
1169.923828	1952.027100
1168.761719	1947.387451
1167.601563	1983.671997
1166.441406	1998.409546
1165.279297	2017.448242
1164.119141	2040.785767
1162.957031	2023.220581
1161.794922	1994.901123
1160.632813	2013.927246
1159.470703	2017.887939
1158.308594	2064.865234
1157.146484	2040.858765
1155.984375	2150.170898
1154.820313	2012.218384
1153.658203	2063.463379
1152.494141	2144.777832
1151.330078	2262.592773
1150.167969	2193.461426
1149.003906	2208.124756
1147.839844	2300.097412
1146.675781	2166.577148
1145.509766	2179.090576
1144.345703	2271.020752
1143.181641	2221.273438
1142.015625	2304.582031
1140.849609	2274.154541
1139.685547	2312.379395
1138.519531	2288.395020
1137.353516	2320.171143
1136.187500	2437.695557
1135.021484	2426.563232
1133.855469	2370.426758
1132.687500	2475.024902
1131.521484	2470.319336
1130.353516	2514.884766
1129.187500	2475.905273
1128.019531	2531.161621
1126.851563	2616.373779
1125.683594	2667.305664
1124.515625	2600.502197
1123.347656	2640.719482
1122.179688	2742.971680
1121.009766	2686.885010
1119.841797	2692.844971
1118.671875	2613.262207
1117.503906	2659.857178
1116.333984	2714.987549
1115.164063	2810.709717
1113.994141	2902.125488
1112.824219	3023.423584
1111.654297	2978.046631
1110.484375	3150.553711
1109.312500	3092.356445
1108.142578	3038.449463
1106.970703	2950.402832
1105.800781	3065.164795
1104.628906	3085.985107
1103.457031	3185.748291
1102.285156	3221.474609
1101.113281	3118.539551
1099.941406	3224.644043
1098.769531	3339.241943
1097.595703	3368.521484
1096.423828	3425.501953
1095.250000	3410.000244
1094.076172	3599.069092
1092.904297	3523.888184
1091.730469	3651.098389
1090.556641	3648.347412
1089.382813	3683.927002
1088.207031	3630.072998
1087.033203	3842.326660
1085.859375	3871.469482
1084.683594	3870.810547
1083.509766	4019.085449
1082.333984	4043.928467
1081.158203	4056.001709
1079.982422	4212.675293
1078.806641	4175.812988
1077.630859	4121.956543
1076.455078	4272.162109
1075.279297	4260.809082
1074.101563	4262.208496
1072.925781	4412.312988
1071.748047	4547.498047
1070.570313	4483.014160
1069.392578	4469.511230
1068.214844	4515.454102
1067.037109	4686.612305
1065.859375	4566.971191
1064.681641	4631.970215
1063.503906	4554.808105
1062.324219	4640.998047
1061.146484	4652.931641
1059.966797	4775.122070
1058.787109	4795.508789
1057.607422	4881.598145
1056.427734	4897.720703
1055.248047	4869.340332
1054.068359	4893.933594
1052.888672	4774.479004
1051.707031	4803.315430
1050.527344	4853.316895
1049.345703	4924.472656
1048.166016	4896.115234
1046.984375	4850.835938
1045.802734	4845.776855
1044.621094	4969.777344
1043.439453	4996.429688
1042.257813	5004.037598
1041.074219	5017.987305
1039.892578	4998.103516
1038.708984	4908.467773
1037.527344	5068.259277
1036.343750	4993.434082
1035.160156	4916.521484
1033.976563	5050.880371
1032.792969	4965.535156
1031.609375	4941.459473
1030.425781	4908.945801
1029.242188	4981.994141
1028.056641	5004.361816
1026.873047	4950.750977
1025.687500	4981.555664
1024.501953	4866.788574
1023.316406	4863.849609
1022.130859	4941.047363
1020.945313	4917.010742
1019.759766	4842.387207
1018.574219	4809.944336
1017.386719	4800.694336
1016.201172	4844.123535
1015.013672	4746.388672
1013.828125	4768.748535
1012.640625	4774.252930
1011.453125	4703.952637
1010.265625	4515.781738
1009.078125	4628.675781
1007.890625	4539.494629
1006.701172	4624.991699
1005.513672	4624.202148
1004.324219	4553.998535
1003.136719	4551.118164
1001.947266	4432.587402
1000.757813	4475.980469
999.568359	4332.278809
998.378906	4388.284180
997.189453	4234.139160
996.000000	4275.435059
994.808594	4442.752441
993.619141	4324.380859
992.427734	4403.437500
991.238281	4188.535156
990.046875	4265.488281
988.855469	4319.328613
987.664063	4240.948730
986.472656	4208.752930
985.281250	4056.998047
984.089844	4138.102051
982.896484	3965.440674
981.705078	3878.800781
980.511719	3880.234375
979.318359	4024.190674
978.126953	3927.106689
976.933594	4039.577393
975.740234	3923.669922
974.546875	4046.574951
973.351563	3832.281006
972.158203	3875.595459
970.964844	3845.625244
969.769531	3930.783691
968.574219	3869.423340
967.380859	3816.453125
966.185547	3836.720703
964.990234	3804.690186
963.794922	3822.861328
962.599609	3659.115723
961.402344	3836.188477
960.207031	3802.089111
959.009766	3770.091309
957.814453	3796.610107
956.617188	3741.643311
955.419922	3686.695313
954.222656	3790.486084
953.025391	3777.309326
951.828125	3676.453369
950.630859	3673.737305
949.433594	3648.064941
948.234375	3655.787598
947.037109	3650.989746
945.837891	3644.107422
944.638672	3683.109863
943.441406	3563.622803
942.242188	3450.431152
941.042969	3358.122803
939.841797	3540.952637
938.642578	3434.073730
937.443359	3464.737549
936.242188	3357.908203
935.042969	3465.634521
933.841797	3492.112061
932.640625	3483.186523
931.439453	3424.304443
930.238281	3380.011230
929.037109	3570.878418
927.835938	3322.678711
926.634766	3240.981445
925.431641	3269.544678
924.230469	3447.822510
923.027344	3370.303711
921.824219	3303.205322
920.623047	3354.600586
919.419922	3335.323486
918.216797	3195.544678
917.011719	3126.444336
915.808594	3103.061768
914.605469	3160.676758
913.400391	3216.195557
912.197266	3199.037354
910.992188	3165.279785
909.787109	3033.997803
908.582031	3120.623047
907.376953	3016.362061
906.171875	3109.183105
904.966797	3046.436035
903.761719	2979.563477
902.554688	2898.201660
901.349609	2783.703857
900.142578	2874.412354
898.935547	2828.334961
897.728516	2877.570801
896.521484	2742.441162
895.314453	2760.609863
894.107422	2753.925049
892.900391	2747.242188
891.693359	2692.953613
890.484375	2715.257080
889.275391	2770.660156
888.068359	2689.500244
886.859375	2695.244629
885.650391	2771.303711
884.441406	2698.456055
883.232422	2648.375244
882.023438	2691.329590
880.812500	2668.134277
879.603516	2696.605957
878.392578	2607.305176
877.183594	2646.105469
875.972656	2606.410889
874.761719	2519.236084
873.550781	2613.775391
872.339844	2640.162109
871.128906	2617.006592
869.916016	2639.256592
868.705078	2583.097900
867.494141	2553.775391
866.281250	2456.401123
865.068359	2497.221924
863.855469	2500.916992
862.642578	2457.198486
861.429688	2462.959961
860.216797	2470.780029
859.003906	2556.890625
857.791016	2498.772217
856.576172	2393.301758
855.363281	2429.958008
854.148438	2460.425049
852.933594	2457.944092
851.718750	2393.717285
850.503906	2506.489258
849.289063	2378.492920
848.074219	2415.113525
846.859375	2363.278564
845.642578	2356.703369
844.427734	2317.232666
843.210938	2460.737793
841.994141	2540.475830
840.777344	2435.232178
839.560547	2461.524902
838.343750	2399.471924
837.126953	2364.142090
835.910156	2390.433350
834.691406	2406.448975
833.474609	2414.247314
832.255859	2444.621338
831.039063	2446.253662
829.820313	2425.314697
828.601563	2379.764648
827.382813	2352.690674
826.164063	2428.166504
824.943359	2440.052246
823.724609	2468.334473
822.505859	2445.363037
821.285156	2379.361816
820.064453	2403.541504
818.845703	2474.833008
817.625000	2539.955078
816.404297	2473.982422
815.183594	2483.795410
813.960938	2458.801025
812.740234	2644.650146
811.519531	2562.332031
810.296875	2553.706543
809.074219	2543.038086
807.853516	2581.466064
806.630859	2613.745117
805.408203	2621.475098
804.185547	2553.556396
802.962891	2618.529541
801.738281	2575.159912
800.515625	2674.844971
799.291016	2705.031006
798.068359	2675.967529
796.843750	2646.914063
795.619141	2717.929688
794.394531	2684.795410
793.169922	2817.019287
791.945313	2700.199463
790.720703	2699.735107
789.496094	2705.391357
788.269531	2739.604492
787.042969	2733.014404
785.818359	2726.426514
784.591797	2628.092041
783.365234	2705.103271
782.138672	2739.286377
780.912109	2714.361328
779.685547	2736.306152
778.457031	2792.874268
777.230469	2721.106934
776.001953	2698.238281
774.775391	2832.153320
773.546875	2778.737549
772.318359	2810.824951
771.089844	2773.710938
769.861328	2781.372070
768.632813	2780.893066
767.402344	2743.803223
766.173828	2869.414063
764.943359	2748.958008
763.714844	2778.978271
762.484375	2780.532227
761.253906	2814.600830
760.023438	2777.542725
758.792969	2787.221680
757.562500	2932.984619
756.332031	2869.524658
755.099609	2783.751221
753.869141	2925.378906
752.636719	2859.922852
751.404297	2857.400879
750.173828	2909.663818
748.941406	2862.502441
747.708984	2874.179199
746.474609	2960.888184
745.242188	2923.880127
744.009766	3004.468750
742.775391	2999.896973
741.542969	2960.874268
740.308594	2976.574219
739.074219	2961.879639
737.839844	3052.519287
736.605469	2977.060303
735.371094	3093.989258
734.136719	3063.088135
732.900391	3030.173340
731.666016	3078.222656
730.429688	3215.287598
729.195313	3204.617432
727.958984	3127.199707
726.722656	3302.611084
725.486328	3116.010986
724.250000	3141.756104
723.013672	3252.389648
721.775391	3209.387207
720.539063	3154.275391
719.300781	3303.235596
718.064453	3304.685791
716.826172	3259.683838
715.587891	3301.526367
714.349609	3339.316650
713.111328	3320.573242
711.873047	3396.693359
710.632813	3373.910400
709.394531	3445.959717
708.154297	3378.797852
706.916016	3462.922119
705.675781	3500.637939
704.435547	3449.630127
703.195313	3467.177002
701.955078	3484.717773
700.714844	3457.919922
699.472656	3463.367188
698.232422	3553.417725
696.990234	3544.748047
695.750000	3582.396729
694.507813	3660.299561
693.265625	3643.563477
692.023438	3765.707275
690.781250	3672.490234
689.539063	3792.574463
688.296875	3739.617188
687.052734	3787.242188
685.810547	3881.102051
684.566406	3926.675293
683.322266	3930.017578
682.080078	3893.160645
680.835938	3926.650391
679.589844	3966.156006
678.345703	3889.134521
677.101563	4079.270508
675.857422	3964.100830
674.611328	4077.861084
673.365234	4065.111816
672.121094	4024.267090
670.875000	4087.788330
669.628906	4095.107666
668.382813	4138.533691
667.136719	4206.013184
665.888672	4179.216309
664.642578	4176.488770
663.396484	4167.748047
662.148438	4233.170898
660.900391	4312.599121
659.652344	4317.864746
658.404297	4367.200684
657.156250	4232.247559
655.908203	4317.627930
654.660156	4356.926758
653.412109	4408.223633
652.162109	4315.388672
650.912109	4320.646484
649.664063	4381.926270
648.414063	4395.172363
647.164063	4360.409180
645.914063	4339.656250
644.664063	4434.881348
643.412109	4314.165527
642.162109	4313.419434
640.912109	4438.575684
639.660156	4517.732422
638.408203	4451.024414
637.156250	4498.192871
635.906250	4481.437988
634.652344	4584.492188
633.400391	4561.738770
632.148438	4463.143555
630.896484	4596.082520
629.642578	4477.561523
628.390625	4542.621582
627.136719	4483.990234
625.882813	4558.998047
624.628906	4618.028320
623.375000	4645.139648
622.121094	4648.321777
620.867188	4631.573730
619.611328	4592.912598
618.357422	4620.008789
617.101563	4726.771484
615.845703	4741.885254
614.591797	4751.020508
613.335938	4598.892090
612.080078	4661.791992
610.822266	4756.513184
609.566406	4912.885742
608.310547	4886.171387
607.052734	4867.422852
605.796875	4975.963379
604.539063	4823.979492
603.281250	4952.370605
602.023438	5027.047363
600.765625	4881.095215
599.507813	5142.542969
598.250000	5022.448242
596.990234	5045.414551
595.732422	5213.353516
594.472656	5133.022461
593.212891	5191.693359
591.955078	5258.284180
590.695313	5293.096680
589.435547	5319.959473
588.173828	5317.053711
586.914063	5357.788086
585.654297	5396.524902
584.392578	5347.999023
583.132813	5406.549805
581.871094	5498.778320
580.609375	5539.445313
579.347656	5411.664551
578.085938	5442.425781
576.824219	5625.704102
575.562500	5545.506836
574.298828	5552.465820
573.037109	5670.293945
571.773438	5598.048340
570.509766	5549.577148
569.248047	5685.153320
567.984375	5725.715332
566.718750	5756.372070
565.455078	5783.062500
564.191406	5758.330078
562.927734	5664.407227
561.662109	5849.239746
560.396484	5840.319336
559.132813	5868.947266
557.867188	5903.491699
556.601563	5872.836426
555.335938	6012.045898
554.070313	6101.838867
552.802734	5966.522949
551.537109	6137.227051
550.269531	6049.319824
549.003906	6085.763184
547.736328	6102.463867
546.468750	6162.556641
545.201172	6169.375977
543.933594	6136.753418
542.666016	6330.878418
541.396484	6410.601563
540.128906	6517.890137
538.859375	6491.140625
537.591797	6507.745605
536.322266	6569.652344
535.052734	6570.480957
533.783203	6616.601074
532.513672	6694.207520
531.244141	6604.459961
529.972656	6727.309570
528.703125	6814.694336
527.431641	6852.860840
526.162109	6940.193359
524.890625	7078.632813
523.619141	7136.397461
522.347656	7221.667969
521.076172	7008.105957
519.804688	7319.396973
518.531250	7308.299316
517.259766	7446.528809
515.986328	7366.657227
514.712891	7459.653320
513.441406	7454.429199
512.167969	7669.109375
510.894531	7626.551758
509.621094	7470.169922
508.345703	7514.006348
507.072266	7514.662109
505.796875	7627.134766
504.523438	7753.297363
503.248047	7746.066406
501.972656	7689.819824
500.697266	7737.491211
499.421875	7861.586426
498.146484	7787.711426
496.871094	7860.811035
495.593750	7920.172363
494.318359	7740.558105
493.041016	7946.791992
491.765625	7710.454102
490.488281	7853.976563
489.210938	7848.695801
487.933594	7669.248535
486.654297	7646.391602
485.376953	7789.824219
484.099609	7698.496582
482.820313	7609.155762
481.541016	7732.966797
480.263672	7715.981934
478.984375	7658.332031
477.705078	7600.682129
476.425781	7543.032227
475.146484	7485.382324
473.865234	7427.732422
472.585938	7370.082520
471.304688	7435.185059
470.023438	7465.125488
468.744141	7346.715332
467.462891	7411.787109
466.181641	7270.013184
464.900391	7418.959961
463.617188	7230.422363
462.335938	7281.816895
461.054688	7149.912109
459.771484	7039.497070
458.488281	7067.507813
457.205078	6992.223145
455.921875	7043.612793
454.638672	7032.645508
453.355469	7006.099121
452.072266	7071.090820
450.789063	7052.335449
449.503906	6961.556152
448.218750	6901.951172
446.935547	6992.213379
445.650391	7002.669434
444.365234	6867.217285
443.080078	6862.130371
441.794922	6857.044922
440.507813	6943.346191
439.222656	6922.695801
437.935547	6835.966797
436.650391	6729.833984
435.363281	6761.691895
434.076172	6805.194824
432.789063	6681.641113
431.501953	6672.708008
430.214844	6568.636230
428.925781	6596.610840
427.638672	6733.270508
426.349609	6708.808594
425.062500	6761.966797
423.773438	6607.530273
422.484375	6647.109863
421.195313	6630.436035
419.906250	6741.738770
418.615234	6633.938965
417.326172	6764.584473
416.037109	6585.114258
414.746094	6642.093262
413.455078	6697.114746
412.164063	6459.641602
410.873047	6501.119629
409.582031	6544.518555
408.291016	6605.325684
407.000000	6439.649414
405.707031	6556.574707
404.416016	6470.294922
403.123047	6461.427246
401.832031	6495.115234
400.539063	6412.758789
399.246094	6438.708496
397.953125	6383.455078
396.658203	6475.118164
395.365234	6359.968262
394.072266	6277.705566
392.777344	6245.699707
391.482422	6204.046875
390.187500	6299.522949
388.894531	6387.241699
387.597656	6258.712402
386.302734	6259.549316
385.007813	6287.403809
383.712891	6239.997559
382.416016	6128.945313
381.121094	6270.607910
379.824219	6219.371582
378.527344	6199.003418
377.230469	6313.589355
375.933594	6293.211426
374.636719	6270.913086
373.337891	6204.306152
372.041016	6093.413086
370.742188	6046.121094
369.445313	6258.827637
368.146484	6209.597168
366.847656	6268.190918
365.548828	6267.095215
364.250000	6237.132813
362.951172	6220.649902
361.650391	6319.598633
360.351563	6256.943848
359.050781	6225.080078
357.751953	6275.906250
356.451172	6313.257324
355.150391	6173.762695
353.849609	6197.666016
352.548828	6119.725586
351.246094	6207.024902
349.945313	6290.452637
348.642578	6202.933594
347.341797	6257.530762
346.039063	6323.627441
344.736328	6238.067383
343.433594	6221.623535
342.130859	6197.510254
340.828125	6184.915527
339.523438	6120.537109
338.220703	6242.200684
336.916016	6189.338867
335.613281	6142.246582
334.308594	6225.507324
333.003906	6105.602051
331.699219	6286.558105
330.394531	6319.940430
329.089844	6228.811523
327.783203	6105.158691
326.478516	6213.228027
325.171875	6120.250488
323.865234	5900.978516
322.558594	5863.585449
321.251953	5895.085938
319.945313	5991.618164
318.638672	5954.228027
317.332031	5924.500000
316.023438	5934.934570
314.716797	5821.104980
313.408203	5820.085449
312.099609	5949.016113
310.791016	5875.367676
309.482422	5914.456055
308.173828	5875.219727
306.865234	5939.119629
305.556641	5844.520996
304.246094	5959.946777
302.935547	5894.007324
301.626953	5818.549316
300.316406	5846.149902
299.005859	5816.510254
297.695313	5739.197266
296.384766	5766.796387
295.072266	5809.639160
293.761719	5785.745117
292.449219	5838.099121
291.138672	5800.868164
289.826172	5914.171387
288.513672	5846.459473
287.201172	5714.012207
285.888672	5951.052246
284.574219	5826.249023
283.261719	5787.153809
281.947266	5877.499023
280.634766	5954.491699
279.320313	5860.216797
278.005859	5819.239746
276.691406	5919.025391
275.376953	5752.541992
274.062500	5844.698242
272.748047	5786.643066
271.431641	5846.449707
270.117188	5923.337402
268.800781	5827.298340
267.484375	5993.446777
266.167969	5772.072266
264.851563	5772.958496
263.535156	5800.425781
262.218750	5784.221191
260.900391	5726.266113
259.583984	5765.111816
258.265625	5769.791992
256.947266	5774.470703
255.630859	5849.323730
254.312500	5910.875977
252.994141	5923.110352
251.673828	5850.035156
250.355469	5867.961426
249.035156	5739.965820
247.716797	5905.688965
246.396484	5796.674805
245.076172	5924.449219
243.755859	5834.406250
242.435547	5827.701660
241.115234	5885.361816
239.794922	5916.503418
238.474609	5896.541016
237.152344	5869.017090
235.830078	5905.819336
234.509766	5882.085938
233.187500	5952.911133
231.865234	5984.006836
230.542969	5920.573730
229.218750	6036.714844
227.896484	5903.375977
226.572266	6008.142578
225.250000	5965.528320
223.925781	5975.812012
222.601563	6067.291016
221.277344	5839.661621
219.953125	5987.763184
218.628906	6054.655762
217.304688	5942.256836
215.978516	6078.940918
214.654297	6059.008789
213.328125	5974.958008
212.001953	5921.107910
210.675781	5938.920410
209.349609	5888.865234
208.023438	5976.410645
206.697266	6007.394043
205.371094	5900.831055
204.042969	6018.467285
202.714844	6111.578125
201.388672	6086.023438
200.060547	6109.428223
198.732422	6243.885742
197.404297	5952.950195
196.076172	6008.354492
194.746094	6201.081543
193.417969	6130.391113
192.087891	6136.835449
190.757813	6276.785645
189.429688	6153.476563
188.099609	6259.538574
186.769531	6224.607910
185.437500	6293.038086
184.107422	6383.989258
182.777344	6465.516113
181.445313	6364.839355
180.113281	6318.652832
178.783203	6400.146973
177.451172	6528.540039
176.119141	6446.689453
174.787109	6445.554688
173.453125	6298.083496
172.121094	6280.092285
170.787109	6387.762207
169.455078	6377.261719
168.121094	6522.371582
166.787109	6547.465332
165.453125	6448.857910
164.119141	6552.654297
162.785156	6396.002441
161.451172	6535.360840
160.115234	6493.007813
158.779297	6370.153320
157.445313	6640.491699
156.109375	6485.833008
154.773438	6651.251953
153.437500	6414.314453
152.101563	6450.600586
150.763672	6578.527832
149.427734	6480.120117
148.089844	6576.209473
146.753906	6633.004883
145.416016	6484.170898
144.078125	6662.437012
142.740234	6915.380859
141.402344	6738.552246
140.064453	6911.074707
138.724609	6741.778809
137.386719	6835.817383
136.046875	6946.624023
134.707031	7025.660156
133.367188	7102.802246
132.027344	7066.097656
130.687500	7051.792480
129.347656	7192.306152
128.007813	7198.497070
126.666016	7120.779785
125.326172	7179.179199
123.984375	7192.824219
122.642578	7363.004395
121.300781	7203.329102
119.958984	7349.229004
118.617188	7247.352051
117.273438	7326.150879
115.931641	7317.410156
114.587891	7228.623047
113.246094	7350.191895
111.902344	7209.323242
110.558594	7405.276855
109.214844	7431.874023
107.871094	7545.879883
106.525391	7468.302734
105.181641	7556.230957
103.835938	7337.396484
102.492188	7473.641113
101.146484	7364.538574
