#Wave		#Intensity
4002.533203	2020.859619
4001.835938	2121.186035
4001.137695	2034.864746
4000.439453	2131.249756
3999.742188	2062.861572
3999.043945	2076.853027
3998.345703	2019.235840
3997.646484	2208.631592
3996.948242	2129.537354
3996.250000	1993.212891
3995.550781	2186.099365
3994.852539	2078.427979
3994.153320	2095.977783
3993.454102	2052.726807
3992.754883	1937.977417
3992.055664	2130.717529
3991.356445	2098.205078
3990.657227	2001.372925
3989.957031	2158.276855
3989.257813	2154.357178
3988.557617	1946.825684
3987.857422	2017.944458
3987.157227	1903.347900
3986.457031	2095.845459
3985.756836	2206.174316
3985.056641	2130.864746
3984.356445	2052.010498
3983.655273	2044.544556
3982.955078	2083.459229
3982.253906	1979.681519
3981.552734	2072.090332
3980.851563	2032.533081
3980.150391	2124.903564
3979.449219	2113.867920
3978.748047	2031.553345
3978.045898	2045.481079
3977.344727	1998.833618
3976.642578	2048.386230
3975.940430	2044.495117
3975.239258	2058.411621
3974.537109	2147.098389
3973.834961	2118.272217
3973.131836	2153.527344
3972.429688	2071.324951
3971.727539	2113.692871
3971.024414	2127.584717
3970.321289	2063.212158
3969.619141	2155.354492
3968.916016	2002.095093
3968.212891	2111.995361
3967.509766	2122.321045
3966.805664	2107.762451
3966.102539	2231.808105
3965.399414	2075.105713
3964.695313	2081.877930
3963.991211	2095.751953
3963.288086	2141.585205
3962.583984	2123.486328
3961.879883	2066.338623
3961.174805	2058.906982
3960.470703	2015.984985
3959.766602	2029.855957
3959.061523	2047.270508
3958.357422	2096.607422
3957.652344	2082.082764
3956.947266	2103.026611
3956.242188	2006.950928
3955.537109	2137.803955
3954.832031	2155.184082
3954.125977	2101.675781
3953.420898	2111.968750
3952.714844	2228.548584
3952.009766	2058.153809
3951.303711	2025.946533
3950.597656	2110.612061
3949.891602	2092.569580
3949.185547	2145.335693
3948.479492	2084.818115
3947.772461	1996.007813
3947.066406	2084.148438
3946.359375	1945.836304
3945.653320	2097.628418
3944.946289	1916.917236
3944.239258	2174.750488
3943.532227	2124.902588
3942.825195	2082.140869
3942.117188	2060.599609
3941.410156	2017.861694
3940.702148	2042.270996
3939.995117	1992.484253
3939.287109	2119.323730
3938.579102	2161.363037
3937.871094	2111.580811
3937.163086	2139.485840
3936.455078	2047.363770
3935.746094	2135.269287
3935.038086	2078.465576
3934.329102	1982.869263
3933.621094	2176.572754
3932.912109	2091.572754
3932.203125	2165.294189
3931.494141	2129.686768
3930.785156	2129.344727
3930.075195	2104.328857
3929.366211	2128.660889
3928.657227	2022.607910
3927.947266	2138.546875
3927.237305	2036.048706
3926.527344	2039.243774
3925.817383	2053.002197
3925.107422	2013.942749
3924.397461	2084.025635
3923.687500	2076.651611
3922.976563	2027.049561
3922.266602	2202.655029
3921.555664	2163.602783
3920.844727	2036.625732
3920.133789	2131.255615
3919.422852	2113.331787
3918.711914	2236.045166
3918.000977	2102.107422
3917.290039	2070.137939
3916.578125	2031.150513
3915.866211	2020.283813
3915.155273	2009.420532
3914.443359	2096.908203
3913.731445	2100.083252
3913.019531	2026.009277
3912.307617	2018.662598
3911.594727	2158.744629
3910.882813	1965.370605
3910.169922	2077.343994
3909.458008	2098.061279
3908.745117	2080.184814
3908.032227	2118.431641
3907.319336	2079.517090
3906.606445	2107.232910
3905.893555	2078.849365
3905.179688	2096.041260
3904.466797	2060.659424
3903.752930	2032.296997
3903.039063	2000.440186
3902.326172	2154.243896
3901.612305	2101.364014
3900.898438	2129.040283
3900.183594	2181.215820
3899.469727	2037.341553
3898.755859	2068.514893
3898.041016	2040.187012
3897.326172	2113.336426
3896.612305	2064.020508
3895.897461	2081.178223
3895.182617	2147.291260
3894.467773	1979.107056
3893.751953	2013.750366
3893.037109	2149.752930
3892.322266	2083.003418
3891.606445	2190.995850
3890.890625	2005.470093
3890.174805	2061.040771
3889.458984	2130.564697
3888.743164	2025.457642
3888.027344	2164.796875
3887.311523	2091.137451
3886.594727	2080.330322
3885.878906	2052.077148
3885.162109	2132.003174
3884.445313	2013.041626
3883.729492	2082.483398
3883.012695	2158.878418
3882.294922	2175.967529
3881.578125	2154.698975
3880.861328	2056.744873
3880.143555	2206.289063
3879.426758	2146.691895
3878.708984	2167.253418
3877.991211	1999.684570
3877.273438	2114.309814
3876.555664	2141.831543
3875.837891	2204.165527
3875.120117	2081.958252
3874.401367	2074.662109
3873.683594	2220.506836
3872.964844	2091.395752
3872.246094	2035.391235
3871.527344	2101.160645
3870.808594	2236.472656
3870.089844	2176.994141
3869.371094	2058.424561
3868.652344	2145.007080
3867.932617	2182.898438
3867.213867	2210.351318
3866.494141	2116.176025
3865.774414	2126.259277
3865.054688	2153.707764
3864.334961	2080.425781
3863.615234	2080.092041
3862.894531	2145.727295
3862.174805	2277.299561
3861.454102	2134.625977
3860.734375	2182.868652
3860.013672	2113.122070
3859.292969	2175.229736
3858.572266	2108.975342
3857.851563	2122.509521
3857.130859	2146.442139
3856.409180	2166.899902
3855.688477	1996.694702
3854.966797	2173.136719
3854.245117	2155.461182
3853.523438	2186.298584
3852.802734	2099.341309
3852.080078	2202.915771
3851.358398	2161.004395
3850.636719	2219.521973
3849.914063	2181.083252
3849.192383	2111.503906
3848.469727	2121.547852
3847.747070	2180.033691
3847.024414	2138.166260
3846.301758	2137.823242
3845.579102	2044.095215
3844.856445	2029.934692
3844.133789	2199.031250
3843.410156	2074.225098
3842.686523	2077.348877
3841.963867	2121.942627
3841.240234	2021.396240
3840.516602	2065.984619
3839.792969	2269.455322
3839.068359	2120.581299
3838.344727	2140.960205
3837.621094	2161.332520
3836.896484	2043.615845
3836.171875	2095.060547
3835.448242	2167.194336
3834.723633	2153.045166
3833.999023	2152.699707
3833.273438	2107.513672
3832.548828	2176.150391
3831.824219	2103.389648
3831.098633	2075.471191
3830.373047	2157.867920
3829.648438	2095.484619
3828.922852	2146.837891
3828.197266	1998.340698
3827.471680	2201.267090
3826.745117	2173.359619
3826.019531	2176.454590
3825.292969	2244.969727
3824.567383	2038.050415
3823.840820	2113.449707
3823.114258	2140.643066
3822.387695	2140.299805
3821.661133	2098.671143
3820.934570	2167.132568
3820.208008	2183.981689
3819.480469	2145.804688
3818.753906	2111.078125
3818.026367	2176.055420
3817.298828	2155.083740
3816.571289	2106.625977
3815.843750	2003.207031
3815.116211	2099.079346
3814.388672	2091.872803
3813.660156	2156.790527
3812.932617	2180.481445
3812.204102	2097.732910
3811.475586	2210.676514
3810.748047	2131.382080
3810.019531	2189.377930
3809.290039	2079.232178
3808.561523	2198.967285
3807.833008	2126.584961
3807.103516	2057.655518
3806.375000	2280.202393
3805.645508	2070.708984
3804.916016	2180.065674
3804.186523	2155.725586
3803.457031	2076.566162
3802.727539	2185.869385
3801.998047	2113.581543
3801.267578	2164.618164
3800.538086	2112.903809
3799.807617	2194.739258
3799.077148	2160.153564
3798.346680	2149.538574
3797.616211	2162.883057
3796.885742	2039.353760
3796.155273	2162.189453
3795.423828	2131.056885
3794.693359	2219.637451
3793.961914	2096.178223
3793.230469	2188.154785
3792.500000	2211.733154
3791.768555	2149.856201
3791.036133	2166.598389
3790.304688	2118.415771
3789.573242	2189.817383
3788.840820	2247.533203
3788.109375	2124.227051
3787.376953	2151.203369
3786.644531	2178.170898
3785.912109	2215.370361
3785.179688	2273.035400
3784.447266	2197.597900
3783.714844	2036.887451
3782.981445	2183.247803
3782.249023	2152.200684
3781.515625	2138.214844
3780.782227	2223.114014
3780.048828	2239.803223
3779.315430	2144.003662
3778.582031	2133.435791
3777.848633	2116.056152
3777.114258	2061.205566
3776.380859	2159.660889
3775.646484	2224.025879
3774.912109	2186.210938
3774.177734	2107.550781
3773.443359	2079.979004
3772.708984	2147.718994
3771.974609	2167.793457
3771.240234	2174.251221
3770.504883	2255.551514
3769.770508	2244.985352
3769.035156	2292.238770
3768.299805	2176.257568
3767.564453	2260.905029
3766.829102	2246.945313
3766.093750	2226.192383
3765.357422	2154.472900
3764.622070	2225.478760
3763.885742	2201.342041
3763.150391	2292.697021
3762.414063	2248.180908
3761.677734	2213.865479
3760.941406	2298.384277
3760.205078	2219.944336
3759.467773	2229.770020
3758.731445	2259.952637
3757.994141	2188.341797
3757.257813	2181.206543
3756.520508	2275.824219
3755.783203	2200.854248
3755.045898	2220.844971
3754.308594	2308.630371
3753.571289	2213.354004
3752.833008	2311.279297
3752.095703	2158.429443
3751.357422	2154.695557
3750.619141	2242.421143
3749.880859	2191.259521
3749.142578	2231.543457
3748.404297	2271.814209
3747.666016	2315.457275
3746.927734	2308.316895
3746.188477	2203.040039
3745.450195	2310.960449
3744.710938	2215.865723
3743.971680	2347.426514
3743.232422	2292.939453
3742.493164	2184.367920
3741.753906	2227.968750
3741.013672	2288.456787
3740.274414	2277.950684
3739.534180	2284.343994
3738.794922	2148.831055
3738.054688	2199.158447
3737.314453	2202.183594
3736.574219	2238.978027
3735.833984	2184.595215
3735.092773	2180.868896
3734.352539	2170.393066
3733.611328	2244.292480
3732.871094	2338.414063
3732.129883	2290.806152
3731.388672	2270.199463
3730.647461	2141.672607
3729.906250	2151.445801
3729.165039	2296.081055
3728.422852	2228.291016
3727.681641	2339.162109
3726.939453	2278.126953
3726.197266	2331.673340
3725.455078	2159.484131
3724.712891	2290.505127
3723.970703	2266.563232
3723.228516	2195.486328
3722.486328	2205.234619
3721.743164	2322.699463
3721.000977	2315.595703
3720.257813	2163.792725
3719.514648	2257.655029
3718.771484	2270.749512
3718.028320	2307.384277
3717.285156	2313.740479
3716.541016	2252.845459
3715.797852	2165.074463
3715.053711	2299.182617
3714.310547	2238.318848
3713.566406	2369.011963
3712.822266	2190.564697
3712.078125	2327.941895
3711.333008	2257.036377
3710.588867	2320.479492
3709.844727	2346.968262
3709.099609	2383.520020
3708.354492	2255.589600
3707.610352	2315.635986
3706.865234	2415.928711
3706.120117	2304.829102
3705.374023	2448.697998
3704.628906	2371.167236
3703.883789	2367.433838
3703.137695	2266.471436
3702.391602	2319.743652
3701.646484	2403.164307
3700.900391	2372.618652
3700.154297	2285.122314
3699.408203	2341.707520
3698.661133	2371.478027
3697.915039	2431.380127
3697.167969	2340.581787
3696.421875	2383.729736
3695.674805	2393.389893
3694.927734	2463.290527
3694.180664	2355.813232
3693.433594	2552.837158
3692.686523	2385.165527
3691.938477	2378.093750
3691.191406	2464.661377
3690.443359	2444.204346
3689.695313	2480.586914
3688.947266	2446.763672
3688.199219	2419.635254
3687.451172	2539.541504
3686.703125	2539.134521
3685.955078	2505.323242
3685.206055	2394.705078
3684.458008	2467.787354
3683.708984	2604.283691
3682.959961	2443.628174
3682.210938	2493.302979
3681.461914	2516.263916
3680.712891	2532.544189
3679.962891	2508.785156
3679.213867	2455.013184
3678.463867	2544.666992
3677.714844	2497.575439
3676.964844	2537.183350
3676.214844	2710.117676
3675.464844	2546.369141
3674.713867	2592.614746
3673.963867	2462.256104
3673.213867	2605.109131
3672.462891	2654.653809
3671.711914	2540.999023
3670.961914	2717.068115
3670.210938	2733.278564
3669.459961	2596.364990
3668.708008	2722.418213
3667.957031	2765.240723
3667.206055	2711.564453
3666.454102	2558.109131
3665.702148	2797.171631
3664.950195	2793.397949
3664.199219	2832.849365
3663.446289	2745.960938
3662.694336	2728.901367
3661.942383	2648.703857
3661.190430	2664.893555
3660.437500	2750.845703
3659.684570	2723.830811
3658.932617	2690.182129
3658.179688	2762.805908
3657.426758	2885.208740
3656.672852	2834.952148
3655.919922	2837.816895
3655.166992	2810.813721
3654.413086	2853.497559
3653.659180	3018.914551
3652.906250	2842.632080
3652.152344	2742.683838
3651.398438	2818.509766
3650.644531	2910.888428
3649.889648	2857.384521
3649.135742	2943.098389
3648.380859	2836.586182
3647.626953	2915.649414
3646.872070	2915.182129
3646.117188	2901.466309
3645.362305	2987.104004
3644.607422	2953.514160
3643.851563	3148.365234
3643.096680	3223.991943
3642.341797	3048.070557
3641.585938	2981.402344
3640.830078	3159.581543
3640.074219	3076.376953
3639.318359	3105.650635
3638.562500	3068.777344
3637.806641	3081.510742
3637.049805	3186.802979
3636.293945	3239.176758
3635.537109	3159.343750
3634.780273	3122.490967
3634.024414	3161.634766
3633.267578	3263.526367
3632.509766	3104.476807
3631.752930	3219.552979
3630.996094	3334.592285
3630.238281	3251.531738
3629.481445	3185.000244
3628.723633	3412.189209
3627.965820	3309.359131
3627.208008	3285.736328
3626.450195	3341.282471
3625.692383	3238.512939
3624.933594	3228.102051
3624.175781	3237.475098
3623.416992	3256.734131
3622.658203	3236.437744
3621.899414	3262.280762
3621.140625	3386.956787
3620.381836	3287.588867
3619.623047	3520.911133
3618.864258	3441.312012
3618.104492	3401.249268
3617.345703	3407.288330
3616.585938	3462.698486
3615.826172	3422.651611
3615.066406	3599.789063
3614.306641	3349.175537
3613.546875	3506.531494
3612.786133	3538.858643
3612.026367	3350.854248
3611.265625	3511.421631
3610.504883	3494.422363
3609.744141	3549.738037
3608.983398	3470.298584
3608.222656	3473.028320
3607.461914	3373.915283
3606.701172	3455.491943
3605.939453	3431.948975
3605.178711	3490.504395
3604.416992	3493.228271
3603.655273	3476.255615
3602.893555	3597.134521
3602.131836	3645.781006
3601.370117	3543.485596
3600.607422	3598.686035
3599.845703	3588.269531
3599.083008	3676.239014
3598.320313	3662.534180
3597.557617	3661.947266
3596.794922	3559.747070
3596.032227	3513.294189
3595.269531	3601.204590
3594.506836	3692.363281
3593.743164	3527.984131
3592.980469	3599.473633
3592.216797	3562.875244
3591.453125	3503.369141
3590.689453	3617.385498
3589.925781	3672.448975
3589.162109	3740.584961
3588.397461	3694.176514
3587.633789	3703.399170
3586.869141	3660.282471
3586.104492	3623.720215
3585.339844	3659.109375
3584.575195	3622.558838
3583.810547	3638.322998
3583.045898	3703.108154
3582.281250	3709.050537
3581.515625	3620.237305
3580.750977	3613.123535
3579.985352	3524.354004
3579.219727	3562.978760
3578.454102	3702.814453
3577.688477	3692.426758
3576.921875	3639.607422
3576.156250	3723.880371
3575.390625	3644.967285
3574.624023	3663.959229
3573.857422	3558.983887
3573.090820	3591.029541
3572.324219	3574.148682
3571.557617	3531.188721
3570.791016	3696.884766
3570.023438	3660.437744
3569.256836	3708.735840
3568.489258	3633.196777
3567.722656	3678.225830
3566.955078	3605.972900
3566.187500	3569.569092
3565.418945	3666.688477
3564.651367	3620.518799
3563.883789	3593.895996
3563.115234	3593.320068
3562.347656	3706.644531
3561.579102	3517.331543
3560.810547	3627.378662
3560.041992	3600.775391
3559.273438	3522.145264
3558.503906	3495.567383
3557.735352	3504.760742
3556.966797	3647.227539
3556.197266	3477.636475
3555.427734	3343.845215
3554.658203	3440.781982
3553.888672	3274.553711
3553.119141	3127.866943
3552.349609	3179.325928
3551.579102	3198.298584
3550.809570	3343.877686
3550.039063	3379.047363
3549.268555	3420.696533
3548.498047	3569.414795
3547.727539	3400.133789
3546.957031	3435.271729
3546.186523	3506.075195
3545.415039	3528.213135
3544.644531	3488.739746
3543.873047	3429.828369
3543.101563	3468.174072
3542.330078	3522.711182
3541.558594	3408.738037
3540.787109	3515.102783
3540.015625	3527.496094
3539.243164	3442.725098
3538.471680	3591.128906
3537.699219	3571.127686
3536.926758	3512.286865
3536.154297	3592.639404
3535.381836	3530.577881
3534.609375	3572.074463
3533.836914	3535.916260
3533.063477	3435.079102
3532.291016	3563.889160
3531.517578	3443.678467
3530.744141	3462.524414
3529.970703	3390.855469
3529.197266	3626.244141
3528.423828	3506.100098
3527.649414	3482.921631
3526.875977	3336.995850
3526.101563	3472.115723
3525.328125	3574.898682
3524.553711	3632.444824
3523.779297	3505.958252
3523.004883	3444.067871
3522.229492	3575.834717
3521.455078	3520.406494
3520.680664	3523.068604
3519.905273	3509.601074
3519.129883	3454.209717
3518.354492	3537.498535
3517.579102	3469.223633
3516.803711	3594.390625
3516.028320	3474.557861
3515.252930	3425.661621
3514.476563	3505.665527
3513.700195	3495.438721
3512.924805	3478.773193
3512.148438	3471.774414
3511.372070	3390.716553
3510.595703	3480.320313
3509.818359	3309.154297
3509.041992	3559.667480
3508.264648	3385.325439
3507.488281	3397.652588
3506.710938	3509.701660
3505.933594	3467.325439
3505.156250	3476.417480
3504.378906	3508.014404
3503.601563	3562.105225
3502.823242	3474.746094
3502.045898	3480.616943
3501.267578	3435.072021
3500.489258	3431.308594
3499.710938	3437.183350
3498.932617	3417.361572
3498.154297	3362.221924
3497.375977	3265.359619
3496.596680	3534.498291
3495.818359	3428.010010
3495.039063	3372.903809
3494.259766	3458.998535
3493.480469	3452.027588
3492.701172	3287.882080
3491.921875	3492.614502
3491.142578	3456.781250
3490.362305	3379.279785
3489.582031	3446.056396
3488.802734	3342.940186
3488.022461	3390.473389
3487.242188	3514.889648
3486.461914	3302.889893
3485.681641	3267.126709
3484.900391	3327.451660
3484.120117	3349.332520
3483.338867	3335.989502
3482.557617	3399.475098
3481.777344	3402.130615
3480.996094	3315.185547
3480.213867	3289.058350
3479.432617	3490.065674
3478.651367	3419.140381
3477.869141	3424.988281
3477.087891	3405.254639
3476.305664	3500.616211
3475.523438	3464.894531
3474.741211	3365.266846
3473.958984	3399.876465
3473.175781	3469.618408
3472.393555	3392.397705
3471.610352	3426.986084
3470.828125	3298.703857
3470.044922	3314.139160
3469.261719	3249.761963
3468.478516	3319.460205
3467.695313	3382.753662
3466.911133	3350.303711
3466.127930	3442.284180
3465.343750	3377.937500
3464.560547	3399.720459
3463.776367	3354.533447
3462.992188	3290.231445
3462.208008	3359.833496
3461.423828	3362.481934
3460.638672	3228.102539
3459.854492	3297.680664
3459.069336	3198.396729
3458.285156	3363.511475
3457.500000	3407.557129
3456.714844	3346.512451
3455.929688	3387.363037
3455.143555	3284.960693
3454.358398	3319.442627
3453.572266	3366.641602
3452.787109	3289.744141
3452.000977	3356.019043
3451.214844	3288.689453
3450.428711	3256.361816
3449.642578	3443.432129
3448.856445	3201.274414
3448.069336	3245.260498
3447.283203	3244.740234
3446.496094	3202.912598
3445.708984	3176.983154
3444.921875	3208.238525
3444.134766	3214.076172
3443.347656	3051.612549
3442.560547	3235.270264
3441.772461	3139.518555
3440.985352	3253.276611
3440.197266	3249.581543
3439.409180	3195.121094
3438.621094	3242.194824
3437.833008	3257.534424
3437.044922	3250.669434
3436.256836	3234.293945
3435.467773	3249.627197
3434.679688	3245.936279
3433.890625	3210.552979
3433.101563	3229.051270
3432.312500	3247.543701
3431.523438	3136.148926
3430.734375	3015.288086
3429.944336	3198.479492
3429.155273	3188.467773
3428.365234	3273.433105
3427.575195	3310.891846
3426.785156	3164.781006
3425.995117	3237.051758
3425.205078	3249.187744
3424.415039	3185.401611
3423.624023	3172.239990
3422.833984	3304.545654
3422.042969	3215.487061
3421.251953	3161.230469
3420.460938	3189.170166
3419.669922	3141.255615
3418.878906	3188.147461
3418.087891	3253.979492
3417.295898	3300.838135
3416.504883	3044.495605
3415.712891	3302.937500
3414.920898	3125.605957
3414.128906	3150.358154
3413.336914	3093.041992
3412.544922	3174.593018
3411.752930	3180.394287
3410.959961	3110.482178
3410.166992	3125.753906
3409.375000	3106.331055
3408.582031	3108.986084
3407.789063	3067.503418
3406.996094	3107.989014
3406.202148	2997.184082
3405.409180	3075.481201
3404.615234	3128.548340
3403.822266	3008.342773
3403.028320	3067.702637
3402.234375	3092.403320
3401.440430	3161.176270
3400.646484	3107.152100
3399.851563	3134.981934
3399.057617	2980.272949
3398.262695	2869.665283
3397.468750	2881.789307
3396.673828	3007.149170
3395.878906	3028.682373
3395.083984	2974.739258
3394.288086	2905.093506
3393.493164	2932.919434
3392.698242	2866.445313
3391.902344	3004.256836
3391.106445	2903.230225
3390.310547	3034.708496
3389.514648	2999.670654
3388.718750	3149.934082
3387.922852	2948.468506
3387.125977	3039.041260
3386.330078	3032.275879
3385.533203	3154.190918
3384.736328	2999.923340
3383.939453	3046.504395
3383.142578	2895.440430
3382.345703	2979.661133
3381.548828	3019.950928
3380.750977	3110.395508
3379.954102	3084.816895
3379.156250	3125.070313
3378.358398	2958.468506
3377.560547	2989.328857
3376.762695	2951.253662
3375.964844	3082.343750
3375.166016	3041.133789
3374.368164	3012.462891
3373.569336	3011.979736
3372.771484	3092.888428
3371.972656	3011.013672
3371.173828	3101.284668
3370.374023	3003.789795
3369.575195	3075.262451
3368.776367	2974.674805
3367.976563	3039.874023
3367.176758	3030.005615
3366.377930	2995.128662
3365.578125	2900.870117
3364.778320	3000.418701
3363.977539	2931.188965
3363.177734	2980.709717
3362.377930	2967.735840
3361.577148	3017.234619
3360.776367	3110.438477
3359.975586	3031.878906
3359.174805	3040.758301
3358.374023	2987.206299
3357.573242	2896.220215
3356.772461	3029.933838
3355.970703	2988.888916
3355.168945	2885.468262
3354.368164	3072.140869
3353.566406	3052.937500
3352.764648	2871.608154
3351.961914	2967.787598
3351.160156	2961.077637
3350.358398	2985.534180
3349.555664	2916.504883
3348.752930	2866.190186
3347.950195	2812.776611
3347.147461	2946.245605
3346.344727	2964.456543
3345.541992	3072.950684
3344.739258	2820.310791
3343.935547	2875.882080
3343.132813	2984.338135
3342.329102	2986.970703
3341.525391	2952.271240
3340.721680	2917.582764
3339.917969	2914.006348
3339.113281	2910.429932
3338.309570	2906.853516
3337.504883	2903.277100
3336.701172	2902.811279
3335.896484	2889.915771
3335.091797	2970.232666
3334.287109	2895.201416
3333.482422	2841.936035
3332.676758	2931.537842
3331.872070	2875.178467
3331.066406	2784.688232
3330.260742	2892.879639
3329.455078	2948.277588
3328.649414	2867.127686
3327.843750	2891.487305
3327.038086	2872.411621
3326.232422	2909.168213
3325.425781	2961.417725
3324.619141	2812.120361
3323.812500	2867.468506
3323.006836	2845.312012
3322.199219	2903.735840
3321.392578	2903.270020
3320.585938	2899.706055
3319.778320	2772.244141
3318.971680	2991.685059
3318.164063	2870.441895
3317.356445	2938.093018
3316.548828	2900.475830
3315.741211	2745.260498
3314.933594	2862.410889
3314.125000	2837.199707
3313.317383	2889.333984
3312.508789	2938.358398
3311.700195	2999.737061
3310.891602	2829.194824
3310.083008	2909.120361
3309.274414	2948.836670
3308.465820	2957.635010
3307.656250	3071.491455
3306.847656	2925.790527
3306.038086	2906.786621
3305.228516	2887.788818
3304.418945	2918.205811
3303.609375	2859.073975
3302.799805	2874.050537
3301.989258	2814.944580
3301.179688	2882.386230
3300.369141	2931.292725
3299.558594	2872.205811
3298.748047	2979.705078
3297.937500	2892.872559
3297.126953	2852.321533
3296.316406	2861.113037
3295.504883	2943.884033
3294.694336	2940.329346
3293.882813	2825.837891
3293.071289	2800.735352
3292.259766	2864.978760
3291.448242	2802.916504
3290.636719	2842.501709
3289.824219	2869.757813
3289.012695	2961.656494
3288.200195	2951.946777
3287.387695	2846.832520
3286.575195	2701.748779
3285.762695	2769.001953
3284.950195	2793.166748
3284.137695	2777.340088
3283.324219	2862.999512
3282.511719	2902.510986
3281.698242	2926.638672
3280.884766	2889.284424
3280.071289	2821.209717
3279.257813	2906.793213
3278.444336	2789.581787
3277.629883	2988.796631
3276.816406	2757.973877
3276.001953	2800.521484
3275.187500	2922.882080
3274.373047	2836.459717
3273.558594	2851.350586
3272.744141	2780.311035
3271.929688	2878.049805
3271.114258	2803.960693
3270.299805	2858.721924
3269.484375	2845.995850
3268.668945	2796.477783
3267.853516	2688.725098
3267.038086	2958.042480
3266.221680	2764.482666
3265.406250	2831.454590
3264.590820	2925.979248
3263.774414	2812.165283
3262.958008	2823.965088
3262.141602	2783.700928
3261.325195	2715.892334
3260.508789	2675.658203
3259.691406	2745.629395
3258.875000	2702.342773
3258.057617	2891.623779
3257.241211	2756.544678
3256.423828	2866.223877
3255.606445	2801.536377
3254.788086	2794.970459
3253.970703	2727.257568
3253.153320	2864.383301
3252.334961	2799.737305
3251.516602	2872.631592
3250.699219	2820.226807
3249.880859	2896.149170
3249.062500	2804.048584
3248.243164	2797.490234
3247.424805	2781.773193
3246.605469	2924.819824
3245.787109	2820.563232
3244.967773	2945.244873
3244.148438	2807.450928
3243.329102	2797.846924
3242.509766	2815.701172
3241.690430	2751.196777
3240.870117	2698.911377
3240.050781	2872.278320
3239.230469	2698.044678
3238.410156	2938.415039
3237.589844	2745.940674
3236.769531	2785.112793
3235.949219	2827.319092
3235.127930	2723.294434
3234.307617	2805.091064
3233.486328	2688.922363
3232.665039	2761.563965
3231.843750	2788.518555
3231.022461	2897.645508
3230.201172	2885.007080
3229.379883	2808.474365
3228.557617	2747.177734
3227.736328	2871.449951
3226.914063	2834.493164
3226.091797	2794.507324
3225.269531	2818.381104
3224.447266	2793.609619
3223.625000	2841.790527
3222.801758	2777.517822
3221.979492	2904.683350
3221.156250	2652.072510
3220.333008	2779.217041
3219.509766	2945.800537
3218.686523	2793.506348
3217.863281	2750.554688
3217.039063	2753.148193
3216.215820	2707.181641
3215.391602	2822.056641
3214.567383	2763.957520
3213.744141	2784.748047
3212.918945	2760.036621
3212.094727	2805.081055
3211.270508	2822.822510
3210.446289	2801.148193
3209.621094	2912.847412
3208.795898	2800.248291
3207.970703	2805.858643
3207.145508	2778.141357
3206.320313	2826.160889
3205.495117	2798.449219
3204.669922	2864.618652
3203.843750	2788.467041
3203.017578	2778.937500
3202.192383	2839.024658
3201.366211	2832.516113
3200.539063	2692.878662
3199.712891	2759.000732
3198.886719	2828.126221
3198.059570	2785.332520
3197.233398	2914.906738
3196.406250	2796.530518
3195.579102	2762.830566
3194.751953	2698.918213
3193.924805	2728.702637
3193.097656	2652.730957
3192.269531	2634.179688
3191.442383	2712.285645
3190.614258	2817.545654
3189.786133	2865.403076
3188.958008	2855.885986
3188.129883	2773.929688
3187.301758	2664.838135
3186.472656	2709.671631
3185.644531	2736.388916
3184.815430	2702.767822
3183.986328	2753.605469
3183.157227	2626.511475
3182.328125	2722.570313
3181.499023	2755.292725
3180.669922	2757.864014
3179.839844	2856.868652
3179.010742	2775.056152
3178.180664	2795.698486
3177.350586	2894.649170
3176.520508	2794.799805
3175.690430	2719.071777
3174.859375	2814.976318
3174.029297	2760.340576
3173.198242	2669.605713
3172.368164	2753.434814
3171.537109	2692.817627
3170.706055	2773.607666
3169.875000	2767.146240
3169.042969	2718.584961
3168.211914	2712.134277
3167.379883	2594.451904
3166.548828	2693.227539
3165.716797	2650.719727
3164.884766	2539.113525
3164.052734	2700.942139
3163.220703	2754.578125
3162.387695	2751.132080
3161.555664	2684.625244
3160.722656	2807.294189
3159.889648	2758.811523
3159.056641	2815.396240
3158.223633	2742.919434
3157.390625	2748.479492
3156.557617	2730.037598
3155.723633	2792.589355
3154.890625	2810.134766
3154.056641	2785.694336
3153.222656	2752.267334
3152.388672	2634.917236
3151.554688	2724.407959
3150.720703	2699.996582
3149.885742	2666.604492
3149.051758	2627.231689
3148.216797	2620.818848
3147.381836	2716.229248
3146.546875	2682.855713
3145.711914	2697.393066
3144.876953	2744.852295
3144.041992	2729.446777
3143.206055	2746.961914
3142.370117	2758.487549
3141.535156	2746.078613
3140.699219	2727.691650
3139.863281	2730.243652
3139.026367	2783.623291
3138.190430	2777.196777
3137.354492	2749.849609
3136.517578	2761.361328
3135.680664	2719.085205
3134.843750	2775.410889
3134.006836	2813.796143
3133.169922	2747.639160
3132.333008	2729.281006
3131.495117	2657.187500
3130.658203	2707.507324
3129.820313	2710.056641
3128.982422	2640.984863
3128.144531	2762.891357
3127.306641	2672.950928
3126.468750	2639.710938
3125.629883	2901.723877
3124.791992	2644.825439
3123.953125	2721.913574
3123.114258	2667.821289
3122.275391	2732.959473
3121.436523	2842.774170
3120.597656	2666.534180
3119.758789	2722.704346
3118.918945	2743.115234
3118.079102	2712.894775
3117.240234	2664.819092
3116.400391	2688.206299
3115.560547	2783.021729
3114.719727	2714.125732
3113.879883	2758.322266
3113.040039	2766.803711
3112.199219	2733.638184
3111.358398	2623.156738
3110.517578	2613.813965
3109.676758	2747.185059
3108.835938	2699.180420
3107.995117	2654.163330
3107.153320	2656.708008
3106.312500	2579.028809
3105.470703	2697.443848
3104.628906	2756.415527
3103.787109	2750.032471
3102.945313	2723.477051
3102.103516	2696.921631
3101.260742	2670.365967
3100.418945	2643.810547
3099.576172	2617.255127
3098.733398	2670.238770
3097.890625	2654.976807
3097.047852	2829.542480
3096.205078	2760.880615
3095.361328	2689.275879
3094.518555	2656.233154
3093.674805	2679.518311
3092.831055	2682.050781
3091.987305	2711.250488
3091.143555	2690.075684
3090.299805	2713.340088
3089.456055	2692.171631
3088.611328	2614.747070
3087.766602	2646.894531
3086.922852	2687.912109
3086.078125	2696.358887
3085.233398	2627.861084
3084.387695	2710.285400
3083.542969	2769.016113
3082.698242	2670.960693
3081.852539	2800.656494
3081.006836	2782.464111
3080.161133	2604.629639
3079.315430	2746.096924
3078.469727	2662.901123
3077.624023	2774.763428
3076.777344	2602.953369
3075.931641	2549.361084
3075.084961	2673.001709
3074.238281	2696.196533
3073.391602	2621.946533
3072.544922	2707.137207
3071.698242	2594.537354
3070.850586	2620.680664
3070.003906	2670.421387
3069.156250	2649.339844
3068.308594	2710.858887
3067.460938	2760.561035
3066.613281	2724.730469
3065.765625	2565.080078
3064.916992	2600.041992
3064.069336	2779.416016
3063.220703	2755.393066
3062.372070	2684.234131
3061.523438	2713.261963
3060.674805	2724.607422
3059.826172	2724.168701
3058.976563	2656.005127
3058.127930	2640.856934
3057.278320	2593.333740
3056.428711	2678.267822
3055.579102	2760.231445
3054.729492	2668.578857
3053.879883	2541.654785
3053.030273	2635.365723
3052.179688	2643.763916
3051.330078	2663.920410
3050.479492	2592.935303
3049.628906	2607.214844
3048.778320	2692.022705
3047.926758	2621.067383
3047.076172	2641.210938
3046.225586	2731.847168
3045.374023	2716.722412
3044.522461	2713.348389
3043.670898	2648.318359
3042.819336	2668.440918
3041.967773	2665.076172
3041.116211	2676.385498
3040.263672	2711.164551
3039.412109	2663.789063
3038.559570	2675.092773
3037.707031	2566.150635
3036.854492	2568.669678
3036.001953	2673.800781
3035.148438	2717.340088
3034.295898	2620.184082
3033.442383	2613.901367
3032.589844	2669.148926
3031.736328	2665.789551
3030.882813	2647.786377
3030.028320	2703.001465
3029.174805	2682.069824
3028.321289	2713.841064
3027.466797	2605.101807
3026.612305	2654.434570
3025.758789	2613.041260
3024.904297	2577.512207
3024.048828	2544.919922
3023.194336	2687.821533
3022.339844	2663.994629
3021.484375	2669.413086
3020.628906	2601.746826
3019.773438	2621.787598
3018.917969	2676.890381
3018.062500	2539.129883
3017.207031	2532.878174
3016.351563	2722.332275
3015.495117	2613.835693
3014.638672	2665.974854
3013.782227	2709.338623
3012.925781	2603.815430
3012.069336	2568.372803
3011.212891	2582.549561
3010.356445	2684.251953
3009.499023	2520.456543
3008.641602	2616.302246
3007.785156	2566.304443
3006.927734	2644.617188
3006.069336	2553.816406
3005.211914	2521.341553
3004.354492	2555.907959
3003.496094	2526.356934
3002.638672	2569.651367
3001.780273	2618.757813
3000.921875	2627.073486
3000.063477	2702.362793
2999.204102	2594.199707
2998.345703	2631.625732
2997.486328	2642.844238
2996.627930	2584.215332
2995.768555	2697.276611
2994.909180	2691.023438
2994.049805	2661.502441
2993.190430	2533.109375
2992.330078	2587.949463
2991.470703	2613.698486
2990.610352	2537.698486
2989.750000	2650.639404
2988.889648	2589.187500
2988.029297	2716.610596
2987.168945	2597.067871
2986.308594	2683.785400
2985.447266	2648.503906
2984.585938	2680.016602
2983.725586	2621.522217
2982.864258	2583.365234
2982.002930	2617.774902
2981.140625	2466.463623
2980.279297	2599.523682
2979.416992	2631.013184
2978.555664	2703.097168
2977.693359	2760.658447
2976.831055	2638.439453
2975.968750	2626.418457
2975.106445	2646.284180
2974.243164	2657.449463
2973.380859	2616.455811
2972.517578	2549.402100
2971.654297	2635.888428
2970.791016	2580.437256
2969.927734	2559.751709
2969.064453	2579.605469
2968.201172	2689.188721
2967.336914	2625.081543
2966.473633	2670.958984
2965.609375	2595.302002
2964.745117	2551.490967
2963.880859	2600.250000
2963.016602	2640.317627
2962.151367	2599.411621
2961.287109	2538.281982
2960.421875	2647.712158
2959.556641	2459.432129
2958.691406	2675.754150
2957.826172	2522.199463
2956.960938	2657.559570
2956.095703	2596.479004
2955.229492	2627.825195
2954.363281	2575.430908
2953.498047	2546.147705
2952.631836	2499.555908
2951.765625	2718.478027
2950.898438	2567.999268
2950.032227	2697.406738
2949.165039	2627.744629
2948.298828	2696.536865
2947.431641	2600.945557
2946.564453	2698.550293
2945.697266	2686.584717
2944.830078	2686.151367
2943.961914	2642.492920
2943.094727	2613.254639
2942.226563	2664.686523
2941.358398	2693.059570
2940.490234	2689.745361
2939.622070	2683.552734
2938.753906	2752.213135
2937.885742	2648.145996
2937.016602	2673.620605
2936.148438	2676.066650
2935.279297	2661.250000
2934.410156	2669.450439
2933.541016	2703.532959
2932.670898	2688.718506
2931.801758	2682.534424
2930.932617	2690.725830
2930.062500	2560.950928
2929.192383	2551.916260
2928.322266	2675.057129
2927.452148	2654.515625
2926.582031	2720.152344
2925.710938	2699.610107
2924.840820	2644.616699
2923.969727	2612.608887
2923.098633	2572.000000
2922.227539	2660.557129
2921.356445	2680.215088
2920.485352	2633.876465
2919.614258	2748.198730
2918.742188	2604.344238
2917.870117	2638.337158
2916.999023	2571.963623
2916.126953	2786.561035
2915.253906	2694.387451
2914.381836	2633.768555
2913.509766	2716.441406
2912.636719	2747.517822
2911.764648	2724.158447
2910.891602	2689.350098
2910.018555	2720.415527
2909.145508	2725.702881
2908.271484	2742.438965
2907.398438	2696.200928
2906.524414	2684.318848
2905.651367	2658.134033
2904.777344	2620.514160
2903.903320	2700.181396
2903.029297	2748.364014
2902.154297	2779.374023
2901.280273	2687.438232
2900.405273	2598.390381
2899.531250	2755.164063
2898.656250	2646.130859
2897.781250	2674.274902
2896.906250	2645.276611
2896.030273	2607.718750
2895.155273	2695.825928
2894.279297	2655.416748
2893.404297	2520.811279
2892.528320	2548.947998
2891.652344	2597.052979
2890.776367	2682.237061
2889.899414	2676.097900
2889.023438	2641.435547
2888.146484	2692.346191
2887.270508	2717.575928
2886.393555	2662.965576
2885.516602	2591.268555
2884.638672	2593.700439
2883.761719	2601.830811
2882.884766	2678.341797
2882.006836	2640.874512
2881.128906	2589.177246
2880.250977	2571.671631
2879.373047	2594.036133
2878.495117	2681.874268
2877.617188	2647.282715
2876.738281	2513.089355
2875.860352	2709.031250
2874.981445	2543.574463
2874.102539	2565.921387
2873.223633	2713.407471
2872.344727	2650.406250
2871.464844	2553.305176
2870.585938	2524.464111
2869.706055	2595.116455
2868.826172	2526.490723
2867.947266	2619.851563
2867.066406	2548.402832
2866.186523	2323.586182
2865.306641	2539.059326
2864.425781	2618.159424
2863.545898	2541.078369
2862.665039	2424.279785
2861.784180	2611.214355
2860.903320	2514.306885
2860.022461	2468.502930
2859.140625	2539.026611
2858.259766	2493.233398
2857.377930	2541.042480
2856.496094	2523.618652
2855.614258	2509.035645
2854.732422	2539.811035
2853.850586	2559.239746
2852.967773	2624.001221
2852.085938	2660.409424
2851.203125	2526.839111
2850.320313	2600.071045
2849.437500	2551.509277
2848.554688	2536.939941
2847.671875	2576.163330
2846.788086	2570.086182
2845.905273	2555.520752
2845.021484	2580.573975
2844.137695	2546.207520
2843.253906	2721.173340
2842.370117	2618.918213
2841.486328	2595.873047
2840.601563	2586.971680
2839.717773	2555.458252
2838.833008	2540.913574
2837.948242	2636.584229
2837.063477	2590.950684
2836.178711	2593.356934
2835.292969	2657.902588
2834.408203	2569.926025
2833.522461	2603.394287
2832.636719	2594.503906
2831.750977	2574.325684
2830.865234	2534.397705
2829.979492	2649.682373
2829.093750	2604.112305
2828.207031	2400.586670
2827.321289	2434.043945
2826.434570	2664.889648
2825.547852	2585.511963
2824.661133	2717.590576
2823.774414	2604.406494
2822.886719	2556.076660
2822.000000	2541.574951
2821.112305	2704.564697
2820.224609	2737.929199
2819.336914	2593.853027
2818.449219	2503.325195
2817.561523	2514.182129
2816.672852	2578.520264
2815.785156	2516.183838
2814.896484	2678.992920
2814.007813	2599.778564
2813.119141	2644.368896
2812.230469	2449.864746
2811.341797	2497.276855
2810.452148	2572.791504
2809.563477	2569.564209
2808.673828	2563.526855
2807.784180	2588.406250
2806.894531	2565.507813
2806.004883	2556.664307
2805.114258	2609.623291
2804.224609	2502.473877
2803.333984	2555.424316
2802.444336	2462.356689
2801.553711	2658.466064
2800.663086	2489.628418
2799.771484	2564.997070
2798.880859	2511.270264
2797.989258	2583.805420
2797.098633	2614.242188
2796.207031	2695.150635
2795.315430	2590.964111
2794.423828	2596.152344
2793.532227	2590.125977
2792.639648	2634.550537
2791.748047	2656.542480
2790.855469	2518.824219
2789.962891	2666.888428
2789.070313	2616.040771
2788.177734	2596.014404
2787.285156	2626.394531
2786.391602	2561.580078
2785.499023	2611.549316
2784.605469	2622.321289
2783.711914	2624.695313
2782.818359	2590.697998
2781.924805	2573.495117
2781.031250	2500.361328
2780.136719	2656.553711
2779.243164	2505.144043
2778.348633	2532.693359
2777.454102	2655.264404
2776.559570	2635.272705
2775.665039	2551.022949
2774.769531	2438.864014
2773.875000	2458.021729
2772.979492	2569.334229
2772.083984	2613.595215
2771.188477	2596.421143
2770.292969	2623.915039
2769.397461	2589.999023
2768.501953	2600.741943
2767.605469	2533.359863
2766.708984	2661.271240
2765.812500	2699.888428
2764.916016	2565.594238
2764.019531	2551.238037
2763.123047	2651.185303
2762.226563	2631.244873
2761.329102	2541.638672
2760.431641	2555.159424
2759.534180	2524.100098
2758.636719	2540.404785
2757.739258	2604.050293
2756.841797	2620.336670
2755.943359	2505.760986
2755.045898	2524.841553
2754.147461	2644.113770
2753.249023	2560.200928
2752.350586	2479.097656
2751.452148	2637.266113
2750.552734	2620.150146
2749.654297	2639.193115
2748.754883	2647.107666
2747.855469	2513.233154
2746.956055	2535.063477
2746.056641	2559.666016
2745.157227	2595.375732
2744.257813	2536.610596
2743.357422	2636.203369
2742.457031	2596.892578
2741.556641	2599.249268
2740.656250	2534.968262
2739.755859	2467.931885
2738.855469	2400.917236
2737.954102	2483.783691
2737.053711	2608.244141
2736.152344	2555.110596
2735.250977	2599.078125
2734.349609	2684.631836
2733.448242	2537.231689
2732.545898	2528.503418
2731.644531	2605.710938
2730.742188	2660.720459
2729.840820	2610.409180
2728.938477	2609.986328
2728.035156	2612.333740
2727.132813	2603.601318
2726.230469	2558.870117
2725.327148	2624.908936
2724.424805	2627.252197
2723.521484	2521.642822
2722.618164	2551.677490
2721.713867	2675.783447
2720.810547	2584.050537
2719.907227	2580.865723
2719.002930	2544.492920
2718.098633	2535.784668
2717.194336	2546.433350
2716.290039	2673.183594
2715.385742	2606.415527
2714.481445	2531.378418
2713.576172	2616.623291
2712.671875	2627.249756
2711.766602	2524.623779
2710.861328	2593.257813
2709.956055	2545.895996
2709.050781	2490.266846
2708.144531	2644.444580
2707.239258	2732.333984
2706.333008	2527.689209
2705.426758	2563.147217
2704.520508	2626.179443
2703.614258	2592.656006
2702.708008	2539.839600
2701.800781	2503.583740
2700.893555	2618.963867
2699.987305	2439.375977
2699.080078	2494.098877
2698.172852	2526.760254
2697.264648	2509.820557
2696.357422	2512.168457
2695.450195	2459.432861
2694.541992	2508.600342
2693.633789	2530.219727
2692.725586	2535.315186
2691.817383	2559.675293
2690.909180	2611.546143
2690.000000	2492.810547
2689.091797	2701.482666
2688.182617	2648.784180
2687.273438	2554.851074
2686.364258	2579.183838
2685.455078	2507.286133
2684.545898	2570.101318
2683.635742	2599.916260
2682.726563	2764.367432
2681.816406	2552.366699
2680.906250	2612.386719
2679.996094	2592.737305
2679.085938	2564.855957
2678.174805	2569.931396
2677.264648	2618.928467
2676.353516	2536.160889
2675.442383	2574.170166
2674.531250	2488.692627
2673.620117	2641.920898
2672.708984	2545.488037
2671.796875	2572.500732
2670.885742	2552.888916
2669.973633	2511.350098
2669.061523	2565.766846
2668.149414	2483.127930
2667.237305	2581.376709
2666.324219	2515.200928
2665.412109	2561.363281
2664.499023	2637.639404
2663.585938	2568.748047
2662.672852	2524.521973
2661.759766	2576.127930
2660.846680	2468.958984
2659.933594	2578.028809
2659.019531	2525.620605
2658.105469	2574.456787
2657.192383	2560.361816
2656.278320	2538.066650
2655.363281	2523.982178
2654.449219	2589.191162
2653.535156	2651.645020
2652.620117	2550.086182
2651.705078	2579.732666
2650.790039	2592.975830
2649.875000	2603.482666
2648.959961	2501.997070
2648.044922	2545.287109
2647.128906	2536.682373
2646.212891	2618.174072
2645.296875	2653.234863
2644.380859	2590.032227
2643.464844	2567.781494
2642.548828	2594.648193
2641.632813	2602.410889
2640.715820	2561.076904
2639.798828	2473.396973
2638.881836	2451.182861
2637.964844	2434.428467
2637.047852	2608.476807
2636.130859	2501.769287
2635.212891	2588.556641
2634.294922	2656.245361
2633.377930	2582.268555
2632.459961	2625.425049
2631.541992	2562.369141
2630.623047	2597.346924
2629.705078	2659.534668
2628.786133	2547.513184
2627.867188	2645.064941
2626.949219	2647.356445
2626.030273	2538.111572
2625.110352	2510.500244
2624.191406	2523.689941
2623.271484	2569.504150
2622.352539	2596.273193
2621.432617	2734.478271
2620.512695	2614.454346
2619.592773	2643.919922
2618.672852	2510.365234
2617.751953	2615.897461
2616.832031	2629.052490
2615.911133	2631.341064
2614.990234	2525.025635
2614.069336	2630.486572
2613.148438	2554.061768
2612.226563	2588.926025
2611.305664	2602.072021
2610.383789	2547.392090
2609.462891	2612.076904
2608.541016	2549.276611
2607.618164	2589.535889
2606.696289	2632.493164
2605.774414	2688.989990
2604.851563	2669.581543
2603.929688	2628.500977
2603.006836	2655.167725
2602.083984	2652.027344
2601.160156	2681.389893
2600.237305	2521.180176
2599.314453	2599.291016
2598.390625	2560.968506
2597.466797	2687.768066
2596.542969	2698.156738
2595.619141	2635.484131
2594.695313	2653.993652
2593.770508	2672.497314
2592.846680	2720.744385
2591.921875	2666.220703
2590.997070	2557.642090
2590.072266	2635.619385
2589.147461	2673.029785
2588.222656	2637.465332
2587.296875	2615.421631
2586.372070	2693.338623
2585.446289	2584.860596
2584.520508	2570.937744
2583.594727	2589.420898
2582.668945	2586.300537
2581.742188	2604.774902
2580.816406	2590.857666
2579.889648	2493.295166
2578.962891	2471.306396
2578.036133	2708.284424
2577.109375	2648.509033
2576.181641	2567.179932
2575.254883	2634.167236
2574.327148	2658.000732
2573.399414	2641.396973
2572.472656	2684.085449
2571.543945	2616.288574
2570.616211	2588.923340
2569.688477	2566.954102
2568.759766	2650.023193
2567.831055	2574.197510
2566.903320	2635.700684
2565.974609	2724.101563
2565.044922	2704.819092
2564.116211	2604.815186
2563.186523	2502.153076
2562.257813	2404.904541
2561.328125	2485.201904
2560.398438	2511.689697
2559.468750	2540.857422
2558.539063	2583.457031
2557.608398	2542.718994
2556.678711	2676.677002
2555.748047	2783.721191
2554.817383	2654.313965
2553.886719	2613.590820
2552.956055	2578.251953
2552.024414	2556.350586
2551.093750	2641.848633
2550.162109	2606.522217
2549.230469	2584.626953
2548.298828	2696.913330
2547.367188	2613.300049
2546.435547	2610.192383
2545.503906	2534.666504
2544.571289	2633.479004
2543.638672	2525.798096
2542.706055	2557.557861
2541.773438	2597.348389
2540.840820	2663.926025
2539.908203	2652.774414
2538.974609	2574.647949
2538.041016	2625.124512
2537.108398	2635.410400
2536.174805	2701.927490
2535.240234	2581.005127
2534.306641	2628.770508
2533.373047	2679.196777
2532.438477	2646.647705
2531.503906	2595.379883
2530.569336	2685.914795
2529.634766	2618.608398
2528.700195	2588.764404
2527.765625	2577.647705
2526.830078	2641.391602
2525.894531	2518.001953
2524.958984	2571.044189
2524.023438	2514.510254
2523.087891	2615.626953
2522.152344	2551.090088
2521.215820	2630.801025
2520.280273	2576.964111
2519.343750	2669.994629
2518.407227	2602.821045
2517.470703	2573.037109
2516.534180	2607.311279
2515.596680	2697.607666
2514.660156	2747.857178
2513.722656	2694.062012
2512.785156	2648.285400
2511.847656	2599.856934
2510.910156	2535.447754
2509.971680	2548.363281
2509.034180	2619.909180
2508.095703	2536.874512
2507.157227	2477.845703
2506.218750	2576.007080
2505.280273	2706.098389
2504.341797	2564.516357
2503.402344	2556.110840
2502.463867	2603.614014
2501.524414	2664.410400
2500.584961	2608.088867
2499.645508	2589.038086
2498.706055	2532.747070
2497.765625	2484.454346
2496.826172	2585.113770
2495.885742	2534.168945
2494.945313	2547.050049
2494.004883	2613.092285
2493.064453	2580.772461
2492.124023	2516.574219
2491.182617	2548.048096
2490.241211	2635.299316
2489.300781	2587.060059
2488.359375	2642.407959
2487.417969	2596.838379
2486.475586	2604.379883
2485.534180	2564.139648
2484.591797	2608.839355
2483.649414	2688.020020
2482.708008	2602.683350
2481.764648	2594.301270
2480.822266	2455.962891
2479.879883	2614.670410
2478.936523	2532.052246
2477.994141	2555.498047
2477.050781	2645.198730
2476.107422	2559.965576
2475.164063	2636.387939
2474.219727	2641.256836
2473.276367	2609.041260
2472.332031	2539.759277
2471.387695	2563.176514
2470.443359	2557.463867
2469.499023	2604.694092
2468.554688	2591.036621
2467.610352	2672.645996
2466.665039	2524.048340
2465.719727	2528.927734
2464.774414	2578.768311
2463.829102	2610.081543
2462.883789	2641.384521
2461.938477	2548.428223
2460.992188	2566.514893
2460.045898	2640.093262
2459.100586	2658.159180
2458.154297	2486.003906
2457.207031	2641.443848
2456.260742	2429.732422
2455.314453	2434.617432
2454.367188	2492.303955
2453.419922	2692.516602
2452.472656	2565.391602
2451.525391	2638.861328
2450.578125	2720.222656
2449.629883	2574.688965
2448.682617	2624.383057
2447.734375	2666.149414
2446.786133	2568.156494
2445.837891	2638.917236
2444.889648	2601.585205
2443.940430	2685.494385
2442.992188	2685.056641
2442.042969	2634.562012
2441.093750	2760.570801
2440.144531	2667.940918
2439.195313	2620.106934
2438.246094	2706.563477
2437.295898	2611.355225
2436.346680	2729.368652
2435.396484	2671.029297
2434.446289	2796.887695
2433.496094	2806.954346
2432.545898	2748.630615
2431.594727	2742.922607
2430.643555	2708.292969
2429.693359	2776.204590
2428.742188	2733.695068
2427.791016	2654.405273
2426.838867	2719.664795
2425.887695	2614.130371
2424.936523	2629.464844
2423.984375	2707.828125
2423.032227	2610.225098
2422.080078	2478.521729
2421.127930	2509.618896
2420.174805	2661.441650
2419.222656	2584.903809
2418.269531	2539.876709
2417.316406	2450.266357
2416.363281	2536.424805
2415.410156	2617.310303
2414.457031	2616.883057
2413.502930	2514.209717
2412.549805	2626.514160
2411.595703	2631.327148
2410.641602	2560.146729
2409.687500	2583.308594
2408.733398	2561.930664
2407.778320	2522.225586
2406.824219	2521.813721
2405.869141	2453.326904
2404.914063	2562.876221
2403.958984	2421.117188
2403.003906	2418.104980
2402.048828	2443.875977
2401.091797	2448.709229
2400.136719	2458.772461
2399.181641	2508.061523
2398.224609	2484.118164
2397.269531	2572.603516
2396.312500	2540.815430
2395.355469	2553.468506
2394.398438	2587.022705
2393.441406	2570.923828
2392.484375	2609.688721
2391.527344	2515.235107
2390.570313	2501.767090
2389.613281	2496.136475
2388.656250	2532.277344
2387.697266	2479.660400
2386.740234	2544.499023
2385.781250	2499.725098
2384.824219	2428.876953
2383.865234	2464.998779
2382.906250	2516.756836
2381.947266	2537.206787
2380.988281	2555.042725
2380.029297	2499.883545
2379.070313	2449.954834
2378.111328	2473.007813
2377.152344	2519.502441
2376.191406	2480.015137
2375.232422	2521.284180
2374.271484	2513.059570
2373.312500	2413.705566
2372.351563	2431.534668
2371.390625	2543.063477
2370.431641	2490.597900
2369.470703	2425.138916
2368.509766	2494.987549
2367.548828	2400.935547
2366.585938	2455.160156
2365.625000	2553.573486
2364.664063	2456.958008
2363.701172	2417.563477
2362.740234	2448.357666
2361.777344	2408.977539
2360.816406	2447.557617
2359.853516	2325.059570
2358.890625	2501.303223
2357.927734	2425.582031
2356.964844	2445.958008
2356.001953	2365.078125
2355.039063	2333.543213
2354.076172	2465.521240
2353.113281	2382.082764
2352.148438	2373.910156
2351.185547	2365.739990
2350.220703	2386.102051
2349.257813	2416.830078
2348.292969	2351.616455
2347.328125	2475.663330
2346.365234	2454.523438
2345.400391	2314.182861
2344.435547	2401.900146
2343.470703	2341.923096
2342.503906	2406.295166
2341.539063	2385.183594
2340.574219	2369.257568
2339.607422	2345.569824
2338.642578	2329.655273
2337.675781	2334.450439
2336.710938	2383.234131
2335.744141	2499.270264
2334.777344	2379.868164
2333.810547	2392.410889
2332.843750	2301.510742
2331.876953	2464.023682
2330.910156	2657.504883
2329.943359	2576.944580
2328.974609	2517.084717
2328.007813	2532.176270
2327.041016	2480.093506
2326.072266	2428.027588
2325.103516	2414.717529
2324.136719	2344.604248
2323.167969	2372.619873
2322.199219	2289.629395
2321.230469	2353.777344
2320.261719	2340.489990
2319.292969	2332.366943
2318.324219	2303.609375
2317.355469	2352.237549
2316.384766	2351.852539
2315.416016	2315.370850
2314.445313	2327.881592
2313.476563	2234.709961
2312.505859	2340.005371
2311.535156	2373.119385
2310.564453	2313.477295
2309.593750	2462.497070
2308.623047	2333.323486
2307.652344	2348.391602
2306.681641	2327.410645
2305.710938	2406.828369
2304.740234	2282.895508
2303.767578	2313.401611
2302.796875	2284.721191
2301.824219	2212.318359
2300.851563	2312.265869
2299.880859	2245.025391
2298.908203	2280.654541
2297.935547	2354.833984
2296.962891	2331.315186
2295.990234	2364.342773
2295.017578	2299.717773
2294.042969	2237.683105
2293.070313	2309.239746
2292.097656	2270.337891
2291.123047	2262.262695
2290.150391	2197.706787
2289.175781	2199.914063
2288.201172	2312.483154
2287.228516	2283.876709
2286.253906	2309.160156
2285.279297	2288.259521
2284.304688	2298.144531
2283.330078	2259.301025
2282.353516	2223.034180
2281.378906	2284.197510
2280.404297	2301.765869
2279.427734	2255.258545
2278.453125	2301.011963
2277.476563	2216.090576
2276.500000	2231.096924
2275.525391	2297.320557
2274.548828	2271.337158
2273.572266	2194.156982
2272.595703	2291.072021
2271.619141	2311.172363
2270.640625	2313.352783
2269.664063	2379.497314
2268.687500	2327.944092
2267.708984	2348.024658
2266.732422	2186.527588
2265.753906	2344.698486
2264.777344	2277.845215
2263.798828	2267.247803
2262.820313	2279.654541
2261.841797	2299.723145
2260.863281	2258.468994
2259.884766	2306.632813
2258.906250	2377.766602
2257.925781	2328.858887
2256.947266	2269.754883
2255.968750	2205.564453
2254.988281	2348.132813
2254.009766	2268.639160
2253.029297	2278.473145
2252.048828	2214.323242
2251.068359	2242.017334
2250.087891	2341.108887
2249.107422	2261.680908
2248.126953	2195.026123
2247.146484	2306.821045
2246.166016	2349.768555
2245.185547	2362.124023
2244.203125	2356.641357
2243.222656	2208.511475
2242.240234	2312.571533
2241.259766	2291.820801
2240.277344	2265.984619
2239.294922	2235.065430
2238.312500	2211.791992
2237.330078	2275.049316
2236.347656	2239.054932
2235.365234	2302.286865
2234.382813	2286.648193
2233.398438	2265.928223
2232.416016	2270.642090
2231.431641	2270.269775
2230.449219	2178.389648
2229.464844	2251.734863
2228.480469	2223.414063
2227.498047	2296.727783
2226.513672	2230.305420
2225.529297	2303.593750
2224.544922	2285.440186
2223.560547	2285.065430
2222.574219	2264.382324
2221.589844	2375.688477
2220.605469	2230.649170
2219.619141	2286.103760
2218.634766	2186.790527
2217.648438	2201.650391
2216.662109	2259.618408
2215.675781	2246.569580
2214.691406	2210.708008
2213.705078	2144.440430
2212.718750	2212.517090
2211.730469	2336.318359
2210.744141	2209.257324
2209.757813	2295.021484
2208.771484	2208.532471
2207.783203	2230.960693
2206.794922	2283.764404
2205.808594	2207.445313
2204.820313	2245.049072
2203.832031	2366.151367
2202.843750	2256.963379
2201.855469	2226.235107
2200.867188	2271.398926
2199.878906	2212.859619
2198.890625	2146.753662
2197.902344	2186.851563
2196.912109	2196.603516
2195.923828	2224.043701
2194.933594	2203.463135
2193.945313	2091.935791
2192.955078	2190.109375
2191.964844	2151.864990
2190.974609	2202.016602
2189.984375	2214.279297
2188.994141	2163.427490
2188.003906	2132.784180
2187.013672	2132.433838
2186.023438	2200.209473
2185.031250	2230.121338
2184.041016	2171.741211
2183.048828	2138.599365
2182.058594	2236.587646
2181.066406	2082.432861
2180.074219	2256.018555
2179.082031	2127.114014
2178.089844	2094.006348
2177.097656	2166.726563
2176.105469	2105.913818
2175.113281	2228.980225
2174.121094	2155.586182
2173.126953	2225.730469
2172.134766	2220.330078
2171.140625	2131.871338
2170.148438	2096.289551
2169.154297	2151.300293
2168.160156	2228.934326
2167.166016	2143.047363
2166.171875	2122.576172
2165.177734	2247.951904
2164.183594	2152.047607
2163.189453	2161.748779
2162.195313	2131.234619
2161.199219	2286.680176
2160.205078	2107.922363
2159.208984	2064.871826
2158.214844	2134.857178
2157.218750	2129.484131
2156.222656	2222.032715
2155.226563	2226.688232
2154.230469	2223.812256
2153.234375	2183.294434
2152.238281	2062.497803
2151.242188	2137.419922
2150.244141	2202.284424
2149.248047	2216.969727
2148.251953	2123.828857
2147.253906	2083.366699
2146.255859	2065.477783
2145.259766	2110.250488
2144.261719	2144.985107
2143.263672	2179.708252
2142.265625	2179.349854
2141.267578	2184.000732
2140.269531	2161.104004
2139.269531	2183.282715
2138.271484	2047.742554
2137.273438	2197.582275
2136.273438	2109.632568
2135.275391	2286.936035
2134.275391	2178.986572
2133.275391	2166.121826
2132.277344	2233.289307
2131.277344	2050.387695
2130.277344	2162.553223
2129.277344	2159.697754
2128.275391	2094.362549
2127.275391	2223.957031
2126.275391	2153.635498
2125.273438	2210.735596
2124.273438	2255.328613
2123.271484	2155.070313
2122.271484	2132.244629
2121.269531	2106.930420
2120.267578	2056.664795
2119.265625	2166.130127
2118.263672	2283.044922
2117.261719	2120.512451
2116.259766	2187.510010
2115.257813	2057.467285
2114.253906	2154.375000
2113.251953	2114.131104
2112.248047	2083.871338
2111.246094	2173.249756
2110.242188	2212.761719
2109.238281	2150.111572
2108.236328	2055.098633
2107.232422	2181.781982
2106.228516	2178.932617
2105.224609	2171.104736
2104.218750	2185.683838
2103.214844	2197.768799
2102.210938	2147.635742
2101.205078	2065.172852
2100.201172	2134.489990
2099.195313	2134.138672
2098.189453	2158.656738
2097.185547	2143.382324
2096.179688	2167.890625
2095.173828	2214.761963
2094.167969	2087.647461
2093.162109	2149.425781
2092.156250	2168.947754
2091.148438	2210.819824
2090.142578	2247.710693
2089.134766	2046.197388
2088.128906	2093.034424
2087.121094	2179.574707
2086.115234	2139.503662
2085.107422	2124.261475
2084.099609	2161.129883
2083.091797	2111.157959
2082.083984	2095.927979
2081.076172	2098.062744
2080.068359	2048.125732
2079.058594	2124.642578
2078.050781	2054.887451
2077.041016	2136.334473
2076.033203	2113.680908
2075.023438	2133.153076
2074.013672	2051.056641
2073.005859	2058.148926
2071.996094	2075.144043
2070.986328	2059.946777
2069.976563	2185.857422
2068.966797	2039.467407
2067.955078	2128.219727
2066.945313	2014.052734
2065.935547	2184.417236
2064.923828	2124.694336
2063.912109	2032.841675
2062.902344	2104.213135
2061.890625	2059.366211
2060.878906	2096.104248
2059.867188	2046.330566
2058.855469	2110.239502
2057.843750	2008.597168
2056.832031	2062.610352
2055.820313	2133.894043
2054.806641	2054.522217
2053.794922	2123.314941
2052.781250	2026.690918
2051.769531	2147.296387
2050.755859	2097.587402
2049.742188	2033.090820
2048.730469	2141.300781
2047.716797	2111.349609
2046.703125	2128.264160
2045.687500	2051.476074
2044.673828	2033.880737
2043.660156	2003.966553
2042.646484	2193.402344
2041.630859	2062.444092
2040.617188	2035.003418
2039.601563	2059.300537
2038.585938	2108.218506
2037.570313	2051.234131
2036.556641	2097.675049
2035.541016	1993.939575
2034.523438	2013.300659
2033.507813	2091.715576
2032.492188	1978.190552
2031.476563	2083.645508
2030.458984	2031.649780
2029.443359	2026.396240
2028.425781	1981.803345
2027.410156	1922.474609
2026.392578	2116.339600
2025.375000	1973.449951
2024.357422	2034.554077
2023.339844	2061.243164
2022.322266	2119.856201
2021.304688	2075.298828
2020.287109	2040.578491
2019.267578	2037.786621
2018.250000	2057.088379
2017.230469	2064.112061
2016.212891	1997.514893
2015.193359	2046.256104
2014.173828	2072.903076
2013.154297	2008.789795
2012.134766	2089.385254
2011.115234	2025.290283
2010.095703	2027.407593
2009.076172	2024.621826
2008.056641	1985.076294
2007.035156	2050.906982
2006.015625	1986.870972
2004.994141	1935.103516
2003.974609	2005.807739
2002.953125	1990.784546
2001.931641	1965.973022
2000.910156	1963.200562
1999.888672	2031.405884
1998.867188	2065.329346
1997.845703	2003.821777
1996.824219	2040.184814
1995.800781	2066.752441
1994.779297	2049.292969
1993.755859	2031.839233
1992.734375	1948.385620
1991.710938	1984.727661
1990.687500	2050.383545
1989.666016	1962.081177
1988.642578	1949.541992
1987.619141	2027.384277
1986.595703	2009.953735
1985.570313	1955.901611
1984.546875	2111.829590
1983.523438	2045.573242
1982.498047	1962.254517
1981.474609	1927.767334
1980.449219	1944.527588
1979.423828	1917.372925
1978.400391	1931.690186
1977.375000	2016.722046
1976.349609	1950.557495
1975.324219	1957.548584
1974.296875	1964.537354
1973.271484	1988.582642
1972.246094	1937.085815
1971.218750	1980.617065
1970.193359	2016.826416
1969.166016	2070.071533
1968.140625	1952.850586
1967.113281	1928.182129
1966.085938	2008.191162
1965.058594	1981.087769
1964.031250	1963.726807
1963.003906	1958.536255
1961.976563	1933.886963
1960.949219	1967.617554
1959.919922	1969.724121
1958.892578	1949.947632
1957.863281	1956.918213
1956.835938	1932.289185
1955.806641	1980.572754
1954.777344	1958.377563
1953.748047	2091.667969
1952.718750	2020.882690
1951.689453	1996.263062
1950.660156	1978.936035
1949.630859	1959.186890
1948.599609	1937.016846
1947.570313	1878.450073
1946.539063	1980.053955
1945.509766	2076.771973
1944.478516	2088.557129
1943.447266	1937.841187
1942.417969	1973.894653
1941.386719	1966.294556
1940.355469	1978.090088
1939.324219	1994.729004
1938.291016	2016.208984
1937.259766	1921.381348
1936.228516	1916.218506
1935.195313	2020.052856
1934.164063	1973.705933
1933.130859	1997.592651
1932.097656	1989.999390
1931.064453	1999.352295
1930.033203	2008.702026
1929.000000	2003.530273
1927.966797	1988.682861
1926.931641	1973.840210
1925.898438	1917.887695
1924.865234	1929.660889
1923.830078	1835.050415
1922.796875	2023.297852
1921.761719	1979.458374
1920.728516	1986.380371
1919.693359	2041.622437
1918.658203	1944.655762
1917.623047	1905.688721
1916.587891	2033.364136
1915.552734	1994.395264
1914.517578	2068.902832
1913.480469	2066.146729
1912.445313	1918.592041
1911.408203	1939.990723
1910.373047	1920.369385
1909.335938	1924.875732
1908.298828	1893.204590
1907.263672	1945.940308
1906.226563	1989.014771
1905.189453	1959.759155
1904.152344	1904.001709
1903.113281	2004.895020
1902.076172	1915.417847
1901.039063	2001.822266
1900.000000	2025.576050
1898.962891	1972.261719
1897.923828	1947.857666
1896.886719	1901.795654
1895.847656	2031.455322
1894.808594	1901.165771
1893.769531	1915.287720
1892.730469	1862.044189
1891.691406	1888.194580
1890.650391	1892.691650
1889.611328	1959.705444
1888.572266	1916.106079
1887.531250	1939.826172
1886.492188	2071.689209
1885.451172	1888.721436
1884.410156	1936.459717
1883.369141	1883.291382
1882.328125	1873.372314
1881.287109	1868.259155
1880.246094	1791.118774
1879.205078	1949.259277
1878.164063	1905.733276
1877.121094	1915.016479
1876.080078	1917.098511
1875.037109	1866.402344
1873.996094	1966.833252
1872.953125	1925.738281
1871.910156	1990.159180
1870.867188	1896.331299
1869.824219	1879.238037
1868.781250	1871.736816
1867.738281	1842.672241
1866.695313	1842.366821
1865.650391	1930.691040
1864.607422	1951.926025
1863.562500	1884.553467
1862.519531	1850.722168
1861.474609	1934.198730
1860.429688	1907.550415
1859.384766	1854.587769
1858.339844	1899.740112
1857.294922	1846.796143
1856.250000	1987.607666
1855.205078	1848.575073
1854.158203	1982.166382
1853.113281	1936.415649
1852.068359	1971.947998
1851.021484	1873.637451
1849.974609	1875.716064
1848.927734	1863.459717
1847.882813	1877.482544
1846.835938	1860.453369
1845.789063	1891.186890
1844.740234	1840.736450
1843.693359	1861.914673
1842.646484	1835.352417
1841.599609	1873.228394
1840.550781	1758.395264
1839.501953	1932.244019
1838.455078	1784.047852
1837.406250	1800.444702
1836.357422	1823.988892
1835.308594	1802.231079
1834.259766	1787.630981
1833.210938	1780.185059
1832.162109	1775.124146
1831.113281	1731.947754
1830.062500	1736.424194
1829.013672	1619.441040
1827.962891	1640.602417
1826.914063	1771.270874
1825.863281	1751.934082
1824.812500	1844.461426
1823.761719	1808.461914
1822.710938	1867.640625
1821.660156	1772.180054
1820.609375	1802.804688
1819.558594	1845.308960
1818.505859	1652.418457
1817.455078	1706.819458
1816.402344	1754.071899
1815.351563	1789.426636
1814.298828	1682.209351
1813.246094	1665.300781
1812.193359	1603.268677
1811.140625	1517.509033
1810.087891	1567.119873
1809.035156	1747.285889
1807.982422	1841.941162
1806.927734	1727.719727
1805.875000	1815.228027
1804.820313	1805.436768
1803.767578	1809.880981
1802.712891	1909.190308
1801.658203	1942.070923
1800.603516	1903.814331
1799.548828	1751.787109
1798.494141	1820.228760
1797.439453	1888.647461
1796.384766	1850.424927
1795.330078	1819.321655
1794.273438	1842.704468
1793.218750	1813.980835
1792.162109	1799.473145
1791.105469	1829.949463
1790.050781	1876.984131
1788.994141	1812.775513
1787.937500	1862.163452
1786.880859	1866.585571
1785.824219	1880.467529
1784.765625	1828.125488
1783.708984	1868.019531
1782.652344	1867.709106
1781.593750	1784.665771
1780.535156	1893.085693
1779.478516	1895.134033
1778.419922	1875.918091
1777.361328	1866.157349
1776.302734	1828.057739
1775.244141	1834.838135
1774.185547	1888.837158
1773.126953	1900.326416
1772.066406	1925.973267
1771.007813	1826.538574
1769.949219	1830.953857
1768.888672	1934.449097
1767.828125	1896.388306
1766.769531	1990.404907
1765.708984	1853.315308
1764.648438	1860.079590
1763.587891	1878.627319
1762.527344	1819.396484
1761.464844	1915.703857
1760.404297	1799.943726
1759.343750	1851.466675
1758.281250	1825.251831
1757.220703	1808.464844
1756.158203	1897.630371
1755.095703	1859.650879
1754.033203	1878.170288
1752.970703	1901.389893
1751.908203	1790.491333
1750.845703	1853.708862
1749.783203	1789.895508
1748.720703	1900.124756
1747.656250	1848.081177
1746.593750	1786.651367
1745.529297	1812.209106
1744.466797	1767.256104
1743.402344	1748.164551
1742.337891	1799.558105
1741.273438	1848.585571
1740.208984	1850.626343
1739.144531	1831.533325
1738.080078	1788.969360
1737.013672	1762.850952
1735.949219	1802.455566
1734.884766	1888.978149
1733.818359	1881.625122
1732.751953	1832.050659
1731.687500	1817.673340
1730.621094	1711.845947
1729.554688	1826.446533
1728.488281	1882.403564
1727.421875	1896.153076
1726.353516	1771.635376
1725.287109	1757.874634
1724.220703	1744.114014
1723.152344	1730.353271
1722.085938	1716.592529
1721.017578	1709.282227
1719.949219	1753.478271
1718.880859	1736.801270
1717.814453	1734.171753
1716.744141	1694.104248
1715.675781	1689.142944
1714.607422	1775.409912
1713.539063	1772.775391
1712.468750	1749.096436
1711.400391	1762.832886
1710.330078	1762.539185
1709.261719	1745.885132
1708.191406	1708.205444
1707.121094	1707.920776
1706.050781	1705.300171
1704.980469	1744.721924
1703.910156	1709.402466
1702.839844	1783.833130
1701.769531	1694.825928
1700.697266	1780.904541
1699.626953	1759.604492
1698.554688	1668.312378
1697.482422	1712.359741
1696.412109	1691.081543
1695.339844	1788.749512
1694.267578	1692.849609
1693.195313	1638.946167
1692.123047	1664.313599
1691.048828	1685.011475
1689.976563	1698.711670
1688.904297	1682.119873
1687.830078	1684.168823
1686.757813	1662.926758
1685.683594	1734.837402
1684.609375	1743.861206
1683.535156	1731.931030
1682.460938	1782.846802
1681.386719	1782.549438
1680.312500	1733.391479
1679.238281	1793.586548
1678.164063	1756.072632
1677.087891	1776.709595
1676.013672	1769.437866
1674.937500	1711.023682
1673.863281	1647.980225
1672.787109	1722.072876
1671.710938	1828.671021
1670.634766	1723.821655
1669.558594	1605.070068
1668.482422	1746.470825
1667.404297	1785.654297
1666.328125	1676.238403
1665.251953	1685.243774
1664.173828	1763.872681
1663.097656	1626.669067
1662.019531	1698.321045
1660.941406	1684.119263
1659.863281	1686.157593
1658.785156	1685.876221
1657.707031	1685.594849
1656.628906	1673.722656
1655.550781	1724.434692
1654.470703	1691.703247
1653.392578	1737.761230
1652.312500	1732.837891
1651.234375	1670.010132
1650.154297	1623.414307
1649.074219	1699.553711
1647.994141	1655.283447
1646.914063	1745.280273
1645.833984	1677.873901
1644.753906	1716.930420
1643.673828	1633.356567
1642.593750	1630.770630
1641.511719	1614.308960
1640.431641	1676.473633
1639.349609	1731.681519
1638.267578	1668.979004
1637.185547	1712.613403
1636.103516	1723.881592
1635.021484	1608.071289
1633.939453	1753.336670
1632.857422	1621.392334
1631.775391	1741.204590
1630.693359	1669.337646
1629.609375	1666.750366
1628.527344	1638.774292
1627.443359	1691.578735
1626.359375	1647.456299
1625.275391	1667.943848
1624.191406	1663.052002
1623.107422	1642.018311
1622.023438	1674.025391
1620.939453	1650.691406
1619.855469	1735.702393
1618.769531	1590.218506
1617.685547	1714.383911
1616.599609	1635.765015
1615.515625	1612.456543
1614.429688	1681.280762
1613.343750	1653.366943
1612.257813	1630.067017
1611.171875	1673.531982
1610.085938	1629.522217
1609.000000	1647.659424
1607.912109	1592.164429
1606.826172	1702.318970
1605.738281	1679.033936
1604.652344	1632.760010
1603.564453	1683.071167
1602.476563	1602.328491
1601.388672	1703.194946
1600.300781	1615.581421
1599.212891	1700.327759
1598.125000	1592.067627
1597.037109	1642.334839
1595.949219	1575.459106
1594.859375	1545.344971
1593.771484	1634.623535
1592.681641	1634.350220
1591.591797	1618.011475
1590.501953	1638.392822
1589.412109	1624.353149
1588.322266	1663.077759
1587.232422	1621.516235
1586.142578	1584.554932
1585.052734	1643.901245
1583.962891	1643.626343
1582.871094	1670.855103
1581.779297	1629.326782
1580.689453	1567.191406
1579.597656	1589.837524
1578.505859	1667.446777
1577.414063	1564.114746
1576.322266	1646.281616
1575.230469	1639.138184
1574.138672	1627.419312
1573.046875	1686.648804
1571.953125	1601.705078
1570.861328	1592.285889
1569.767578	1690.376953
1568.673828	1598.613892
1567.582031	1621.212524
1566.488281	1582.075195
1565.394531	1632.099121
1564.300781	1572.403687
1563.207031	1633.837769
1562.111328	1656.411377
1561.017578	1619.584839
1559.923828	1696.967651
1558.828125	1749.205444
1557.732422	1671.284546
1556.638672	1680.135864
1555.542969	1746.044434
1554.447266	1732.059937
1553.351563	1695.263550
1552.255859	1713.229736
1551.160156	1687.853149
1550.062500	1737.741455
1548.966797	1694.128174
1547.871094	1682.445679
1546.773438	1643.414795
1545.675781	1629.465698
1544.580078	1647.421509
1543.482422	1569.686401
1542.384766	1585.368286
1541.287109	1616.986938
1540.189453	1616.716064
1539.089844	1609.615112
1537.992188	1611.621704
1536.894531	1597.696167
1535.794922	1558.744263
1534.697266	1578.959473
1533.597656	1553.672363
1532.498047	1644.387817
1531.398438	1669.126465
1530.298828	1566.533203
1529.199219	1529.898682
1528.099609	1461.456055
1527.000000	1538.475830
1525.898438	1490.503662
1524.798828	1553.862183
1523.697266	1555.873047
1522.597656	1528.360596
1521.496094	1612.116089
1520.394531	1580.062988
1519.292969	1595.686890
1518.191406	1638.538818
1517.089844	1570.192139
1515.988281	1583.541016
1514.886719	1617.299927
1513.783203	1501.364746
1512.681641	1548.731323
1511.578125	1575.677612
1510.476563	1545.945190
1509.373047	1491.292236
1508.269531	1561.288818
1507.166016	1493.057739
1506.062500	1544.908325
1504.958984	1512.940796
1503.855469	1467.397095
1502.750000	1494.320313
1501.646484	1518.970825
1500.541016	1498.345703
1499.437500	1455.097778
1498.332031	1534.044678
1497.226563	1474.969482
1496.121094	1501.864136
1495.015625	1481.259033
1493.910156	1413.177856
1492.804688	1379.030151
1491.699219	1507.637329
1490.591797	1455.405640
1489.486328	1495.833496
1488.378906	1543.025513
1487.271484	1547.284058
1486.166016	1560.574951
1485.058594	1603.216064
1483.951172	1501.351685
1482.843750	1487.555908
1481.736328	1548.242920
1480.626953	1604.396362
1479.519531	1511.624634
1478.412109	1563.253662
1477.302734	1506.606323
1476.195313	1506.353394
1475.085938	1555.702515
1473.976563	1503.593262
1472.867188	1492.071411
1471.757813	1543.651489
1470.648438	1554.657837
1469.539063	1522.858276
1468.427734	1403.226929
1467.318359	1472.802979
1466.208984	1472.555664
1465.097656	1461.052124
1463.986328	1508.074707
1462.876953	1507.821411
1461.765625	1530.069214
1460.654297	1500.565796
1459.542969	1574.542114
1458.431641	1547.289917
1457.318359	1607.741943
1456.207031	1699.648560
1455.095703	1568.988525
1453.982422	1564.229980
1452.869141	1537.002197
1451.757813	1489.563232
1450.644531	1502.790894
1449.531250	1507.030151
1448.417969	1513.513672
1447.304688	1576.124634
1446.191406	1490.556763
1445.076172	1568.861572
1443.962891	1566.353882
1442.847656	1601.989502
1441.734375	1545.637573
1440.619141	1610.422607
1439.503906	1437.475464
1438.390625	1497.772583
1437.275391	1439.234009
1436.158203	1421.060669
1435.042969	1483.570923
1433.927734	1469.877563
1432.812500	1498.754150
1431.695313	1487.302612
1430.580078	1560.957153
1429.462891	1466.649902
1428.345703	1560.432251
1427.228516	1548.977783
1426.113281	1591.239868
1424.996094	1452.237671
1423.876953	1476.603394
1422.759766	1536.751465
1421.642578	1518.600708
1420.523438	1525.053711
1419.406250	1500.203613
1418.287109	1484.303467
1417.169922	1544.399414
1416.050781	1492.742676
1414.931641	1548.348267
1413.812500	1527.982788
1412.693359	1442.851929
1411.574219	1549.799927
1410.453125	1473.625122
1409.333984	1484.539185
1408.214844	1450.809082
1407.093750	1439.406738
1405.972656	1523.952515
1404.853516	1530.388672
1403.732422	1483.290283
1402.611328	1458.509155
1401.490234	1500.629150
1400.369141	1529.358521
1399.246094	1535.788086
1398.125000	1495.414185
1397.003906	1504.075439
1395.880859	1421.390503
1394.757813	1492.431519
1393.636719	1505.542969
1392.513672	1385.044556
1391.390625	1438.244507
1390.267578	1442.454346
1389.144531	1488.949829
1388.021484	1439.743286
1386.896484	1386.103638
1385.773438	1414.788818
1384.648438	1454.584961
1383.525391	1458.787476
1382.400391	1445.201416
1381.275391	1469.411133
1380.150391	1493.612671
1379.025391	1453.360352
1377.900391	1521.994019
1376.775391	1428.434082
1375.650391	1494.827637
1374.523438	1496.796509
1373.398438	1456.577271
1372.271484	1420.811523
1371.146484	1491.600708
1370.019531	1440.306152
1368.892578	1440.063477
1367.765625	1557.402466
1366.638672	1472.850342
1365.511719	1488.126587
1364.384766	1501.180176
1363.255859	1516.446411
1362.128906	1451.907837
1361.000000	1522.583984
1359.873047	1422.611572
1358.744141	1513.208618
1357.615234	1484.156494
1356.486328	1463.973145
1355.357422	1505.800171
1354.228516	1496.690186
1353.099609	1432.241577
1351.968750	1496.185547
1350.839844	1551.256226
1349.708984	1475.768066
1348.580078	1464.458374
1347.449219	1461.999634
1346.318359	1479.444458
1345.187500	1406.230103
1344.056641	1408.203613
1342.925781	1447.751709
1341.794922	1418.778320
1340.664063	1445.053833
1339.531250	1453.646729
1338.400391	1495.369141
1337.267578	1486.283081
1336.136719	1468.367798
1335.003906	1571.881836
1333.871094	1516.433472
1332.738281	1423.485596
1331.605469	1462.963867
1330.472656	1420.799072
1329.337891	1477.911011
1328.205078	1376.210205
1327.072266	1470.796997
1325.937500	1437.478027
1324.802734	1399.761475
1323.669922	1401.729126
1322.535156	1430.139404
1321.400391	1438.710938
1320.265625	1370.179443
1319.130859	1499.895020
1317.994141	1347.695679
1316.859375	1391.503174
1315.722656	1483.725952
1314.587891	1448.259399
1313.451172	1412.804810
1312.314453	1416.966797
1311.179688	1363.930176
1310.042969	1396.692627
1308.906250	1383.261963
1307.769531	1372.034424
1306.630859	1431.159546
1305.494141	1342.996704
1304.355469	1340.572144
1303.218750	1415.053589
1302.080078	1381.860840
1300.943359	1289.372437
1299.804688	1385.786377
1298.666016	1403.118774
1297.527344	1367.754761
1296.388672	1363.133545
1295.248047	1384.850220
1294.109375	1404.365112
1292.970703	1369.024658
1291.830078	1344.663940
1290.691406	1394.880493
1289.550781	1385.873535
1288.410156	1350.559814
1287.269531	1350.331543
1286.128906	1415.855225
1284.988281	1347.683838
1283.847656	1410.994629
1282.705078	1263.984985
1281.564453	1263.771362
1280.423828	1261.367798
1279.281250	1331.218750
1278.138672	1252.184937
1276.996094	1372.355225
1275.855469	1299.906250
1274.712891	1258.114014
1273.568359	1273.214844
1272.425781	1268.625000
1271.283203	1314.335693
1270.140625	1314.113525
1268.996094	1346.683960
1267.851563	1296.182617
1266.708984	1330.930420
1265.564453	1346.000854
1264.419922	1334.849731
1263.275391	1286.568726
1262.130859	1288.535034
1260.986328	1268.664795
1259.839844	1419.092285
1258.695313	1392.658081
1257.550781	1433.889648
1256.404297	1370.365845
1255.257813	1391.951416
1254.113281	1308.823730
1252.966797	1389.299438
1251.820313	1354.174194
1250.673828	1412.812256
1249.525391	1355.895874
1248.378906	1390.538818
1247.232422	1335.824585
1246.083984	1366.101563
1244.937500	1378.940918
1243.789063	1332.968384
1242.640625	1395.895630
1241.492188	1386.950073
1240.343750	1351.884155
1239.195313	1388.657227
1238.046875	1427.593872
1236.898438	1364.252808
1235.748047	1403.180420
1234.599609	1459.495605
1233.449219	1470.122192
1232.300781	1432.908936
1231.150391	1380.490356
1230.000000	1443.291870
1228.849609	1473.473145
1227.699219	1342.849854
1226.548828	1466.456543
1225.398438	1453.175293
1224.246094	1402.977905
1223.095703	1519.997192
1221.943359	1463.292358
1220.791016	1452.191040
1219.640625	1402.027588
1218.488281	1482.078369
1217.335938	1468.809814
1216.183594	1446.868774
1215.031250	1398.908936
1213.876953	1457.221069
1212.724609	1422.284302
1211.570313	1430.714233
1210.417969	1447.810913
1209.263672	1380.388062
1208.109375	1434.320313
1206.957031	1466.571533
1205.802734	1457.659302
1204.646484	1437.922363
1203.492188	1472.321533
1202.337891	1478.566406
1201.183594	1482.644653
1200.027344	1512.690430
1198.873047	1445.359009
1197.716797	1475.400757
1196.560547	1488.128540
1195.404297	1457.599609
1194.248047	1513.570923
1193.091797	1493.857300
1191.935547	1398.497559
1190.779297	1417.710693
1189.621094	1499.579956
1188.464844	1518.769287
1187.306641	1555.232544
1186.150391	1608.960693
1184.992188	1517.996704
1183.833984	1496.149780
1182.675781	1539.067627
1181.517578	1471.901978
1180.359375	1506.177856
1179.199219	1564.174438
1178.041016	1518.609619
1176.882813	1615.405762
1175.722656	1569.847656
1174.562500	1666.602051
1173.404297	1631.828857
1172.244141	1625.086182
1171.083984	1598.951294
1169.923828	1583.598145
1168.761719	1589.791992
1167.601563	1682.136597
1166.441406	1632.321533
1165.279297	1688.025024
1164.119141	1655.447510
1162.957031	1676.690186
1161.794922	1753.877441
1160.632813	1686.879150
1159.470703	1742.525757
1158.308594	1697.061035
1157.146484	1703.224609
1155.984375	1713.686279
1154.820313	1762.840820
1153.658203	1661.517822
1152.494141	1740.751465
1151.330078	1703.927856
1150.167969	1772.385620
1149.003906	1739.864868
1147.839844	1791.112183
1146.675781	1784.366333
1145.509766	1794.797607
1144.345703	1824.544189
1143.181641	1843.549683
1142.015625	1856.111328
1140.849609	1864.377686
1139.685547	1887.656738
1138.519531	1857.310303
1137.353516	1917.036133
1136.187500	1970.309692
1135.021484	1929.246460
1133.855469	1939.634888
1132.687500	1967.162720
1131.521484	1947.545776
1130.353516	1891.518921
1129.187500	1897.622925
1128.019531	1901.583252
1126.851563	2096.096436
1125.683594	2067.911133
1124.515625	2039.735352
1123.347656	2011.569092
1122.179688	2146.022217
1121.009766	2190.581543
1119.841797	2070.432129
1118.671875	2093.603760
1117.503906	1986.340332
1116.333984	2161.301025
1115.164063	2096.810791
1113.994141	2124.236084
1112.824219	2143.105225
1111.654297	2243.148438
1110.484375	2328.205811
1109.312500	2287.233398
1108.142578	2237.733643
1106.970703	2169.037109
1105.800781	2245.510742
1104.628906	2328.360840
1103.457031	2306.626953
1102.285156	2312.634766
1101.113281	2529.813965
1099.941406	2467.535156
1098.769531	2503.365234
1097.595703	2485.883545
1096.423828	2613.357422
1095.250000	2604.387695
1094.076172	2640.169678
1092.904297	2577.935303
1091.730469	2647.791992
1090.556641	2619.654053
1089.382813	2708.644531
1088.207031	2774.184814
1087.033203	2743.910645
1085.859375	2707.261719
1084.683594	2798.304443
1083.509766	2855.274170
1082.333984	2876.060791
1081.158203	2905.347656
1079.982422	2968.649414
1078.806641	2902.232422
1077.630859	2971.890381
1076.455078	3016.018799
1075.279297	2964.503174
1074.101563	3165.847656
1072.925781	3037.846680
1071.748047	3043.701416
1070.570313	3100.521484
1069.392578	3074.513916
1068.214844	3122.817627
1067.037109	3207.188232
1065.859375	3170.564453
1064.681641	3201.852051
1063.503906	3146.148193
1062.324219	3264.394775
1061.146484	3289.287842
1059.966797	3375.663330
1058.787109	3360.248047
1057.607422	3382.991943
1056.427734	3356.983887
1055.248047	3278.010986
1054.068359	3396.093262
1052.888672	3357.386475
1051.707031	3339.871338
1050.527344	3368.947266
1049.345703	3309.093262
1048.166016	3314.879639
1046.984375	3437.067139
1045.802734	3313.749756
1044.621094	3431.664063
1043.439453	3433.194336
1042.257813	3532.013184
1041.074219	3497.577148
1039.892578	3416.639160
1038.708984	3477.359619
1037.527344	3352.068115
1036.343750	3520.550781
1035.160156	3407.971191
1033.976563	3415.839844
1032.792969	3440.602539
1031.609375	3444.239258
1030.425781	3471.099854
1029.242188	3481.062988
1028.056641	3387.600586
1026.873047	3505.199219
1025.687500	3405.434326
1024.501953	3373.209961
1023.316406	3347.323975
1022.130859	3272.943115
1020.945313	3320.880127
1019.759766	3326.637939
1018.574219	3334.501465
1017.386719	3384.510498
1016.201172	3305.971924
1015.013672	3377.035645
1013.828125	3363.821289
1012.640625	3264.266357
1011.453125	3227.913818
1010.265625	3252.625977
1009.078125	3178.399414
1007.890625	3226.261230
1006.701172	3242.544189
1005.513672	3153.630127
1004.324219	3079.470459
1003.136719	3213.543457
1001.947266	3122.576904
1000.757813	3201.934570
999.568359	3100.490479
998.378906	3097.859619
997.189453	3095.229248
996.000000	3056.883545
994.808594	3134.083496
993.619141	3011.734863
992.427734	3051.118164
991.238281	3056.895752
990.046875	2961.911377
988.855469	3072.642090
987.664063	2969.293701
986.472656	2949.903564
985.281250	2964.083740
984.089844	2793.690918
982.896484	2864.511963
981.705078	2796.929688
980.511719	2800.644531
979.318359	2837.892822
978.126953	2803.878662
976.933594	2751.019287
975.740234	2855.292236
974.546875	2938.584229
973.351563	2808.245117
972.158203	2820.328125
970.964844	2861.714600
969.769531	2808.898682
968.574219	2735.173828
967.380859	2839.323975
966.185547	2815.826660
964.990234	2800.703857
963.794922	2783.494873
962.599609	2745.382324
961.402344	2784.633789
960.207031	2704.729736
959.009766	2781.591797
957.814453	2751.863281
956.617188	2663.648926
955.419922	2571.287109
954.222656	2654.384277
953.025391	2678.987305
951.828125	2636.774902
950.630859	2717.730713
949.433594	2633.786133
948.234375	2631.249023
947.037109	2672.524414
945.837891	2676.239014
944.638672	2615.299805
943.441406	2598.170898
942.242188	2480.974609
941.042969	2576.437012
939.841797	2498.883057
938.642578	2685.995850
937.443359	2529.279297
936.242188	2439.274414
935.042969	2511.751953
933.841797	2627.934082
932.640625	2548.368408
931.439453	2535.442383
930.238281	2564.146484
929.037109	2630.297363
927.835938	2455.078857
926.634766	2471.300293
925.431641	2551.991943
924.230469	2536.998535
923.027344	2440.923340
921.824219	2428.032471
920.623047	2600.127197
919.419922	2483.309326
918.216797	2443.407471
917.011719	2382.745117
915.808594	2340.796875
914.605469	2323.782715
913.400391	2273.553467
912.197266	2403.948730
910.992188	2357.874023
909.787109	2419.727295
908.582031	2332.167725
907.376953	2317.246582
906.171875	2310.627197
904.966797	2353.781494
903.761719	2374.112793
902.554688	2367.486816
901.349609	2221.988525
900.142578	2246.476563
898.935547	2101.048828
897.728516	2187.699463
896.521484	2218.394531
895.314453	2215.943359
894.107422	2155.515625
892.900391	2136.513916
891.693359	2045.071655
890.484375	2127.503418
889.275391	2178.868652
888.068359	2093.672363
886.859375	2091.245117
885.650391	2237.724365
884.441406	2119.477051
883.232422	2133.585693
882.023438	2124.951660
880.812500	2101.853271
879.603516	2118.023926
878.392578	2099.066406
877.183594	2121.428711
875.972656	2112.803711
874.761719	1963.765137
873.550781	2081.110107
872.339844	2055.982422
871.128906	2131.993408
869.916016	2139.881836
868.705078	2114.756592
867.494141	1980.310425
866.281250	2029.469971
865.068359	2047.680786
863.855469	2074.132324
862.642578	2061.407959
861.429688	2044.565918
860.216797	1996.818970
859.003906	1949.088379
857.791016	1977.593750
856.576172	1999.910400
855.363281	1960.440796
854.148438	1968.339966
852.933594	2017.408081
851.718750	1969.722534
850.503906	1963.210815
849.289063	2001.966675
848.074219	1946.079590
846.859375	1906.666016
845.642578	1955.693726
844.427734	1877.225830
843.210938	1913.907104
841.994141	1979.351318
840.777344	1972.846313
839.560547	2114.281494
838.343750	1959.842651
837.126953	1975.937988
835.910156	1901.667725
834.691406	2016.325073
833.474609	1956.443726
832.255859	2001.264404
831.039063	2009.129517
829.820313	2090.859375
828.601563	1940.739136
827.382813	2063.475830
826.164063	2030.308228
824.943359	2056.615479
823.724609	1994.758667
822.505859	1961.619751
821.285156	1975.628540
820.064453	2028.564453
818.845703	2044.605469
817.625000	2105.704590
816.404297	2054.142822
815.183594	2027.170288
813.960938	1981.781372
812.740234	2057.177490
811.519531	2075.243164
810.296875	2130.135010
809.074219	2078.621582
807.853516	2178.495361
806.630859	2045.183960
805.408203	2016.204712
804.185547	2116.037598
802.962891	2058.437988
801.738281	2137.791504
800.515625	2119.032959
799.291016	2110.496338
798.068359	2101.962402
796.843750	2066.880615
795.619141	2080.819092
794.394531	2064.127930
793.169922	2186.251953
791.945313	2067.499756
790.720703	2181.418457
789.496094	2205.526367
788.269531	2162.308838
787.042969	2108.908203
785.818359	2135.054932
784.591797	2144.881836
783.365234	2224.014648
782.138672	2188.983398
780.912109	2194.719971
779.685547	2180.080078
778.457031	2255.077881
777.230469	2185.439941
776.001953	2223.755615
774.775391	2215.228516
773.546875	2237.239990
772.318359	2181.900146
771.089844	2128.614502
769.861328	2209.634277
768.632813	2146.190430
767.402344	2160.058594
766.173828	2202.392334
764.943359	2212.179199
763.714844	2185.370605
762.484375	2180.929199
761.253906	2223.229736
760.023438	2235.038086
758.792969	2222.464111
757.562500	2228.174805
756.332031	2233.883301
755.099609	2215.224365
753.869141	2265.595459
752.636719	2255.056396
751.404297	2307.432373
750.173828	2233.988770
748.941406	2288.378906
747.708984	2312.324951
746.474609	2249.058350
745.242188	2362.219482
744.009766	2268.556152
742.775391	2405.998535
741.542969	2369.104736
740.308594	2320.066162
739.074219	2378.417725
737.839844	2282.806396
736.605469	2367.471924
735.371094	2494.630127
734.136719	2388.925293
732.900391	2467.455811
731.666016	2442.744629
730.429688	2494.933594
729.195313	2547.104492
727.958984	2449.572510
726.722656	2485.553467
725.486328	2414.352539
724.250000	2460.435791
723.013672	2498.417480
721.775391	2564.680420
720.539063	2550.093262
719.300781	2555.714355
718.064453	2609.812988
716.826172	2514.440186
715.587891	2576.604248
714.349609	2677.106201
713.111328	2612.049805
711.873047	2631.781494
710.632813	2659.577881
709.394531	2729.732910
708.154297	2719.175781
706.916016	2664.251709
705.675781	2768.649902
704.435547	2752.042725
703.195313	2757.615234
701.955078	2690.629395
700.714844	2651.877930
699.472656	2715.892334
698.232422	2779.884766
696.990234	2773.362549
695.750000	2768.856445
694.507813	2826.765869
693.265625	2910.824707
692.023438	2801.637939
690.781250	2835.363525
689.539063	2899.257324
688.296875	2860.535645
687.052734	2888.199463
685.810547	2847.482178
684.566406	2881.170410
683.322266	2890.723877
682.080078	2964.590576
680.835938	3024.364746
679.589844	2953.520508
678.345703	2955.019043
677.101563	2998.695801
675.857422	3034.324463
674.611328	3037.815918
673.365234	3117.589355
672.121094	3020.709229
670.875000	3072.363281
669.628906	3186.198242
668.382813	3081.331787
667.136719	3116.902344
665.888672	3094.304443
664.642578	3165.950928
663.396484	3181.441406
662.148438	3112.743652
660.900391	3184.349609
659.652344	3185.802734
658.404297	3241.344482
657.156250	3158.662842
655.908203	3112.056641
654.660156	3195.613770
653.412109	3227.091797
652.162109	3294.587158
650.912109	3201.961182
649.664063	3175.395996
648.414063	3152.841064
647.164063	3272.306885
645.914063	3201.746582
644.664063	3227.186035
643.412109	3274.607422
642.162109	3164.106934
640.912109	3291.460938
639.660156	3290.891357
638.408203	3304.306396
637.156250	3271.775879
635.906250	3339.110596
634.652344	3310.578613
633.400391	3357.918945
632.148438	3379.294189
630.896484	3290.898926
629.642578	3228.473633
628.390625	3241.879883
627.136719	3412.859375
625.882813	3298.592773
624.628906	3357.840820
623.375000	3454.947021
622.121094	3312.826172
620.867188	3366.062012
619.611328	3339.575439
618.357422	3301.144775
617.101563	3457.933105
615.845703	3298.010010
614.591797	3508.507080
613.335938	3408.356445
612.080078	3445.585938
610.822266	3325.578857
609.566406	3480.209473
608.310547	3463.690918
607.052734	3373.579590
605.796875	3482.378906
604.539063	3615.001953
603.281250	3584.553955
602.023438	3488.520508
600.765625	3607.161133
599.507813	3529.040283
598.250000	3669.486572
596.990234	3641.041260
595.732422	3678.145264
594.472656	3657.650879
593.212891	3615.324707
591.955078	3698.068359
590.695313	3683.534668
589.435547	3653.131592
588.173828	3743.761230
586.914063	3743.112305
585.654297	3651.232178
584.392578	3721.985107
583.132813	3842.278564
581.871094	3817.825195
580.609375	3805.271973
579.347656	3862.077637
578.085938	3805.933594
576.824219	3836.967773
575.562500	3832.341309
574.298828	3920.785400
573.037109	3987.420410
571.773438	3903.589600
570.509766	3968.224854
569.248047	3939.833008
567.984375	3913.429443
566.718750	3918.685059
565.455078	3997.116943
564.191406	4018.175293
562.927734	3890.943359
561.662109	4105.735352
560.396484	4022.013428
559.132813	4021.315674
557.867188	4004.811768
556.601563	3992.264648
555.335938	4082.423828
554.070313	4046.170654
552.802734	4100.750488
551.537109	4038.844238
550.269531	4101.300781
549.003906	4207.148926
547.736328	4168.931641
546.468750	4189.907227
545.201172	4299.628906
543.933594	4188.452637
542.666016	4256.731934
541.396484	4303.303711
540.128906	4326.207520
538.859375	4431.868652
537.591797	4462.623047
536.322266	4432.299316
535.052734	4465.012207
533.783203	4483.928711
532.513672	4451.647949
531.244141	4502.056641
529.972656	4601.652832
528.703125	4533.946289
527.431641	4580.378906
526.162109	4699.581055
524.890625	4804.973633
523.619141	4876.898926
522.347656	4856.389648
521.076172	4886.999023
519.804688	4791.807129
518.531250	4794.904785
517.259766	4909.993652
515.986328	5046.651367
514.712891	4949.533203
513.441406	5074.353516
512.167969	5008.678711
510.894531	5115.776855
509.621094	5179.658203
508.345703	5129.697754
507.072266	5099.375000
505.796875	5169.109863
504.523438	5174.095215
503.248047	5249.675781
501.972656	5225.234863
500.697266	5238.048340
499.421875	5209.697266
498.146484	5255.823242
496.871094	5309.770020
495.593750	5244.200195
494.318359	5209.991211
493.041016	5307.000000
491.765625	5290.413086
490.488281	5307.111328
489.210938	5169.178223
487.933594	5185.891602
486.654297	5382.605469
485.376953	5203.649414
484.099609	5218.391113
482.820313	5094.281738
481.541016	5236.127441
480.263672	5121.832520
478.984375	5433.669922
477.705078	5428.815918
476.425781	5470.856445
475.146484	5383.948242
473.865234	5158.393555
472.585938	5059.852539
471.304688	5117.547363
470.023438	5071.756348
468.744141	4986.944336
467.462891	4964.609375
466.181641	4938.379883
464.900391	4972.634766
463.617188	4911.303711
462.335938	4820.742188
461.054688	4860.848145
459.771484	4846.355469
458.488281	4857.206055
457.205078	4940.157715
455.921875	4863.307617
454.638672	4802.069336
453.355469	4851.874512
452.072266	4819.870605
450.789063	4717.782715
449.503906	4744.214844
448.218750	4827.083496
446.935547	4857.379395
445.650391	4922.687988
444.365234	4822.615234
443.080078	4812.049316
441.794922	4852.049805
440.507813	4771.484863
439.222656	4809.533691
437.935547	4756.215820
436.650391	4718.462891
435.363281	4684.608887
434.076172	4794.524902
432.789063	4679.090820
431.501953	4666.623047
430.214844	4586.201172
428.925781	4589.284180
427.638672	4551.605469
426.349609	4612.912109
425.062500	4705.242676
423.773438	4640.402832
422.484375	4530.974121
421.195313	4685.327148
419.906250	4700.021484
418.615234	4565.437500
417.326172	4715.826660
416.037109	4621.982910
414.746094	4628.926758
413.455078	4564.189453
412.164063	4576.951660
410.873047	4609.074707
409.582031	4621.824219
408.291016	4555.196777
407.000000	4531.174805
405.707031	4663.915527
404.416016	4537.333008
403.123047	4685.501953
401.832031	4539.617676
400.539063	4567.833496
399.246094	4487.760742
397.953125	4450.246094
396.658203	4329.631348
395.365234	4384.918945
394.072266	4378.356445
392.777344	4323.500000
391.482422	4372.964844
390.187500	4372.201172
388.894531	4359.852539
387.597656	4415.075684
386.302734	4340.958008
385.007813	4425.112793
383.712891	4391.538086
382.416016	4381.125000
381.121094	4353.356445
379.824219	4300.526855
378.527344	4367.260742
377.230469	4391.559082
375.933594	4359.952148
374.636719	4442.057617
373.337891	4373.843262
372.041016	4240.152344
370.742188	4380.019043
369.445313	4375.401855
368.146484	4361.159180
366.847656	4487.454590
365.548828	4384.656738
364.250000	4466.641602
362.951172	4435.075195
361.650391	4455.461426
360.351563	4462.375977
359.050781	4453.903320
357.751953	4437.742676
356.451172	4379.293945
355.150391	4401.593262
353.849609	4327.796387
352.548828	4315.511230
351.246094	4395.441895
349.945313	4310.160156
348.642578	4418.870117
347.341797	4481.459473
346.039063	4398.126953
344.736328	4437.665039
343.433594	4454.160156
342.130859	4566.586426
340.828125	4494.806641
339.523438	4469.085449
338.220703	4554.601074
336.916016	4553.804199
335.613281	4493.578613
334.308594	4531.126465
333.003906	4526.500977
331.699219	4569.777832
330.394531	4500.012207
329.089844	4573.924316
327.783203	4653.555664
326.478516	4503.393555
325.171875	4404.972168
323.865234	4251.078125
322.558594	4177.613281
321.251953	4328.037598
319.945313	4313.888672
318.638672	4227.062012
317.332031	4276.042969
316.023438	4263.822266
314.716797	4222.929688
313.408203	4239.392578
312.099609	4355.222168
310.791016	4390.762695
309.482422	4198.958008
308.173828	4152.381836
306.865234	4186.028809
305.556641	4210.117188
304.246094	4140.654785
302.935547	4111.299316
301.626953	4143.020996
300.316406	4325.463867
299.005859	4217.875977
297.695313	4192.341309
296.384766	4231.653809
295.072266	4183.245605
293.761719	4169.167969
292.449219	4157.000977
291.138672	4114.347656
289.826172	4172.691895
288.513672	4135.765137
287.201172	4154.086914
285.888672	4218.105957
284.574219	4118.358398
283.261719	4020.549072
281.947266	4187.337402
280.634766	4232.275391
279.320313	4300.029297
278.005859	4221.279297
276.691406	4216.734863
275.376953	4280.651855
274.062500	4158.215820
272.748047	4235.427246
271.431641	4139.651367
270.117188	4188.333496
268.800781	4197.098633
267.484375	4217.258789
266.167969	4115.854004
264.851563	4200.586914
263.535156	4268.201660
262.218750	4164.942871
260.900391	4116.762207
259.583984	4133.118652
258.265625	4168.442383
256.947266	4175.298828
255.630859	4223.879395
254.312500	4160.558594
252.994141	4211.020508
251.673828	4251.985840
250.355469	4245.553711
249.035156	4235.333008
247.716797	4234.589355
246.396484	4252.789063
245.076172	4234.996582
243.755859	4220.997070
242.435547	4214.575684
241.115234	4227.086426
239.794922	4207.417480
238.474609	4354.281250
237.152344	4264.591797
235.830078	4244.925781
234.509766	4238.506348
233.187500	4349.331543
231.865234	4293.737793
230.542969	4379.939453
229.218750	4413.189941
227.896484	4246.122070
226.572266	4224.593262
225.250000	4242.741211
223.925781	4396.868164
222.601563	4405.537109
221.277344	4317.913574
219.953125	4417.202148
218.628906	4305.071777
217.304688	4362.812988
215.978516	4269.597656
214.654297	4291.483398
213.328125	4249.236328
212.001953	4318.260254
210.675781	4249.627441
209.349609	4269.615723
208.023438	4417.756836
206.697266	4409.442383
205.371094	4376.638184
204.042969	4251.543457
202.714844	4363.798340
201.388672	4391.276855
200.060547	4450.751465
198.732422	4427.379883
197.404297	4398.370117
196.076172	4380.660645
194.746094	4470.196777
193.417969	4433.670410
192.087891	4564.541504
190.757813	4516.728516
189.429688	4483.972168
188.099609	4524.537598
186.769531	4553.811523
185.437500	4524.824219
184.107422	4612.329102
182.777344	4534.501953
181.445313	4636.998535
180.113281	4658.715332
178.783203	4699.198730
177.451172	4683.354492
176.119141	4729.449219
174.787109	4657.312012
173.453125	4684.633301
172.121094	4704.441895
170.787109	4615.467773
169.455078	4674.658691
168.121094	4655.087402
166.787109	4562.419434
165.453125	4647.825195
164.119141	4688.229980
162.785156	4799.812012
161.451172	4714.675781
160.115234	4738.191406
158.779297	4641.860352
157.445313	4725.289063
156.109375	4640.225098
154.773438	4738.596191
153.437500	4778.926270
152.101563	4684.542969
150.763672	4678.105957
149.427734	4664.190430
148.089844	4734.421875
146.753906	4793.411621
145.416016	4874.810547
144.078125	4860.869141
142.740234	4902.988281
141.402344	5111.360840
140.064453	4938.616699
138.724609	4973.229004
137.386719	5084.384277
136.046875	4964.007813
134.707031	5063.925781
133.367188	5230.991699
132.027344	5159.165527
130.687500	5216.087891
129.347656	5231.955078
128.007813	5113.543457
126.666016	5289.775391
125.326172	5313.077637
123.984375	5293.500977
122.642578	5391.336914
121.300781	5405.291504
119.958984	5212.457031
118.617188	5360.544922
117.273438	5303.730957
115.931641	5434.992188
114.587891	5465.680664
113.246094	5425.628906
111.902344	5534.467773
110.558594	5317.658691
109.214844	5495.308105
107.871094	5557.576660
106.525391	5679.332031
105.181641	5603.957031
103.835938	5426.364258
102.492188	5540.642578
101.146484	5591.697266
