#Wave		#Intensity
4002.533203	5274.300293
4001.835938	5105.895508
4001.137695	5187.472168
4000.439453	5286.932617
3999.742188	5375.616211
3999.043945	5220.778809
3998.345703	5273.642578
3997.646484	5236.998535
3996.948242	5225.419434
3996.250000	5231.736328
3995.550781	5148.604004
3994.852539	5097.693848
3994.153320	5236.367676
3993.454102	5314.201660
3992.754883	5327.649902
3992.055664	5183.792480
3991.356445	5268.746582
3990.657227	5139.239746
3989.957031	5174.146973
3989.257813	5309.079102
3988.557617	5190.344727
3987.857422	5171.652344
3987.157227	5202.960449
3986.457031	5134.286133
3985.756836	5187.008789
3985.056641	5082.665527
3984.356445	5263.853027
3983.655273	5138.122559
3982.955078	5258.593750
3982.253906	5143.604980
3981.552734	5082.149414
3980.851563	5181.176270
3980.150391	5137.560547
3979.449219	5197.334961
3978.748047	5260.653809
3978.045898	5085.194336
3977.344727	5184.140625
3976.642578	5065.748047
3975.940430	5157.541992
3975.239258	5153.151855
3974.537109	4967.167480
3973.834961	5172.856445
3973.131836	5200.501953
3972.429688	5192.548340
3971.727539	5213.064453
3971.024414	5383.002930
3970.321289	5161.587402
3969.619141	5071.840820
3968.916016	5035.464844
3968.212891	5215.988770
3967.509766	5090.726563
3966.805664	5224.976074
3966.102539	5092.644531
3965.399414	5177.104980
3964.695313	5176.272949
3963.991211	5196.753906
3963.288086	5195.919434
3962.583984	5262.553223
3961.879883	5155.195313
3961.174805	5182.765625
3960.470703	5029.314453
3959.766602	5088.834473
3959.061523	5091.565430
3958.357422	5186.531250
3957.652344	5249.543945
3956.947266	5195.504395
3956.242188	5038.652344
3955.537109	5215.106934
3954.832031	5111.472656
3954.125977	5046.856934
3953.420898	5049.589844
3952.714844	5165.697754
3952.009766	5055.052734
3951.303711	5295.087402
3950.597656	5071.135254
3949.891602	5059.698730
3949.185547	4977.462402
3948.479492	5004.979492
3947.772461	5021.870605
3947.066406	5052.910156
3946.359375	5122.855957
3945.653320	5150.332031
3944.946289	5061.085938
3944.239258	5265.371582
3943.532227	5215.027344
3942.825195	5058.647949
3942.117188	5124.990234
3941.410156	4919.200684
3940.702148	5070.344238
3939.995117	4970.612305
3939.287109	5082.844727
3938.579102	4972.547363
3937.871094	5084.743164
3937.163086	5140.414551
3936.455078	4998.391602
3935.746094	5068.176270
3935.038086	4986.199707
3934.329102	5119.472168
3933.621094	4928.155762
3932.912109	5064.921387
3932.203125	4986.524414
3931.494141	4925.782227
3930.785156	5178.820313
3930.075195	5089.867676
3929.366211	5011.516113
3928.657227	4996.616699
3927.947266	4964.105957
3927.237305	5128.870117
3926.527344	5145.656738
3925.817383	5007.494141
3925.107422	5027.814941
3924.397461	5041.088867
3923.687500	5022.681152
3922.976563	5127.449707
3922.266602	5066.810059
3921.555664	5048.406250
3920.844727	5068.700684
3920.133789	5113.606934
3919.422852	5045.975098
3918.711914	5013.522949
3918.000977	5079.507324
3917.290039	4786.974121
3916.578125	4975.967285
3915.866211	5041.925781
3915.155273	5086.784668
3914.443359	5085.968262
3913.731445	4944.677734
3913.019531	4905.259766
3912.307617	5030.857910
3911.594727	4980.908203
3910.882813	4962.560547
3910.169922	4881.056641
3909.458008	4999.560547
3908.745117	4865.457520
3908.032227	4938.330566
3907.319336	5123.396973
3906.606445	5031.413086
3905.893555	4914.918945
3905.179688	4914.129883
3904.466797	5043.008301
3903.752930	4870.504883
3903.039063	4883.736816
3902.326172	5054.591797
3901.612305	5186.866699
3900.898438	5021.453613
3900.183594	4978.633789
3899.469727	4907.822754
3898.755859	4977.035645
3898.041016	4790.765137
3897.326172	5020.923828
3896.612305	4953.649414
3895.897461	4865.409668
3895.182617	4892.606445
3894.467773	5014.204102
3893.751953	4912.012695
3893.037109	4900.737793
3892.322266	5106.154297
3891.606445	4986.524902
3890.890625	5010.181641
3890.174805	4929.031738
3889.458984	4875.849609
3888.743164	5070.628418
3888.027344	4975.541016
3887.311523	4880.484375
3886.594727	4872.720215
3885.878906	4941.736816
3885.162109	4846.730469
3884.445313	4947.128418
3883.729492	4838.198730
3883.012695	5067.609375
3882.294922	4983.104980
3881.578125	5024.144043
3880.861328	4974.533691
3880.143555	4827.346680
3879.426758	4969.452637
3878.708984	4951.233398
3877.991211	5044.500488
3877.273438	4984.476563
3876.555664	4802.578613
3875.837891	4902.788574
3875.120117	4929.854004
3874.401367	4942.986816
3873.683594	5081.410645
3872.964844	4944.880371
3872.246094	4978.879883
3871.527344	4765.877930
3870.808594	4872.936523
3870.089844	4941.707520
3869.371094	4833.125488
3868.652344	4703.718750
3867.932617	5022.751953
3867.213867	4976.765625
3866.494141	4732.728516
3865.774414	4902.208984
3865.054688	4724.262207
3864.334961	4935.367188
3863.615234	4938.048340
3862.894531	5062.249512
3862.174805	4884.391113
3861.454102	4959.968262
3860.734375	4823.827637
3860.013672	4843.872559
3859.292969	4947.173340
3858.572266	4863.130371
3857.851563	4907.436035
3857.130859	4913.583984
3856.409180	4871.191406
3855.688477	4932.806152
3854.966797	4848.832520
3854.245117	4910.431641
3853.523438	4823.023438
3852.802734	4974.676758
3852.080078	4953.096680
3851.358398	5049.270020
3850.636719	5044.997559
3849.914063	4846.852051
3849.192383	4911.842285
3848.469727	4862.601563
3847.747070	4671.500977
3847.024414	4757.247070
3846.301758	4766.861816
3845.579102	4883.692871
3844.856445	4855.244141
3844.133789	4958.193359
3843.410156	4881.342773
3842.686523	4686.996582
3841.963867	4876.320801
3841.240234	4882.449707
3840.516602	4736.563477
3839.792969	4877.428711
3839.068359	4669.423340
3838.344727	4834.426270
3837.621094	4888.892578
3836.896484	4829.423340
3836.171875	4932.193848
3835.448242	4727.796875
3834.723633	4978.916992
3833.999023	4940.169922
3833.273438	4801.406250
3832.548828	4890.303223
3831.824219	4944.689453
3831.098633	4743.934082
3830.373047	4760.408691
3829.648438	4756.198242
3828.922852	4796.787109
3828.197266	4823.581055
3827.471680	4871.035156
3826.745117	4904.697266
3826.019531	4990.004395
3825.292969	5006.419922
3824.567383	4809.385742
3823.840820	4863.687988
3823.114258	5069.400879
3822.387695	4758.897949
3821.661133	4778.777344
3820.934570	4808.970215
3820.208008	4794.441406
3819.480469	4862.448242
3818.753906	4999.197754
3818.026367	4867.764160
3817.298828	4846.360352
3816.571289	4797.471191
3815.843750	4782.957520
3815.116211	4716.916504
3814.388672	4719.594727
3813.660156	4921.466309
3812.932617	4721.514648
3812.204102	4844.355469
3811.475586	4850.444336
3810.748047	4770.726074
3810.019531	4742.508301
3809.290039	4899.577148
3808.561523	4713.542969
3807.833008	4884.285645
3807.103516	4742.895996
3806.375000	4786.710938
3805.645508	4710.520020
3804.916016	4750.897949
3804.186523	4962.624023
3803.457031	4821.334473
3802.727539	4847.970215
3801.998047	4809.511230
3801.267578	4880.666016
3800.538086	4944.948242
3799.807617	4848.285156
3799.077148	4768.770020
3798.346680	4911.764160
3797.616211	4774.084961
3796.885742	4906.767090
3796.155273	4994.931152
3795.423828	4840.201660
3794.693359	4894.146973
3793.961914	4773.678223
3793.230469	4834.454590
3792.500000	4775.565918
3791.768555	4911.515625
3791.036133	4811.625000
3790.304688	4851.855469
3789.573242	4915.985840
3788.840820	4761.491211
3788.109375	4825.615723
3787.376953	4705.330566
3786.644531	4847.966797
3785.912109	4912.045898
3785.179688	4836.173340
3784.447266	4948.007324
3783.714844	4838.034180
3782.981445	4932.775391
3782.249023	4935.395508
3781.515625	4794.784668
3780.782227	4862.209473
3780.048828	4994.386230
3779.315430	4768.618652
3778.582031	4870.095215
3777.848633	4855.684570
3777.114258	4912.824219
3776.380859	4997.196289
3775.646484	4802.261230
3774.912109	4917.271973
3774.177734	4926.697754
3773.443359	4881.652832
3772.708984	4931.925293
3771.974609	4890.297363
3771.240234	4777.228027
3770.504883	5000.996582
3769.770508	4833.521484
3769.035156	4815.741699
3768.299805	4927.183105
3767.564453	4749.600586
3766.829102	4983.391602
3766.093750	4799.059082
3765.357422	4839.068359
3764.622070	4950.416016
3763.885742	4776.368652
3763.150391	4850.327637
3762.414063	4805.401367
3761.677734	4848.772461
3760.941406	5017.743164
3760.205078	4962.627930
3759.467773	5039.891113
3758.731445	4957.643555
3757.994141	4878.814941
3757.257813	4901.778320
3756.520508	4880.642578
3755.783203	4869.686523
3755.045898	4967.233398
3754.308594	4949.486816
3753.571289	4969.030273
3752.833008	4910.621094
3752.095703	4977.602539
3751.357422	4939.538086
3750.619141	4901.485352
3749.880859	5063.266113
3749.142578	4801.712402
3748.404297	4922.828613
3747.666016	4935.580078
3746.927734	4972.019531
3746.188477	4842.627441
3745.450195	4879.069824
3744.710938	4925.649902
3743.971680	4962.067383
3743.232422	4995.090820
3742.493164	4923.281250
3741.753906	4956.300781
3741.013672	4962.266602
3740.274414	4958.091309
3739.534180	4866.058105
3738.794922	4905.821777
3738.054688	4878.010742
3737.314453	5090.016113
3736.574219	5004.774414
3735.833984	4919.559570
3735.092773	5040.305664
3734.352539	4874.102051
3733.611328	4940.818359
3732.871094	5162.732422
3732.129883	5040.448242
3731.388672	4995.788086
3730.647461	5079.305176
3729.906250	5021.164063
3729.165039	4949.554688
3728.422852	5201.593262
3727.681641	4961.450684
3726.939453	4879.774902
3726.197266	5067.683105
3725.455078	5083.715332
3724.712891	5177.215332
3723.970703	5169.649902
3723.228516	5054.333008
3722.486328	5036.688965
3721.743164	5204.192871
3721.000977	5109.119629
3720.257813	5074.648926
3719.514648	5154.586426
3718.771484	5062.930176
3718.028320	4971.303223
3717.285156	5142.019043
3716.541016	5036.958984
3715.797852	5153.818359
3715.053711	5116.017578
3714.310547	5202.579102
3713.566406	5272.311523
3712.822266	5096.758789
3712.078125	5250.466309
3711.333008	5370.537598
3710.588867	5242.066895
3709.844727	5237.869141
3709.099609	5324.313477
3708.354492	5387.234375
3707.610352	5248.774902
3706.865234	5308.332031
3706.120117	5304.126465
3705.374023	5420.679688
3704.628906	5413.103027
3703.883789	5402.175293
3703.137695	5431.484375
3702.391602	5353.512695
3701.646484	5476.667480
3700.900391	5438.926758
3700.154297	5471.561523
3699.408203	5403.682617
3698.661133	5412.865234
3697.915039	5444.903320
3697.167969	5476.941895
3696.421875	5508.980469
3695.674805	5541.018555
3694.927734	5573.056641
3694.180664	5605.095215
3693.433594	5637.654785
3692.686523	5663.513672
3691.938477	5592.366699
3691.191406	5768.711914
3690.443359	5784.505859
3689.695313	5740.118164
3688.947266	5588.782227
3688.199219	5648.043457
3687.451172	5660.504395
3686.703125	5856.713867
3685.955078	5768.924316
3685.206055	6071.930176
3684.458008	5847.219727
3683.708984	6003.207520
3682.959961	5972.200684
3682.210938	5904.488770
3681.461914	6047.042969
3680.712891	6076.104004
3679.962891	6098.482910
3679.213867	6200.909668
3678.463867	6083.187988
3677.714844	6268.947754
3676.964844	6064.568359
3676.214844	6120.265625
3675.464844	6412.583984
3674.713867	6274.927246
3673.963867	6317.236328
3673.213867	6439.483398
3672.462891	6465.097656
3671.711914	6324.189941
3670.961914	6502.982422
3670.210938	6485.294434
3669.459961	6557.485840
3668.708008	6583.060059
3667.957031	6695.143555
3667.206055	6640.837402
3666.454102	6846.018555
3665.702148	6788.379395
3664.950195	6953.565430
3664.199219	6962.425781
3663.446289	7024.473633
3662.694336	6920.308105
3661.942383	6939.138672
3661.190430	7021.097168
3660.437500	7215.986328
3659.684570	7148.395020
3658.932617	7117.358398
3658.179688	7215.838379
3657.426758	7115.077637
3656.672852	7276.598633
3655.919922	7540.958984
3655.166992	7410.327148
3654.413086	7422.411621
3653.659180	7421.222168
3652.906250	7698.657227
3652.152344	7634.411133
3651.398438	7785.719238
3650.644531	7678.379883
3649.889648	7803.112793
3649.135742	7911.234375
3648.380859	7883.456055
3647.626953	7905.385742
3646.872070	8086.317383
3646.117188	8164.514160
3645.362305	8057.232910
3644.607422	8155.275391
3643.851563	8004.992188
3643.096680	8248.653320
3642.341797	8416.117188
3641.585938	8497.493164
3640.830078	8588.768555
3640.074219	8600.624023
3639.318359	8523.174805
3638.562500	8640.856445
3637.806641	8808.095703
3637.049805	8819.907227
3636.293945	8831.714844
3635.537109	8711.328125
3634.780273	8799.146484
3634.024414	9154.535156
3633.267578	9186.099609
3632.509766	9118.575195
3631.752930	9282.218750
3630.996094	9234.509766
3630.238281	9242.932617
3629.481445	9297.560547
3628.723633	9332.370117
3627.965820	9274.784180
3627.208008	9471.233398
3626.450195	9397.151367
3625.692383	9557.241211
3624.933594	9624.954102
3624.175781	9758.581055
3623.416992	9473.536133
3622.658203	9692.833984
3621.899414	9737.414063
3621.140625	9936.831055
3620.381836	9922.061523
3619.623047	9857.892578
3618.864258	9833.260742
3618.104492	10039.118164
3617.345703	9820.233398
3616.585938	10075.399414
3615.826172	9817.085938
3615.066406	10016.232422
3614.306641	10212.024414
3613.546875	10170.915039
3612.786133	9988.395508
3612.026367	10062.427734
3611.265625	10231.783203
3610.504883	10078.926758
3609.744141	10189.062500
3608.983398	10568.636719
3608.222656	10284.369141
3607.461914	10423.985352
3606.701172	10471.585938
3605.939453	10804.891602
3605.178711	10642.262695
3604.416992	10676.670898
3603.655273	10533.809570
3602.893555	10571.505859
3602.131836	10527.151367
3601.370117	10755.134766
3600.607422	10671.399414
3599.845703	11037.044922
3599.083008	10815.553711
3598.320313	10777.752930
3597.557617	10520.312500
3596.794922	10816.911133
3596.032227	10752.908203
3595.269531	10829.828125
3594.506836	10936.209961
3593.743164	10878.769531
3592.980469	10945.806641
3592.216797	10813.064453
3591.453125	10798.234375
3590.689453	10861.977539
3589.925781	10820.958984
3589.162109	11058.125000
3588.397461	11128.338867
3587.633789	10910.632813
3586.869141	10791.126953
3586.104492	10864.620117
3585.339844	11114.666992
3584.575195	11168.466797
3583.810547	10937.851563
3583.045898	10864.194336
3582.281250	11228.456055
3581.515625	11063.289063
3580.750977	10917.774414
3579.985352	11033.612305
3579.219727	11087.363281
3578.454102	10755.793945
3577.688477	11171.958008
3576.921875	11108.147461
3576.156250	11233.651367
3575.390625	11176.376953
3574.624023	11004.927734
3573.857422	11042.310547
3573.090820	10975.308594
3572.324219	11257.263672
3571.557617	11030.481445
3570.791016	11061.313477
3570.023438	11173.624023
3569.256836	10885.041992
3568.489258	11013.636719
3567.722656	11037.935547
3566.955078	11186.007813
3566.187500	11180.958984
3565.418945	11133.577148
3564.651367	10959.232422
3563.883789	11113.732422
3563.115234	11203.086914
3562.347656	11113.424805
3561.579102	11173.465820
3560.810547	11106.610352
3560.041992	11023.511719
3559.273438	10972.961914
3558.503906	11127.285156
3557.735352	11206.781250
3556.966797	11061.956055
3556.197266	10946.429688
3555.427734	10921.927734
3554.658203	11046.891602
3553.888672	10924.924805
3553.119141	11027.111328
3552.349609	10996.116211
3551.579102	10942.402344
3550.809570	10953.634766
3550.039063	11023.290039
3549.268555	11047.487305
3548.498047	10977.573242
3547.727539	10966.081055
3546.957031	10879.982422
3546.186523	10975.540039
3545.415039	10986.751953
3544.644531	11049.837891
3543.873047	10963.780273
3543.101563	10799.958984
3542.330078	10979.710938
3541.558594	11088.119141
3540.787109	10801.246094
3540.015625	11035.977539
3539.243164	11001.822266
3538.471680	10976.490234
3537.699219	10951.158203
3536.926758	10925.826172
3536.154297	10900.494141
3535.381836	10875.162109
3534.609375	10849.830078
3533.836914	10824.498047
3533.063477	10984.490234
3532.291016	10879.241211
3531.517578	10971.268555
3530.744141	10804.627930
3529.970703	10861.081055
3529.197266	10713.902344
3528.423828	10573.234375
3527.649414	10897.861328
3526.875977	10757.208008
3526.101563	10771.633789
3525.328125	10821.577148
3524.553711	10732.664063
3523.779297	10666.376953
3523.004883	10519.416992
3522.229492	10879.186523
3521.455078	10509.591797
3520.680664	10778.912109
3519.905273	10602.995117
3519.129883	10485.187500
3518.354492	10635.068359
3517.579102	10607.570313
3516.803711	10364.094727
3516.028320	10597.723633
3515.252930	10538.018555
3514.476563	10539.551758
3513.700195	10486.316406
3512.924805	10484.635742
3512.148438	10431.425781
3511.372070	10703.458984
3510.595703	10321.837891
3509.818359	10255.802734
3509.041992	10447.269531
3508.264648	10616.148438
3507.488281	10315.221680
3506.710938	10464.765625
3505.933594	10292.617188
3505.156250	10483.922852
3504.378906	10424.365234
3503.601563	10326.248047
3502.823242	10314.949219
3502.045898	10094.752930
3501.267578	10202.388672
3500.489258	10483.483398
3499.710938	10125.235352
3498.932617	10390.192383
3498.154297	10173.370117
3497.375977	10271.274414
3496.596680	10109.114258
3495.818359	10149.220703
3495.039063	10301.637695
3494.259766	10101.045898
3493.480469	10298.334961
3492.701172	10107.430664
3491.921875	10051.289063
3491.142578	9905.377930
3490.362305	10028.830078
3489.582031	10068.895508
3488.802734	10057.666016
3488.022461	10273.967773
3487.242188	10048.034180
3486.461914	9857.412109
3485.681641	10025.594727
3484.900391	10251.369141
3484.120117	9881.491211
3483.338867	9963.147461
3482.557617	10067.183594
3481.777344	9956.752930
3480.996094	10022.356445
3480.213867	9934.364258
3479.432617	9875.190430
3478.651367	9889.599609
3477.869141	9923.191406
3477.087891	9835.270508
3476.305664	9827.300781
3475.523438	9899.242188
3474.741211	9744.252930
3473.958984	9864.115234
3473.175781	9674.037109
3472.393555	9749.150391
3471.610352	9814.658203
3470.828125	9838.631836
3470.044922	9792.355469
3469.261719	9631.170898
3468.478516	9706.229492
3467.695313	9599.361328
3466.911133	9763.742188
3466.127930	9669.660156
3465.343750	9808.458984
3464.560547	9558.125977
3463.776367	9690.520508
3462.992188	9529.556641
3462.208008	9435.584961
3461.423828	9567.934570
3460.638672	9410.253906
3459.854492	9545.750000
3459.069336	9563.333984
3458.285156	9552.245117
3457.500000	9547.529297
3456.714844	9498.237305
3455.929688	9238.841797
3455.143555	9409.248047
3454.358398	9662.346680
3453.572266	9374.410156
3452.787109	9452.447266
3452.000977	9380.948242
3451.214844	9268.125000
3450.428711	9489.242188
3449.642578	9595.825195
3448.856445	9120.612305
3448.069336	9328.931641
3447.283203	9317.902344
3446.496094	9281.456055
3445.708984	9076.640625
3444.921875	9221.303711
3444.134766	9134.074219
3443.347656	9107.206055
3442.560547	9213.694336
3441.772461	9278.879883
3440.985352	9106.000000
3440.197266	9187.049805
3439.409180	9188.749023
3438.621094	8993.759766
3437.833008	9081.130859
3437.044922	9165.301758
3436.256836	9090.902344
3435.467773	9222.600586
3434.679688	8951.683594
3433.890625	8947.079102
3433.101563	9243.515625
3432.312500	9007.577148
3431.523438	8939.608398
3430.734375	8814.649414
3429.944336	8873.406250
3429.155273	8909.978516
3428.365234	8943.374023
3427.575195	8840.650391
3426.785156	8908.858398
3425.995117	8682.766602
3425.205078	8697.193359
3424.415039	8876.104492
3423.624023	8858.867188
3422.833984	8898.555664
3422.042969	8893.967773
3421.251953	8785.059570
3420.460938	9011.222656
3419.669922	8684.276367
3418.878906	8679.723633
3418.087891	8725.719727
3417.295898	8727.479492
3416.504883	8659.757813
3415.712891	8547.850586
3414.920898	8543.322266
3414.128906	8766.076172
3413.336914	8638.423828
3412.544922	8592.859375
3411.752930	8455.810547
3410.959961	8719.444336
3410.166992	8560.339844
3409.375000	8499.047852
3408.582031	8544.981445
3407.789063	8373.370117
3406.996094	8334.201172
3406.202148	8512.506836
3405.409180	8391.400391
3404.615234	8405.807617
3403.822266	8325.707031
3403.028320	8333.820313
3402.234375	8376.571289
3401.440430	8236.690430
3400.646484	8225.925781
3399.851563	8482.707031
3399.057617	8320.846680
3398.262695	8193.649414
3397.468750	8189.189453
3396.673828	8209.894531
3395.878906	8173.982910
3395.083984	8238.707031
3394.288086	8152.497070
3393.493164	8166.907227
3392.698242	8171.883789
3391.902344	8123.435059
3391.106445	7971.314941
3390.310547	7976.319824
3389.514648	8116.386230
3388.718750	8206.159180
3387.922852	8251.943359
3387.125977	8090.505371
3386.330078	8035.844727
3385.533203	8122.433594
3384.736328	7992.473145
3383.939453	7856.279297
3383.142578	7952.266113
3382.345703	8001.174316
3381.548828	7990.482910
3380.750977	8004.878906
3379.954102	7981.650391
3379.156250	8080.673340
3378.358398	7960.286133
3377.560547	7930.808105
3376.762695	8098.716309
3375.964844	7915.734375
3375.166016	7905.068848
3374.368164	7913.195313
3373.569336	7962.021484
3372.771484	7907.526855
3371.972656	7818.619629
3371.173828	7933.155273
3370.374023	7715.985352
3369.575195	7861.784668
3368.776367	7894.931152
3367.976563	7712.272949
3367.176758	7845.494141
3366.377930	7712.925293
3365.578125	7646.043457
3364.778320	7707.325684
3363.977539	7724.838867
3363.177734	7598.622559
3362.377930	7819.203125
3361.577148	7730.492676
3360.776367	7776.096680
3359.975586	7690.543457
3359.174805	7832.918457
3358.374023	7694.319336
3357.573242	7668.117676
3356.772461	7651.285156
3355.970703	7671.897461
3355.168945	7736.174316
3354.368164	7706.863281
3353.566406	7515.402832
3352.764648	7663.857910
3351.961914	7734.329102
3351.160156	7514.903320
3350.358398	7688.217773
3349.555664	7515.608398
3348.752930	7458.325195
3347.950195	7550.576172
3347.147461	7322.012207
3346.344727	7638.457520
3345.541992	7783.563477
3344.739258	7383.859863
3343.935547	7364.000977
3343.132813	7565.094727
3342.329102	7299.409668
3341.525391	7348.013184
3340.721680	7483.693359
3339.917969	7429.624023
3339.113281	7422.212891
3338.309570	7408.586426
3337.504883	7357.662598
3336.701172	7406.209473
3335.896484	7395.698730
3335.091797	7481.506348
3334.287109	7408.857910
3333.482422	7280.325684
3332.676758	7325.739258
3331.872070	7408.396973
3331.066406	7317.179688
3330.260742	7238.406738
3329.455078	7429.659180
3328.649414	7347.790527
3327.843750	7542.065918
3327.038086	7413.675781
3326.232422	7381.471191
3325.425781	7200.431152
3324.619141	7326.395020
3323.812500	7247.720215
3323.006836	7320.944336
3322.199219	7298.076660
3321.392578	7355.776855
3320.585938	7422.751953
3319.778320	7291.466797
3318.971680	7315.072266
3318.164063	7174.556641
3317.356445	7099.101563
3316.548828	7364.174805
3315.741211	7149.438477
3314.933594	6965.715820
3314.125000	7162.613770
3313.317383	7306.859375
3312.508789	7120.106445
3311.700195	7217.923828
3310.891602	7120.913086
3310.083008	7054.848633
3309.274414	7338.090332
3308.465820	7222.563477
3307.656250	7218.313965
3306.847656	7365.453613
3306.038086	7061.545410
3305.228516	7208.662109
3304.418945	7093.247559
3303.609375	7113.722168
3302.799805	6930.443848
3301.989258	7204.035645
3301.179688	7017.715332
3300.369141	7032.017090
3299.558594	7033.973633
3298.748047	7146.974121
3297.937500	7040.967773
3297.126953	7018.252930
3296.316406	7183.613281
3295.504883	6966.678223
3294.694336	7082.680176
3293.882813	6976.768555
3293.071289	7098.893555
3292.259766	7048.464355
3291.448242	7050.413086
3290.636719	7067.759277
3289.824219	6968.092285
3289.012695	7025.467773
3288.200195	7039.730957
3287.387695	6980.125488
3286.575195	6800.529785
3285.762695	6922.504883
3284.950195	6902.936523
3284.137695	7006.401855
3283.324219	6857.667969
3282.511719	6875.015137
3281.698242	6821.650391
3280.884766	6995.756348
3280.071289	6905.510254
3279.257813	6922.837891
3278.444336	6884.859863
3277.629883	6834.606934
3276.816406	6805.868652
3276.001953	6936.818359
3275.187500	6831.315918
3274.373047	6738.126465
3273.558594	6737.044922
3272.744141	6889.401855
3271.929688	6833.066895
3271.114258	6758.342773
3270.299805	6674.440918
3269.484375	6743.905762
3268.668945	6880.807129
3267.853516	6665.095215
3267.038086	6734.527344
3266.221680	6659.890137
3265.406250	6735.429688
3264.590820	6734.348145
3263.774414	6711.823242
3262.958008	6781.191895
3262.141602	6749.479492
3261.325195	6907.613770
3260.508789	6627.917480
3259.691406	6810.507813
3258.875000	6656.393555
3258.057617	6465.609863
3257.241211	6724.623047
3256.423828	6815.311523
3255.606445	6795.866211
3254.788086	6537.906738
3253.970703	6705.017578
3253.153320	6648.915527
3252.334961	6754.824707
3251.516602	6720.124023
3250.699219	6645.712891
3249.880859	6754.626465
3249.062500	6469.471191
3248.243164	6535.621094
3247.424805	6604.802734
3246.605469	6735.023438
3245.787109	6764.467285
3244.967773	6592.465332
3244.148438	6658.541504
3243.329102	6745.953613
3242.509766	6702.162109
3241.690430	6646.183594
3240.870117	6590.223145
3240.050781	6531.231445
3239.230469	6392.993652
3238.410156	6474.267090
3237.589844	6649.991699
3236.769531	6578.838867
3235.949219	6541.221680
3235.127930	6631.557129
3234.307617	6600.035156
3233.486328	6510.664063
3232.665039	6689.256836
3231.843750	6517.705566
3231.022461	6489.264648
3230.201172	6564.304199
3229.379883	6401.982910
3228.557617	6483.096191
3227.736328	6621.977051
3226.914063	6502.302734
3226.091797	6695.870605
3225.269531	6561.020508
3224.447266	6584.285645
3223.625000	6437.339355
3222.801758	6649.025391
3221.979492	6568.959961
3221.156250	6738.025879
3220.333008	6621.522461
3219.509766	6274.251465
3218.686523	6355.227051
3217.863281	6548.505859
3217.039063	6514.063965
3216.215820	6497.842773
3215.391602	6499.833496
3214.567383	6532.163086
3213.744141	6546.281250
3212.918945	6621.054688
3212.094727	6504.755371
3211.270508	6530.998535
3210.446289	6439.002930
3209.621094	6571.335449
3208.795898	6476.331543
3207.970703	6575.284180
3207.145508	6480.310059
3206.320313	6427.774414
3205.495117	6617.544922
3204.669922	6413.596680
3203.843750	6264.210938
3203.017578	6399.427246
3202.192383	6592.106445
3201.366211	6421.580566
3200.539063	6347.931641
3199.712891	6374.138672
3198.886719	6587.870605
3198.059570	6314.629883
3197.233398	6352.924316
3196.406250	6442.601563
3195.579102	6344.837402
3194.751953	6416.353027
3193.924805	6406.256836
3193.097656	6239.053711
3192.269531	6515.969238
3191.442383	6481.698242
3190.614258	6477.637207
3189.786133	6289.393555
3188.958008	6345.742188
3188.129883	6371.888672
3187.301758	6395.007813
3186.472656	6469.416504
3185.644531	6299.426758
3184.815430	6292.381348
3183.986328	6324.546387
3183.157227	6275.281738
3182.328125	6277.288574
3181.499023	6414.948730
3180.669922	6236.087891
3179.839844	6424.940918
3179.010742	6300.372070
3178.180664	6416.851074
3177.350586	6448.953125
3176.520508	6206.985352
3175.690430	6236.099609
3174.859375	6192.947754
3174.029297	6369.553223
3173.198242	6311.345215
3172.368164	6379.542969
3171.537109	6351.438965
3170.706055	6359.442871
3169.875000	6189.985840
3169.042969	6321.311523
3168.211914	6203.030273
3167.379883	6382.412109
3166.548828	6288.205078
3165.716797	6221.076660
3164.884766	6241.110840
3164.052734	6101.905762
3163.220703	6290.170898
3162.387695	6238.101563
3161.555664	6324.184082
3160.722656	6001.904785
3159.889648	6244.099609
3159.056641	6249.099121
3158.223633	6410.148926
3157.390625	6145.072266
3156.557617	6309.086426
3155.723633	6188.089844
3154.890625	6142.108887
3154.056641	6117.132813
3153.222656	6074.175781
3152.388672	5983.270508
3151.554688	6249.054688
3150.720703	6122.189941
3149.885742	6124.202148
3149.051758	6000.393555
3148.216797	6170.156250
3147.381836	5992.474609
3146.546875	6027.442383
3145.711914	6050.423340
3144.876953	6064.416992
3144.041992	6129.284180
3143.206055	5951.750977
3142.370117	6103.378418
3141.535156	5997.699219
3140.699219	6035.616211
3139.863281	6040.626465
3139.026367	6105.433594
3138.190430	6080.536133
3137.354492	6094.503418
3136.517578	6054.672852
3135.680664	5940.155273
3134.843750	5909.324707
3134.006836	6009.934082
3133.169922	6002.994629
3132.333008	6166.263672
3131.495117	6147.358398
3130.658203	5943.381348
3129.820313	5966.302734
3128.982422	5896.707520
3128.144531	6003.171875
3127.306641	6115.568359
3126.468750	5968.431152
3125.629883	6000.275879
3124.791992	5978.438477
3123.953125	6117.597656
3123.114258	5928.822754
3122.275391	5942.770996
3121.436523	5888.177734
3120.597656	6045.137207
3119.758789	6002.460938
3118.918945	6031.279297
3118.079102	5964.794922
3117.240234	6103.775391
3116.400391	5805.096680
3115.560547	6051.211914
3114.719727	5886.557617
3113.879883	6010.583496
3113.040039	5941.190430
3112.199219	5895.615723
3111.358398	5998.761230
3110.517578	5997.795898
3109.676758	5976.019043
3108.835938	5918.577148
3107.995117	5798.737793
3107.153320	5892.899414
3106.312500	5859.268066
3105.470703	5989.038574
3104.628906	5789.066895
3103.787109	6022.749512
3102.945313	5992.087402
3102.103516	5786.272949
3101.260742	5820.962402
3100.418945	5837.833496
3099.576172	5807.220215
3098.733398	5898.260742
3097.890625	5763.821289
3097.047852	5917.125000
3096.205078	5836.104492
3095.361328	5808.479980
3094.518555	5774.935547
3093.674805	5827.359375
3092.831055	5856.057617
3091.987305	5813.631836
3091.143555	5860.098633
3090.299805	5782.139648
3089.456055	5713.090332
3088.611328	5919.455566
3087.766602	5859.288574
3086.922852	5947.153320
3086.078125	5860.362793
3085.233398	5791.355957
3084.387695	5710.535645
3083.542969	5842.742188
3082.698242	5767.855469
3081.852539	5891.137695
3081.006836	5866.534668
3080.161133	5779.853516
3079.315430	5826.218750
3078.469727	5893.257324
3077.624023	5865.713867
3076.777344	5758.406250
3075.931641	5769.295898
3075.084961	5856.975098
3074.238281	5758.579590
3073.391602	5739.937012
3072.544922	5860.051758
3071.698242	5906.335938
3070.850586	5686.995117
3070.003906	5857.222656
3069.156250	5806.125488
3068.308594	5778.642578
3067.460938	5692.182617
3066.613281	5738.447754
3065.765625	5725.730469
3064.916992	5621.632813
3064.069336	5809.362305
3063.220703	5731.806641
3062.372070	5601.239258
3061.523438	5676.933594
3060.674805	5787.949707
3059.826172	5819.413574
3058.976563	5671.248047
3058.127930	5732.161133
3057.278320	5940.235840
3056.428711	5639.078125
3055.579102	5632.284668
3054.729492	5793.199219
3053.879883	5521.627441
3053.030273	5544.268555
3052.179688	5808.046387
3051.330078	5454.273926
3050.479492	5826.754883
3049.628906	5784.666016
3048.778320	5736.712402
3047.926758	5665.266602
3047.076172	5773.058594
3046.225586	5760.378906
3045.374023	5553.861816
3044.522461	5834.873535
3043.670898	5690.067871
3042.819336	5551.179199
3041.967773	5749.872559
3041.116211	5613.953613
3040.263672	5621.852051
3039.412109	5726.559570
3038.559570	5599.509277
3037.707031	5660.194824
3036.854492	5656.351074
3036.001953	5717.008301
3035.148438	5774.713867
3034.295898	5685.858398
3033.442383	5749.411133
3032.589844	5607.849609
3031.736328	5732.912109
3030.882813	5647.048828
3030.028320	5742.779785
3029.174805	5639.374023
3028.321289	5503.798340
3027.466797	5622.922363
3026.612305	5736.154297
3025.758789	5585.997559
3024.904297	5599.726074
3024.048828	5610.524902
3023.194336	5562.825684
3022.339844	5611.641602
3021.484375	5502.558105
3020.628906	5449.051758
3019.773438	5594.316406
3018.917969	5713.232422
3018.062500	5665.561523
3017.207031	5521.499023
3016.351563	5649.131836
3015.495117	5522.640625
3014.638672	5580.151367
3013.782227	5561.734863
3012.925781	5482.023926
3012.069336	5536.594238
3011.212891	5489.012207
3010.356445	5453.116211
3009.499023	5606.848633
3008.641602	5527.193848
3007.785156	5514.638184
3006.927734	5472.928711
3006.069336	5425.401855
3005.211914	5579.014648
3004.354492	5508.170898
3003.496094	5513.111328
3002.638672	5430.646484
3001.780273	5578.333008
3000.921875	5437.634277
3000.063477	5599.831543
2999.204102	5386.385254
2998.345703	5478.672363
2997.486328	5489.432129
2996.627930	5430.344238
2995.768555	5240.339844
2994.909180	5408.229980
2994.049805	5488.803223
2993.190430	5400.670410
2992.330078	5437.601563
2991.470703	5396.022461
2990.610352	5569.565430
2989.750000	5437.879395
2988.889648	5593.923828
2988.029297	5444.843262
2987.168945	5499.160645
2986.308594	5521.510742
2985.447266	5453.827148
2984.585938	5391.972656
2983.725586	5402.716309
2982.864258	5503.438477
2982.002930	5540.279785
2981.140625	5362.381836
2980.279297	5442.752441
2979.416992	5647.831055
2978.555664	5304.683105
2977.693359	5416.922363
2976.831055	5369.659180
2975.968750	5305.017090
2975.106445	5440.389160
2974.243164	5480.083984
2973.380859	5470.507813
2972.517578	5333.464844
2971.654297	5364.467285
2970.791016	5444.693848
2969.927734	5478.563965
2969.064453	5625.334961
2968.201172	5413.113770
2967.336914	5441.183594
2966.473633	5460.562988
2965.609375	5477.042480
2964.745117	5493.516113
2963.880859	5530.231445
2963.016602	5468.609863
2962.151367	5487.968262
2961.287109	5391.680664
2960.421875	5437.059570
2959.556641	5508.434082
2958.691406	5279.269043
2957.826172	5434.430176
2956.960938	5459.551758
2956.095703	5473.112305
2955.229492	5501.106934
2954.363281	5586.837402
2953.498047	5505.106445
2952.631836	5287.744141
2951.765625	5410.983398
2950.898438	5499.558105
2950.032227	5417.893066
2949.165039	5463.170898
2948.298828	5675.705566
2947.431641	5432.573242
2946.564453	5423.047852
2945.697266	5448.116699
2944.830078	5493.352539
2943.961914	5538.573242
2943.094727	5356.163574
2942.226563	5525.263672
2941.358398	5426.442871
2940.490234	5566.678711
2939.622070	5513.952148
2938.753906	5527.457520
2937.885742	5658.973145
2937.016602	5436.457520
2936.148438	5613.985352
2935.279297	5495.121582
2934.410156	5629.433594
2933.541016	5484.720215
2932.670898	5593.109863
2931.801758	5526.078613
2930.932617	5582.681152
2930.062500	5691.001953
2929.192383	5764.801758
2928.322266	5683.418945
2927.452148	5642.282227
2926.582031	5782.119141
2925.710938	5620.358398
2924.840820	5676.880859
2923.969727	5808.030762
2923.098633	5660.696289
2922.227539	5659.782715
2921.356445	5782.262695
2920.485352	5686.647949
2919.614258	5714.417480
2918.742188	5790.937012
2917.870117	5807.209473
2916.999023	5800.537598
2916.126953	5865.538574
2915.253906	5984.979980
2914.381836	5866.511719
2913.509766	5925.739258
2912.636719	5712.774414
2911.764648	5849.349609
2910.891602	5965.832031
2910.018555	5904.733398
2909.145508	5989.674805
2908.271484	5968.669434
2907.398438	5784.524414
2906.524414	5772.144043
2905.651367	5811.270508
2904.777344	5715.925293
2903.903320	5883.764160
2903.029297	5611.124023
2902.154297	5790.362793
2901.280273	5652.197266
2900.405273	5739.898926
2899.531250	5721.824219
2898.656250	5632.314941
2897.781250	5659.977051
2896.906250	5473.379883
2896.030273	5443.934570
2895.155273	5500.170410
2894.279297	5542.111816
2893.404297	5486.975586
2892.528320	5691.604004
2891.652344	5419.564453
2890.776367	5418.689453
2889.899414	5591.846680
2889.023438	5513.925781
2888.146484	5376.136230
2887.270508	5460.816406
2886.393555	5457.083496
2885.516602	5419.143555
2884.638672	5423.969238
2883.761719	5394.595703
2882.884766	5313.944336
2882.006836	5284.597656
2881.128906	5400.528320
2880.250977	5462.310547
2879.373047	5299.123047
2878.495117	5261.256348
2877.617188	5351.496094
2876.738281	5458.782715
2875.860352	5418.062500
2874.981445	5326.142578
2874.102539	5313.903809
2873.223633	5398.372559
2872.344727	5312.187500
2871.464844	5413.688965
2870.585938	5336.057617
2869.706055	5278.347656
2868.826172	5345.701660
2867.947266	5268.118164
2867.066406	5324.087891
2866.186523	5280.619629
2865.306641	5299.647461
2864.425781	5301.630859
2863.545898	5334.844727
2862.665039	5333.983398
2861.784180	5299.062012
2860.903320	5119.423828
2860.022461	5300.187988
2859.140625	5259.614746
2858.259766	5270.111328
2857.377930	5138.804199
2856.496094	5282.585938
2855.614258	5341.269043
2854.732422	5360.248535
2853.850586	5441.572754
2852.967773	5355.683105
2852.085938	5326.485352
2851.203125	5192.484375
2850.320313	5336.093750
2849.437500	5289.921875
2848.554688	5379.671875
2847.671875	5375.971680
2846.788086	5290.188477
2845.905273	5136.511719
2845.021484	5345.070313
2844.137695	5301.770020
2843.253906	5388.602051
2842.370117	5254.805664
2841.486328	5222.851074
2840.601563	5140.015625
2839.717773	5317.275391
2838.833008	5307.937012
2837.948242	5273.168457
2837.063477	5342.952637
2836.178711	5342.089355
2835.292969	5324.278809
2834.408203	5179.389160
2833.522461	5209.612305
2832.636719	5389.453613
2831.750977	5236.155762
2830.865234	5407.467773
2829.979492	5248.572266
2829.093750	5202.582031
2828.207031	5263.800781
2827.321289	5372.947754
2826.434570	5304.399414
2825.547852	5303.541992
2824.661133	5297.046387
2823.774414	5045.333008
2822.886719	5365.788086
2822.000000	5314.202148
2821.112305	5262.632324
2820.224609	5360.369629
2819.336914	5269.379883
2818.449219	5355.820313
2817.561523	5391.555176
2816.672852	5289.344238
2815.785156	5254.714844
2814.896484	5200.397949
2814.007813	5295.220215
2813.119141	5401.264160
2812.230469	5366.638184
2811.341797	5275.778320
2810.452148	5294.607910
2809.563477	5290.940430
2808.673828	5354.735352
2807.784180	5331.386230
2806.894531	5476.642578
2806.004883	5180.757324
2805.114258	5283.854980
2804.224609	5356.024414
2803.333984	5181.052734
2802.444336	5289.715332
2801.553711	5232.714844
2800.663086	5195.379883
2799.771484	5334.856934
2798.880859	5263.846680
2797.989258	5414.488770
2797.098633	5433.248047
2796.207031	5306.165527
2795.315430	5381.017578
2794.423828	5164.268066
2793.532227	5432.537109
2792.639648	5269.101074
2791.748047	5470.011230
2790.855469	5329.036133
2789.962891	5314.167480
2789.070313	5444.950195
2788.177734	5290.044434
2787.285156	5263.988770
2786.391602	5363.920898
2785.499023	5298.673828
2784.605469	5244.642578
2783.711914	5221.408691
2782.818359	5416.405273
2781.924805	5337.205078
2781.031250	5389.481445
2780.136719	5313.107422
2779.243164	5449.247559
2778.348633	5509.866211
2777.454102	5416.739258
2776.559570	5390.711914
2775.665039	5308.810059
2774.769531	5461.602539
2773.875000	5301.505859
2772.979492	5359.295898
2772.083984	5439.405273
2771.188477	5307.308105
2770.292969	5365.068848
2769.397461	5380.946289
2768.501953	5427.513672
2767.605469	5401.524902
2766.708984	5305.804688
2765.812500	5355.150391
2764.916016	5393.325684
2764.019531	5350.628906
2763.123047	5369.277344
2762.226563	5569.096680
2761.329102	5420.490234
2760.431641	5422.399414
2759.534180	5482.813477
2758.636719	5434.571777
2757.739258	5364.065430
2756.841797	5379.904785
2755.943359	5501.537598
2755.045898	5208.355469
2754.147461	5349.459473
2753.249023	5509.997559
2752.350586	5578.665039
2751.452148	5458.139160
2750.552734	5368.248047
2749.654297	5397.970703
2748.754883	5324.801758
2747.855469	5449.044922
2746.956055	5495.417480
2746.056641	5388.916992
2745.157227	5496.416992
2744.257813	5323.270508
2743.357422	5377.966309
2742.457031	5540.963379
2741.556641	5351.231934
2740.656250	5392.013184
2739.755859	5274.544922
2738.855469	5431.901855
2737.954102	5517.052734
2737.053711	5366.323730
2736.152344	5285.000488
2735.250977	5469.991211
2734.349609	5139.073242
2733.448242	5343.437988
2732.545898	5345.344727
2731.644531	5510.801270
2730.742188	5423.989746
2729.840820	5450.822266
2728.938477	5319.717285
2728.035156	5277.302246
2727.132813	5542.347168
2726.230469	5380.827637
2725.327148	5327.347168
2724.424805	5337.558105
2723.521484	5328.389160
2722.618164	5280.478027
2721.713867	5517.592773
2720.810547	5389.433105
2719.907227	5413.456055
2719.002930	5451.299316
2718.098633	5375.752930
2717.194336	5402.530762
2716.290039	5360.189453
2715.385742	5671.648438
2714.481445	5369.506836
2713.576172	5274.692383
2712.671875	5428.544434
2711.766602	5377.945801
2710.861328	5305.269531
2709.956055	5467.325195
2709.050781	5350.484375
2708.144531	5482.115723
2707.239258	5500.546875
2706.333008	5386.516602
2705.426758	5382.884766
2704.520508	5439.942871
2703.614258	5328.735352
2702.708008	5264.444824
2701.800781	5233.262207
2700.893555	5397.822266
2699.987305	5350.089355
2699.080078	5280.324219
2698.172852	5403.464355
2697.264648	5397.078613
2696.357422	5343.867188
2695.450195	5320.967773
2694.541992	5292.568848
2693.633789	5275.191406
2692.725586	5337.650391
2691.817383	5265.224121
2690.909180	5377.198242
2690.000000	5285.528809
2689.091797	5496.499023
2688.182617	5272.813477
2687.273438	5321.460449
2686.364258	5394.838867
2685.455078	5234.509277
2684.545898	5294.133789
2683.635742	5397.711914
2682.726563	5270.434082
2681.816406	5338.265625
2680.906250	5389.592773
2679.996094	5512.313477
2679.085938	5360.384277
2678.174805	5329.312988
2677.264648	5355.900879
2676.353516	5357.776855
2675.442383	5277.323242
2674.531250	5295.674316
2673.620117	5281.098633
2672.708984	5403.676270
2671.796875	5435.710449
2670.885742	5415.634277
2669.973633	5362.664551
2669.061523	5474.184082
2668.149414	5358.184570
2667.237305	5179.195313
2666.324219	5304.389160
2665.412109	5421.324219
2664.499023	5445.095703
2663.585938	5249.776367
2662.672852	5394.043945
2661.759766	5327.465332
2660.846680	5457.986816
2659.933594	5484.469238
2659.019531	5445.270996
2658.105469	5384.198242
2657.192383	5407.943848
2656.278320	5469.971191
2655.363281	5220.240723
2654.449219	5350.630371
2653.535156	5568.454590
2652.620117	5411.758301
2651.705078	5345.293945
2650.790039	5513.830566
2649.875000	5600.356445
2648.959961	5449.218262
2648.044922	5431.948242
2647.128906	5373.725586
2646.212891	5345.552246
2645.296875	5385.629883
2644.380859	5431.152832
2643.464844	5460.288086
2642.548828	5393.921875
2641.632813	5450.332520
2640.715820	5258.526367
2639.798828	5328.575195
2638.881836	5474.944824
2637.964844	5275.049316
2637.047852	5271.467285
2636.130859	5376.895996
2635.212891	5493.189941
2634.294922	5524.990234
2633.377930	5439.652344
2632.459961	5422.428711
2631.541992	5372.534180
2630.623047	5518.681641
2629.705078	5436.121582
2628.786133	5383.526855
2627.867188	5412.586426
2626.949219	5585.840332
2626.030273	5612.137207
2625.110352	5584.026855
2624.191406	5330.207520
2623.271484	5514.237793
2622.352539	5453.532715
2621.432617	5591.273926
2620.512695	5546.882813
2619.592773	5505.222656
2618.672852	5346.751953
2617.751953	5435.524902
2616.832031	5464.518066
2615.911133	5439.190918
2614.990234	5538.766113
2614.069336	5391.275879
2613.148438	5496.254395
2612.226563	5492.647949
2611.305664	5464.623047
2610.383789	5539.695801
2609.462891	5612.032227
2608.541016	5602.984863
2607.618164	5412.265625
2606.696289	5457.475586
2605.774414	5508.092285
2604.851563	5509.907715
2603.929688	5422.299316
2603.006836	5527.083496
2602.083984	5404.284668
2601.160156	5527.996582
2600.237305	5586.675293
2599.314453	5699.486816
2598.390625	5574.032227
2597.466797	5508.165527
2596.542969	5526.214355
2595.619141	5498.258301
2594.695313	5586.643066
2593.770508	5458.602539
2592.846680	5517.215332
2591.921875	5562.288086
2590.997070	5628.975586
2590.072266	5655.092773
2589.147461	5551.469238
2588.222656	5688.385742
2587.296875	5773.921387
2586.372070	5681.134277
2585.446289	5518.150879
2584.520508	5557.762695
2583.594727	5597.361328
2582.668945	5582.953613
2581.742188	5700.812988
2580.816406	5381.427246
2579.889648	5636.897949
2578.962891	5598.210938
2578.036133	5473.216309
2577.109375	5537.056152
2576.181641	5600.875000
2575.254883	5602.660645
2574.327148	5731.145508
2573.399414	5681.698730
2572.472656	5680.775391
2571.543945	5744.518066
2570.616211	5673.540527
2569.688477	5570.263184
2568.759766	5510.109375
2567.831055	5665.388672
2566.903320	5634.853516
2565.974609	5566.642090
2565.044922	5619.564453
2564.116211	5637.487305
2563.186523	5601.594727
2562.257813	5525.362305
2561.328125	5336.191406
2560.398438	5507.430664
2559.468750	5573.753906
2558.539063	5675.002930
2557.608398	5639.138184
2556.678711	5552.223633
2555.748047	5564.755371
2554.817383	5547.731445
2553.886719	5493.106934
2552.956055	5473.414063
2552.024414	5598.729980
2551.093750	5485.057617
2550.162109	5511.009277
2549.230469	5665.781250
2548.298828	5578.987793
2547.367188	5615.643555
2546.435547	5614.729980
2545.503906	5640.638672
2544.571289	5658.493652
2543.638672	5550.320801
2542.706055	5506.523926
2541.773438	5610.165527
2540.840820	5561.012695
2539.908203	5653.893066
2538.974609	5588.673828
2538.041016	5502.046387
2537.108398	5675.238770
2536.174805	5650.214844
2535.240234	5692.133789
2534.306641	5629.637695
2533.373047	5481.513184
2532.438477	5684.003906
2531.503906	5653.646973
2530.569336	5625.975098
2529.634766	5667.855957
2528.700195	5666.934082
2527.765625	5636.598633
2526.830078	5558.150879
2525.894531	5666.840820
2524.958984	5652.555664
2524.023438	5606.208984
2523.087891	5597.281738
2522.152344	6117.273926
2521.215820	6081.557129
2520.280273	5661.310059
2519.343750	5614.998535
2518.407227	5678.154297
2517.470703	5666.553711
2516.534180	5561.552246
2515.596680	5654.036133
2514.660156	5647.780273
2513.722656	5806.904297
2512.785156	5680.612305
2511.847656	5642.355957
2510.910156	5684.095215
2509.971680	5712.491699
2509.034180	5666.253418
2508.095703	5598.711426
2507.157227	5704.374023
2506.218750	5698.117188
2505.280273	5609.294434
2504.341797	5587.077148
2503.402344	5596.817871
2502.463867	5808.881348
2501.524414	5621.612793
2500.584961	5743.118164
2499.645508	5627.765137
2498.706055	5664.094727
2497.765625	5689.772949
2496.826172	5569.165039
2495.885742	5626.759277
2494.945313	5551.398926
2494.004883	5635.560059
2493.064453	5613.379395
2492.124023	5737.363770
2491.182617	5712.516602
2490.241211	5732.838867
2489.300781	5615.035645
2488.359375	5656.612305
2487.417969	5607.895996
2486.475586	5593.708496
2485.534180	5653.848633
2484.591797	5644.965820
2483.649414	5752.840820
2482.708008	5802.312500
2481.764648	5753.619141
2480.822266	5622.722656
2479.879883	5714.619629
2478.936523	5705.734375
2477.994141	5423.806152
2477.050781	5550.146484
2476.107422	5636.694336
2475.164063	5556.287109
2474.219727	5762.019531
2473.276367	5816.705078
2472.332031	5606.538574
2471.387695	5616.216309
2470.443359	5625.891113
2469.499023	5527.033691
2468.554688	5653.170898
2467.610352	5514.647949
2466.665039	5672.494141
2465.719727	5666.279297
2464.774414	5712.963867
2463.829102	5587.743164
2462.883789	5607.984863
2461.938477	5554.198730
2460.992188	5622.016113
2460.045898	5821.947266
2459.100586	5662.460449
2458.154297	5643.043945
2457.207031	5716.084961
2456.260742	5432.564453
2455.314453	5661.409668
2454.367188	5605.043457
2453.419922	5627.887207
2452.472656	5766.852539
2451.525391	5567.997559
2450.578125	5551.259277
2449.629883	5671.702148
2448.682617	5454.496582
2447.734375	5743.692871
2446.786133	5608.284180
2445.837891	5971.176758
2444.889648	5830.502930
2443.940430	5544.926758
2442.992188	5696.852051
2442.042969	5764.421875
2441.093750	5747.676758
2440.144531	5554.479492
2439.195313	5758.968750
2438.246094	5694.841309
2437.295898	5841.327637
2436.346680	5682.456055
2435.396484	5613.108887
2434.446289	5864.781738
2433.496094	5650.738770
2432.545898	5770.809082
2431.594727	5788.276855
2430.643555	5711.079590
2429.693359	5502.458496
2428.742188	5727.616699
2427.791016	5737.194824
2426.838867	5547.064941
2425.887695	5590.823730
2424.936523	5676.597168
2423.984375	5659.912598
2423.032227	5656.363281
2422.080078	5579.299316
2421.127930	5567.888672
2420.174805	5553.856445
2419.222656	5537.205078
2418.269531	5567.787598
2417.316406	5566.878906
2416.363281	5576.462402
2415.410156	5604.400879
2414.457031	5527.444336
2413.502930	5578.976563
2412.549805	5475.836426
2411.595703	5422.525879
2410.641602	5332.546875
2409.687500	5564.855469
2408.733398	5514.175781
2407.778320	5392.795898
2406.824219	5308.116699
2405.869141	5380.562500
2404.914063	5282.823730
2403.958984	5491.355469
2403.003906	5498.310059
2402.048828	5295.936523
2401.091797	5313.385254
2400.136719	5409.299316
2399.181641	5484.259277
2398.224609	5276.790039
2397.269531	5354.361816
2396.312500	5293.365234
2395.355469	5214.093750
2394.398438	5388.323730
2393.441406	5154.911133
2392.484375	5438.810547
2391.527344	5189.794434
2390.570313	5337.799316
2389.613281	5266.430176
2388.656250	5262.959961
2387.697266	5204.676758
2386.740234	5334.313965
2385.781250	5307.349609
2384.824219	5353.442871
2383.865234	5203.886230
2382.906250	5208.252441
2381.947266	5121.350586
2380.988281	5188.300781
2380.029297	5205.701172
2379.070313	5160.542969
2378.111328	5253.512695
2377.152344	5424.616699
2376.191406	5215.326172
2375.232422	5178.009277
2374.271484	5093.828613
2373.312500	4994.052734
2372.351563	5144.231934
2371.390625	5138.185547
2370.431641	5126.936035
2369.470703	5100.077637
2368.509766	5177.293945
2367.548828	5048.987793
2366.585938	5144.393066
2365.625000	5094.145020
2364.664063	5007.514160
2363.701172	5139.271973
2362.740234	4987.684082
2361.777344	5090.816406
2360.816406	5126.359863
2359.853516	5008.620117
2358.890625	4948.061035
2357.927734	5178.383789
2356.964844	5130.799805
2356.001953	5078.038574
2355.039063	5092.782715
2354.076172	4972.567383
2353.113281	5018.461914
2352.148438	5004.669434
2351.185547	5060.919922
2350.220703	4945.974609
2349.257813	5061.858887
2348.292969	5024.732910
2347.328125	4987.619141
2346.365234	4888.311523
2345.400391	5071.506836
2344.435547	4897.077637
2343.470703	4953.270996
2342.503906	5024.986816
2341.539063	4905.035645
2340.574219	5090.666992
2339.607422	4906.020508
2338.642578	4946.634277
2337.675781	4891.476074
2336.710938	5128.740723
2335.744141	4895.050781
2334.777344	5026.177734
2333.810547	5035.701660
2332.843750	5102.113281
2331.876953	5150.404297
2330.910156	5240.041016
2329.943359	5275.370117
2328.974609	5346.866699
2328.007813	5172.874023
2327.041016	5089.358398
2326.072266	5085.942871
2325.103516	5185.832031
2324.136719	5048.128906
2323.167969	4980.177734
2322.199219	4834.809570
2321.230469	5035.328613
2320.261719	4861.613281
2319.292969	4878.877930
2318.324219	4950.309570
2317.355469	4851.489746
2316.384766	4835.223145
2315.416016	4960.771973
2314.445313	4562.957520
2313.476563	5005.544434
2312.505859	4829.482422
2311.535156	4738.508789
2310.564453	4838.207520
2309.593750	4809.081543
2308.623047	4872.679688
2307.652344	4786.907715
2306.681641	4696.014648
2305.710938	4679.801270
2304.740234	4887.506836
2303.767578	4794.068359
2302.796875	4741.825684
2301.824219	4692.172852
2300.851563	4742.845703
2299.880859	4808.931641
2298.908203	4787.574707
2297.935547	4717.380371
2296.962891	4775.726074
2295.990234	4720.976074
2295.017578	4781.871582
2294.042969	4778.519531
2293.070313	4744.344727
2292.097656	4640.837402
2291.123047	4832.665527
2290.150391	4765.121582
2289.175781	4859.319824
2288.201172	4786.660156
2287.228516	4706.325684
2286.253906	4759.435547
2285.279297	4794.570801
2284.304688	4775.831543
2283.330078	4764.791504
2282.353516	4812.728027
2281.378906	4873.467285
2280.404297	4624.037598
2279.427734	4825.740723
2278.453125	4781.390137
2277.476563	4785.730957
2276.500000	4797.754883
2275.525391	4671.474609
2274.548828	4744.969727
2273.572266	4785.156738
2272.595703	4779.253418
2271.619141	4873.169434
2270.640625	4790.482910
2269.664063	4782.021973
2268.687500	4699.376953
2267.708984	4742.089355
2266.732422	4736.197754
2265.753906	4817.243164
2264.777344	4788.332520
2263.798828	4761.986816
2262.820313	4773.985352
2261.841797	4775.758301
2260.863281	4889.942871
2259.884766	4707.778809
2258.906250	4737.655273
2257.925781	4724.110840
2256.947266	4822.909668
2255.968750	4898.701660
2254.988281	4757.520996
2254.009766	4664.873047
2253.029297	4789.131348
2252.048828	4734.773926
2251.068359	4833.473145
2250.087891	4776.576172
2249.107422	4734.996094
2248.126953	4757.164551
2247.146484	4695.209473
2246.166016	4880.484375
2245.185547	4759.921875
2244.203125	4631.755371
2243.222656	4676.847656
2242.240234	4734.659180
2241.259766	4792.451660
2240.277344	4748.383301
2239.294922	4648.325195
2238.312500	4652.653320
2237.330078	4845.295410
2236.347656	4854.678223
2235.365234	4861.514160
2234.382813	4781.867188
2233.398438	4697.159668
2232.416016	4688.761230
2231.431641	4746.465332
2230.449219	4738.061523
2229.464844	4793.196289
2228.480469	4807.656738
2227.498047	4656.971191
2226.513672	4666.368164
2225.529297	4688.460938
2224.544922	4644.522461
2223.560547	4737.702148
2222.574219	4764.849121
2221.589844	4837.673340
2220.605469	4684.617188
2219.619141	4686.385742
2218.634766	4637.416504
2217.648438	4632.600098
2216.662109	4627.784180
2215.675781	4622.967773
2214.691406	4618.151855
2213.705078	4613.335449
2212.718750	4642.990723
2211.730469	4730.917969
2210.744141	4613.598145
2209.757813	4554.579102
2208.771484	4718.458496
2207.783203	4712.619629
2206.794922	4651.081055
2205.808594	4700.947266
2204.820313	4659.678711
2203.832031	4542.504395
2202.843750	4584.772949
2201.855469	4730.749512
2200.867188	4697.091309
2199.878906	4562.284180
2198.890625	4713.249512
2197.902344	4550.673828
2196.912109	4726.868652
2195.923828	4721.038086
2194.933594	4727.843750
2193.945313	4752.332520
2192.955078	4574.727051
2191.964844	4705.310547
2190.974609	4686.861328
2189.984375	4729.013672
2188.994141	4705.517578
2188.003906	4644.168945
2187.013672	4615.646973
2186.023438	4791.511230
2185.031250	4694.859863
2184.041016	4731.923828
2183.048828	4620.182129
2182.058594	4647.160156
2181.066406	4608.580078
2180.074219	4663.278320
2179.082031	4602.025879
2178.089844	4573.551758
2177.097656	4749.162109
2176.105469	4700.520508
2175.113281	4729.971680
2174.121094	4600.766113
2173.126953	4708.275879
2172.134766	4732.676270
2171.140625	4736.932617
2170.148438	4668.207520
2169.154297	4632.214844
2168.160156	4676.736816
2167.166016	4615.601074
2166.171875	4738.072754
2165.177734	4825.301758
2164.183594	4653.551758
2163.189453	4617.595703
2162.195313	4611.810547
2161.199219	4724.130371
2160.205078	4602.757813
2159.208984	4581.905273
2158.214844	4581.152832
2157.218750	4710.981445
2156.222656	4710.207031
2155.226563	4732.026367
2154.230469	4871.805664
2153.234375	4665.223145
2152.238281	4649.401855
2151.242188	4841.808105
2150.244141	4657.906738
2149.248047	4805.106445
2148.251953	4548.554199
2147.253906	4763.413574
2146.255859	4822.790039
2145.259766	4576.386230
2144.261719	4786.123047
2143.263672	4642.527832
2142.265625	4659.299805
2141.267578	4718.643555
2140.269531	4675.296875
2139.269531	4777.182617
2138.271484	4796.423828
2137.273438	4758.091309
2136.273438	4582.131836
2135.275391	4671.454590
2134.275391	4755.744629
2133.275391	4794.982910
2132.277344	4754.180664
2131.277344	4743.396484
2130.277344	4685.115234
2129.277344	4696.842773
2128.275391	4708.566406
2127.275391	4742.775879
2126.275391	4781.970215
2125.273438	4656.283691
2124.273438	4700.474609
2123.271484	4657.249023
2122.271484	4676.457031
2121.269531	4773.045898
2120.267578	4824.675781
2119.265625	4619.247559
2118.263672	4730.768555
2117.261719	4595.275391
2116.259766	4676.831543
2115.257813	4588.775879
2114.253906	4655.344727
2113.251953	4799.177246
2112.248047	4688.710449
2111.246094	4682.954102
2110.242188	4622.379395
2109.238281	4629.092773
2108.236328	4730.463379
2107.232422	4659.947754
2106.228516	4726.416504
2105.224609	4730.618164
2104.218750	4729.839355
2103.214844	4597.145020
2102.210938	4678.511230
2101.205078	4662.812012
2100.201172	4684.434570
2099.195313	4696.100098
2098.189453	4735.118164
2097.185547	4833.799316
2096.179688	4750.961914
2095.173828	4697.979980
2094.167969	4759.338867
2093.162109	4693.948242
2092.156250	4795.039063
2091.148438	4732.147949
2090.142578	4686.663086
2089.134766	4544.346191
2088.128906	4593.254395
2087.121094	4686.830566
2086.115234	4624.008301
2085.107422	4610.838867
2084.099609	4843.312500
2083.091797	4564.666016
2082.083984	4598.639648
2081.076172	4754.121094
2080.068359	4607.042969
2079.058594	4720.325684
2078.050781	4655.100586
2077.041016	4679.117676
2076.033203	4829.500977
2075.023438	4766.767090
2074.013672	4709.008301
2073.005859	4780.057129
2071.996094	4625.738770
2070.986328	4686.874023
2069.976563	4703.430176
2068.966797	4613.552734
2067.955078	4761.272949
2066.945313	4619.455078
2065.935547	4581.585938
2064.923828	4603.092285
2063.912109	4768.027832
2062.902344	4581.794434
2061.890625	4746.678711
2060.878906	4600.059082
2059.867188	4698.157227
2058.855469	4571.361816
2057.843750	4563.196777
2056.832031	4663.722656
2055.820313	4578.980957
2054.806641	4647.369141
2053.794922	4644.133789
2052.781250	4596.465820
2051.769531	4659.880371
2050.755859	4619.627930
2049.742188	4510.303223
2048.730469	4595.902832
2047.716797	4627.209961
2046.703125	4697.964355
2045.687500	4684.861328
2044.673828	4580.545898
2043.660156	4565.001465
2042.646484	4694.867188
2041.630859	4573.352539
2040.617188	4658.827148
2039.601563	4473.313477
2038.585938	4620.348145
2037.570313	4683.609863
2036.556641	4608.976074
2035.541016	4549.136230
2034.523438	4538.541016
2033.507813	4633.765137
2032.492188	4475.533203
2031.476563	4715.877930
2030.458984	4673.286133
2029.443359	4588.901855
2028.425781	4784.850098
2027.410156	4582.471680
2026.392578	4584.173340
2025.375000	4630.111816
2024.357422	4712.892090
2023.339844	4662.979004
2022.322266	4463.243164
2021.304688	4563.201660
2020.287109	4614.015625
2019.267578	4593.612793
2018.250000	4671.407227
2017.230469	4646.092773
2016.212891	4640.418457
2015.193359	4661.734375
2014.173828	4587.371094
2013.154297	4542.464844
2012.134766	4612.833008
2011.115234	4585.100098
2010.095703	4530.410156
2009.076172	4701.240723
2008.056641	4582.830566
2007.035156	4645.781738
2006.015625	4654.814941
2004.994141	4492.379395
2003.974609	4535.721680
2002.953125	4493.345215
2001.931641	4607.672852
2000.910156	4543.267090
1999.888672	4557.202148
1998.867188	4541.767090
1997.845703	4560.590820
1996.824219	4537.821289
1995.800781	4456.358398
1994.779297	4458.068359
1993.755859	4403.541016
1992.734375	4547.048340
1991.710938	4477.858398
1990.687500	4450.236816
1989.666016	4583.890625
1988.642578	4482.969238
1987.619141	4496.884766
1986.595703	4452.182129
1985.570313	4556.444824
1984.546875	4482.449707
1983.523438	4359.658691
1982.498047	4541.984375
1981.474609	4372.859863
1980.449219	4384.336426
1979.423828	4376.293945
1978.400391	4399.960938
1977.375000	4367.532227
1976.349609	4437.518555
1975.324219	4353.900391
1974.296875	4409.240723
1973.271484	4369.520508
1972.246094	4402.910645
1971.218750	4363.204102
1970.193359	4342.997070
1969.166016	4337.408691
1968.140625	4378.086426
1967.113281	4379.797363
1966.085938	4413.152344
1965.058594	4268.830566
1964.031250	4411.693359
1963.003906	4267.419434
1961.976563	4371.314453
1960.949219	4261.144531
1959.919922	4357.710449
1958.892578	4293.774902
1957.863281	4497.265137
1956.835938	4326.383301
1955.806641	4328.098145
1954.777344	4312.804199
1953.748047	4382.541992
1952.718750	4464.401855
1951.689453	4446.664063
1950.660156	4370.656250
1949.630859	4379.644531
1948.599609	4330.373535
1947.570313	4390.331055
1946.539063	4282.837402
1945.509766	4401.009766
1944.478516	4308.104004
1943.447266	4348.622070
1942.417969	4364.877441
1941.386719	4439.316406
1940.355469	4312.527344
1939.324219	4345.746094
1938.291016	4437.113770
1937.259766	4293.427246
1936.228516	4438.068359
1935.195313	4422.801758
1934.164063	4279.188477
1933.130859	4254.267090
1932.097656	4333.453613
1931.064453	4376.306152
1930.033203	4378.002441
1929.000000	4411.154297
1927.966797	4364.457031
1926.931641	4300.843262
1925.898438	4355.757324
1924.865234	4374.381836
1923.830078	4453.442383
1922.796875	4341.508789
1921.761719	4348.041016
1920.728516	4359.404297
1919.693359	4242.708984
1918.658203	4420.770020
1917.623047	4487.667480
1916.587891	4366.178711
1915.552734	4553.788574
1914.517578	4456.469727
1913.480469	4600.555664
1912.445313	4426.034668
1911.408203	4422.890625
1910.373047	4419.746094
1909.335938	4416.602051
1908.298828	4413.458008
1907.263672	4473.010254
1906.226563	4383.065430
1905.189453	4336.539551
1904.152344	4384.023926
1903.113281	4477.277832
1902.076172	4474.126953
1901.039063	4360.166504
1900.000000	4390.755371
1898.962891	4464.680176
1897.923828	4488.018066
1896.886719	4362.093262
1895.847656	4361.371094
1894.808594	4331.770020
1893.769531	4297.366699
1892.730469	4515.577637
1891.691406	4370.508789
1890.650391	4372.189941
1889.611328	4328.183594
1888.572266	4281.788086
1887.531250	4269.060059
1886.492188	4460.620605
1885.451172	4363.763672
1884.410156	4363.040527
1883.369141	4350.307129
1882.328125	4421.639160
1881.287109	4324.852051
1880.246094	4444.183594
1879.205078	4469.853027
1878.164063	4435.510254
1877.121094	4427.575684
1876.080078	4338.065430
1875.037109	4339.745117
1873.996094	4351.019043
1872.953125	4328.714355
1871.910156	4342.383301
1870.867188	4411.187988
1869.824219	4340.944336
1868.781250	4313.861816
1867.738281	4380.240234
1866.695313	4238.162109
1865.650391	4354.834473
1864.607422	4236.757324
1863.562500	4365.363281
1862.519531	4290.419434
1861.474609	4359.128418
1860.429688	4341.651855
1859.384766	4307.429688
1858.339844	4299.537598
1857.294922	4239.019043
1856.250000	4188.087891
1855.205078	4263.918945
1854.158203	4358.853516
1853.113281	4434.630859
1852.068359	4180.529785
1851.021484	4237.192871
1849.974609	4109.849121
1848.927734	4254.899902
1847.882813	4242.250488
1846.835938	4258.264648
1845.789063	4243.231445
1844.740234	4199.553223
1843.693359	4246.597656
1842.646484	4148.039551
1841.599609	4278.596680
1840.550781	4048.842285
1839.501953	4203.227051
1838.455078	4114.281250
1837.406250	4232.833496
1836.357422	4146.296387
1835.308594	4066.939453
1834.259766	4211.658691
1833.210938	4168.063965
1832.162109	4083.977051
1831.113281	4049.946777
1830.062500	4039.746826
1829.013672	4122.430176
1827.962891	4093.172119
1826.914063	4102.015625
1825.863281	4094.193848
1824.812500	4055.435059
1823.761719	4102.353027
1822.710938	4163.530273
1821.660156	4122.399902
1820.609375	4214.472168
1819.558594	4109.141602
1818.505859	4056.152588
1817.455078	3955.637207
1816.402344	4038.168213
1815.351563	4006.604492
1814.298828	4108.107422
1813.246094	4183.444824
1812.193359	3966.605713
1811.140625	4051.440430
1810.087891	4022.274414
1809.035156	4071.461182
1807.982422	4020.938721
1806.927734	4248.102051
1805.875000	4261.633301
1804.820313	4090.109131
1803.767578	4136.871094
1802.712891	4204.961914
1801.658203	4220.862305
1800.603516	4054.199951
1799.548828	4063.008301
1798.494141	4128.695801
1797.439453	4253.604004
1796.384766	4203.141602
1795.330078	4126.638184
1794.273438	4107.004395
1793.218750	4267.354492
1792.162109	4081.962646
1791.105469	4164.141113
1790.050781	4168.183105
1788.994141	4172.223633
1787.937500	4273.274902
1786.880859	4154.276367
1785.824219	4141.759277
1784.765625	4136.340820
1783.708984	4211.320313
1782.652344	4220.076660
1781.593750	4117.732422
1780.535156	4081.596680
1779.478516	4253.417969
1778.419922	4122.767090
1777.361328	4112.632813
1776.302734	4196.975098
1775.244141	4236.421875
1774.185547	4110.582031
1773.126953	4190.160645
1772.066406	4135.178223
1771.007813	4172.248535
1769.949219	4185.711426
1768.888672	4085.933838
1767.828125	4214.982422
1766.769531	4141.174316
1765.708984	4161.706543
1764.648438	4168.087402
1763.587891	4200.393555
1762.527344	4150.203613
1761.464844	4177.789551
1760.404297	4184.162598
1759.343750	4181.110840
1758.281250	4090.919189
1757.220703	4085.529297
1756.158203	4287.326172
1755.095703	4284.259277
1754.033203	4165.866699
1752.970703	4205.177734
1751.908203	4176.244629
1750.845703	4088.510010
1749.783203	4156.038574
1748.720703	4129.479004
1747.656250	4145.250977
1746.593750	4062.281006
1745.529297	4186.179688
1744.466797	4159.632324
1743.402344	4205.933594
1742.337891	4090.118408
1741.273438	4080.041992
1740.208984	4119.287598
1739.144531	4214.875000
1738.080078	4441.902832
1737.013672	4178.261719
1735.949219	4262.056152
1734.884766	4136.979492
1733.818359	4204.329590
1732.751953	4142.639648
1731.687500	4139.604492
1730.621094	4223.334961
1729.554688	4222.631836
1728.488281	4203.175293
1727.421875	4272.790039
1726.353516	4248.644043
1725.287109	4191.703613
1724.220703	4153.522949
1723.152344	4194.992188
1722.085938	4124.037598
1721.017578	4158.472656
1719.949219	4281.858398
1718.880859	4084.526123
1717.814453	4149.374512
1716.744141	4186.122070
1715.675781	4070.787598
1714.607422	4147.301270
1713.539063	4219.111816
1712.468750	4223.085938
1711.400391	4224.720215
1710.330078	4027.659180
1709.261719	4052.697266
1708.191406	4042.674805
1707.121094	4114.430176
1706.050781	4160.465332
1704.980469	4129.408691
1703.910156	4042.316406
1702.839844	4081.335449
1701.769531	4118.006836
1700.697266	4042.629883
1699.626953	4079.295410
1698.554688	3987.616699
1697.482422	4031.277344
1696.412109	4182.219727
1695.339844	4085.905029
1694.267578	4043.252441
1693.195313	4072.886230
1692.123047	4025.587891
1691.048828	4045.891846
1689.976563	3998.613525
1688.904297	4018.915283
1687.830078	3976.315674
1686.757813	4071.142822
1685.683594	4049.506348
1684.609375	4009.250977
1683.535156	4001.598877
1682.460938	3996.276611
1681.386719	4063.095703
1680.312500	3974.003662
1679.238281	4078.024902
1678.164063	4128.515137
1677.087891	4060.385986
1676.013672	3999.254883
1674.937500	4098.552734
1673.863281	4037.435303
1672.787109	3980.986328
1671.710938	3996.587402
1670.634766	4023.799316
1669.558594	4032.419189
1668.482422	4017.812012
1667.404297	4149.498535
1666.328125	4060.583008
1665.251953	4108.652344
1664.173828	4066.190674
1663.097656	4039.986816
1662.019531	4062.513916
1660.941406	3980.645508
1659.863281	4024.048828
1658.785156	4039.609863
1657.707031	3953.148926
1656.628906	4042.897949
1655.550781	3963.418457
1654.470703	3976.661377
1653.392578	3966.729492
1652.312500	3963.750977
1651.234375	4002.465332
1650.154297	4011.060791
1649.074219	3977.974609
1647.994141	4062.968506
1646.914063	3983.590576
1645.833984	4024.583008
1644.753906	4026.225098
1643.673828	4037.120605
1642.593750	4050.325439
1641.511719	3934.010986
1640.431641	4000.413086
1639.349609	4069.104736
1638.267578	4033.751221
1637.185547	4060.812256
1636.103516	3981.565674
1635.021484	4103.354492
1633.939453	3982.545898
1632.857422	3887.184082
1631.775391	3944.267090
1630.693359	4005.948730
1629.609375	4062.992432
1628.527344	3933.058350
1627.443359	3969.325195
1626.359375	3973.276855
1625.275391	3921.859619
1624.191406	3944.270264
1623.107422	4012.797607
1622.023438	3869.166260
1620.939453	3958.431641
1619.855469	3918.584473
1618.769531	3855.703613
1617.685547	3924.187744
1616.599609	3953.482666
1615.515625	3881.413086
1614.429688	3954.464600
1613.343750	3758.070801
1612.257813	3955.445068
1611.171875	3839.685547
1610.085938	3926.503906
1609.000000	3819.992432
1607.912109	3837.760498
1606.826172	3892.329346
1605.738281	3820.377197
1604.652344	3828.937012
1603.564453	3844.391846
1602.476563	3871.335938
1601.388672	3792.539307
1600.300781	3782.712646
1599.212891	3901.562744
1598.125000	3811.313477
1597.037109	3776.221680
1595.949219	3754.920898
1594.859375	3825.475098
1593.771484	3794.989746
1592.681641	3755.332764
1591.591797	3860.277100
1590.501953	3774.728760
1589.412109	3778.685791
1588.322266	3924.863525
1587.232422	3832.466309
1586.142578	3902.912354
1585.052734	3826.598633
1583.962891	3809.912109
1582.871094	3845.946289
1581.779297	3804.054199
1580.689453	3840.077148
1579.597656	3892.123779
1578.505859	3728.850586
1577.414063	3854.180420
1576.322266	3821.479736
1575.230469	3841.444092
1574.138672	3744.666748
1573.046875	3723.443359
1571.953125	3812.057861
1570.861328	3763.376953
1569.767578	3819.931641
1568.673828	3865.032227
1567.582031	3777.493896
1566.488281	3783.720215
1565.394531	3824.232178
1564.300781	3841.875732
1563.207031	3896.074707
1562.111328	3842.874268
1561.017578	3892.486084
1559.923828	3798.192871
1558.828125	3920.868896
1557.732422	3938.478027
1556.638672	4010.867920
1555.542969	3930.311768
1554.447266	3895.423340
1553.351563	3903.897461
1552.255859	3823.399414
1551.160156	3893.466553
1550.062500	3867.729004
1548.966797	3985.647217
1547.871094	3984.979736
1546.773438	3847.551025
1545.675781	3951.739258
1544.580078	3802.968994
1543.482422	3964.084717
1542.384766	3751.582764
1541.287109	3757.786377
1540.189453	3793.590088
1539.089844	3918.171875
1537.992188	3887.923584
1536.894531	3969.205322
1535.794922	3811.528076
1534.697266	3906.446045
1533.597656	3869.395020
1532.498047	3818.709717
1531.398438	3795.329834
1530.298828	3735.579102
1529.199219	3734.953125
1528.099609	3847.970703
1527.000000	3749.608643
1525.898438	3796.694580
1524.798828	3764.253906
1523.697266	3799.964355
1522.597656	3831.121094
1521.496094	3769.172852
1520.394531	3995.561523
1519.292969	3901.828857
1518.191406	3894.366455
1517.089844	3859.677490
1515.988281	3797.775879
1514.886719	3810.748779
1513.783203	3796.502441
1512.681641	3834.414063
1511.578125	3851.908203
1510.476563	3701.654785
1509.373047	3850.616455
1508.269531	3800.118164
1507.166016	3731.511475
1506.062500	3932.493896
1504.958984	3857.093262
1503.855469	3786.246582
1502.750000	3815.045166
1501.646484	3746.492920
1500.541016	3707.387207
1499.437500	3817.651367
1498.332031	3647.315674
1497.226563	3703.259277
1496.121094	3741.089355
1495.015625	3758.553467
1493.910156	3667.479248
1492.804688	3637.474609
1491.699219	3722.756836
1490.591797	3688.232910
1489.486328	3687.613770
1488.378906	3492.704834
1487.271484	3760.916748
1486.166016	3640.588867
1485.058594	3585.784668
1483.951172	3571.636719
1482.843750	3598.124756
1481.736328	3717.136963
1480.626953	3572.094727
1479.519531	3618.874512
1478.412109	3685.940186
1477.302734	3619.914795
1476.195313	3608.031982
1475.085938	3605.171631
1473.976563	3649.651367
1472.867188	3576.914307
1471.757813	3641.665283
1470.648438	3632.041260
1469.539063	3638.189697
1468.427734	3533.969482
1467.318359	3495.092285
1466.208984	3618.343994
1465.097656	3565.957764
1463.986328	3590.118164
1462.876953	3481.492188
1461.765625	3597.912598
1460.654297	3685.047607
1459.542969	3628.194824
1458.431641	3708.548096
1457.318359	3584.252686
1456.207031	3684.820068
1455.095703	3677.457275
1453.982422	3636.385254
1452.869141	3523.420166
1451.757813	3689.084229
1450.644531	3526.729004
1449.531250	3615.974121
1448.417969	3711.925781
1447.304688	3547.403076
1446.191406	3620.885742
1445.076172	3629.254883
1443.962891	3608.448486
1442.847656	3565.211914
1441.734375	3667.804688
1440.619141	3691.860352
1439.503906	3619.478027
1438.390625	3576.268311
1437.275391	3689.998779
1436.158203	3592.997314
1435.042969	3608.080322
1433.927734	3703.822510
1432.812500	3579.983643
1431.695313	3682.417725
1430.580078	3616.852051
1429.462891	3652.070313
1428.345703	3584.292725
1427.228516	3646.365234
1426.113281	3468.947510
1424.996094	3616.049316
1423.876953	3680.322266
1422.759766	3686.413818
1421.642578	3629.880615
1420.523438	3622.561523
1419.406250	3624.187988
1418.287109	3641.461426
1417.169922	3658.729004
1416.050781	3638.001709
1414.931641	3619.515381
1413.812500	3630.075928
1412.693359	3515.555664
1411.574219	3597.590332
1410.453125	3492.045166
1409.333984	3605.309326
1408.214844	3417.213379
1407.093750	3613.022461
1405.972656	3636.958252
1404.853516	3515.878418
1403.732422	3492.981445
1402.611328	3516.925049
1401.490234	3572.077148
1400.369141	3589.310791
1399.246094	3557.500488
1398.125000	3510.100342
1397.003906	3431.520264
1395.880859	3482.183838
1394.757813	3610.793213
1393.636719	3405.288818
1392.513672	3518.280273
1391.390625	3435.311523
1390.267578	3481.479248
1389.144531	3556.564697
1388.021484	3458.054199
1386.896484	3528.668213
1385.773438	3447.991455
1384.648438	3503.014160
1383.525391	3535.780762
1382.400391	3488.493896
1381.275391	3483.460449
1380.150391	3538.439453
1379.025391	3493.398193
1377.900391	3488.365967
1376.775391	3434.461914
1375.650391	3444.989014
1374.523438	3504.369385
1373.398438	3410.522461
1372.271484	3498.748535
1371.146484	3493.719727
1370.019531	3559.708984
1368.892578	3432.632080
1367.765625	3478.642578
1366.638672	3460.311279
1365.511719	3457.510254
1364.384766	3456.927490
1363.255859	3407.570313
1362.128906	3497.878662
1361.000000	3497.289063
1359.873047	3459.029053
1358.744141	3524.912109
1357.615234	3367.041504
1356.486328	3481.642822
1355.357422	3467.769287
1354.228516	3588.956787
1353.099609	3493.164063
1351.968750	3361.990723
1350.839844	3498.625000
1349.708984	3502.459961
1348.580078	3557.173828
1347.449219	3415.018799
1346.318359	3569.242676
1345.187500	3444.821777
1344.056641	3514.982422
1342.925781	3551.964844
1341.794922	3584.514893
1340.664063	3469.012939
1339.531250	3521.448242
1338.400391	3436.919189
1337.267578	3553.386963
1336.136719	3499.793701
1335.003906	3532.318848
1333.871094	3600.149902
1332.738281	3480.366943
1331.605469	3499.638916
1330.472656	3419.625000
1329.337891	3527.134033
1328.205078	3447.142090
1327.072266	3499.482422
1325.937500	3457.002197
1324.802734	3504.914551
1323.669922	3407.347900
1322.535156	3547.803467
1321.400391	3547.204834
1320.265625	3414.434326
1319.130859	3528.387451
1317.994141	3413.281738
1316.859375	3408.302002
1315.722656	3365.900391
1314.587891	3512.799316
1313.451172	3545.215820
1312.314453	3447.805664
1311.179688	3414.225342
1310.042969	3371.857910
1308.906250	3377.885986
1307.769531	3434.483643
1306.630859	3400.927734
1305.494141	3433.323730
1304.355469	3382.197754
1303.218750	3471.715332
1302.080078	3370.070801
1300.943359	3433.201416
1299.804688	3445.798340
1298.666016	3410.083496
1297.527344	3424.875488
1296.388672	3347.469727
1295.248047	3327.152100
1294.109375	3326.589844
1292.970703	3358.937012
1291.830078	3371.531006
1290.691406	3324.904053
1289.550781	3319.956543
1288.410156	3323.780273
1287.269531	3437.207764
1286.128906	3366.491455
1284.988281	3376.879395
1283.847656	3330.298096
1282.705078	3467.743896
1281.564453	3289.747803
1280.423828	3332.989258
1279.281250	3242.656250
1278.138672	3364.699707
1276.996094	3294.090332
1275.855469	3451.097900
1274.712891	3238.276123
1273.568359	3329.610107
1272.425781	3355.294434
1271.283203	3310.988770
1270.140625	3290.750000
1268.996094	3355.778809
1267.851563	3453.572754
1266.708984	3356.829346
1265.564453	3292.894775
1264.419922	3277.044922
1263.275391	3355.126465
1262.130859	3345.823242
1260.986328	3338.706543
1259.839844	3397.088623
1258.695313	3346.308594
1257.550781	3459.231445
1256.404297	3417.186035
1255.257813	3314.066162
1254.113281	3326.593750
1252.966797	3404.546875
1251.820313	3336.371338
1250.673828	3385.952881
1249.525391	3341.781982
1248.378906	3421.858887
1247.232422	3329.755127
1246.083984	3359.694824
1244.937500	3459.333496
1243.789063	3367.269775
1242.640625	3432.030518
1241.492188	3522.896729
1240.343750	3522.300537
1239.195313	3441.170898
1238.046875	3497.169922
1236.898438	3470.467773
1235.748047	3472.055664
1234.599609	3508.444580
1233.449219	3525.248535
1232.300781	3518.128418
1231.150391	3387.092773
1230.000000	3625.618896
1228.849609	3490.262451
1227.699219	3665.676025
1226.548828	3665.055176
1225.398438	3647.057373
1224.246094	3707.249756
1223.095703	3678.393311
1221.943359	3692.967773
1220.791016	3657.611084
1219.640625	3693.886963
1218.488281	3602.123291
1217.335938	3751.214600
1216.183594	3518.472656
1215.031250	3663.189453
1213.876953	3742.802734
1212.724609	3755.177246
1211.570313	3804.399170
1210.417969	3732.230957
1209.263672	3837.782227
1208.109375	3802.465576
1206.957031	3933.964355
1205.802734	3805.508789
1204.646484	3871.995605
1203.492188	3851.852783
1202.337891	3898.825928
1201.183594	3945.782715
1200.027344	4014.364502
1198.873047	4018.011230
1197.716797	3919.979736
1196.560547	4120.472168
1195.404297	4046.244629
1194.248047	4047.720947
1193.091797	4217.823242
1191.935547	4059.317627
1190.779297	4054.306885
1189.621094	4213.517090
1188.464844	4111.263184
1187.306641	4149.446777
1186.150391	4297.760742
1184.992188	4351.014648
1183.833984	4212.104492
1182.675781	4312.843262
1181.517578	4290.529297
1180.359375	4283.328125
1179.199219	4399.105469
1178.041016	4359.531250
1176.882813	4393.299805
1175.722656	4437.838379
1174.562500	4443.553711
1173.404297	4455.733398
1172.244141	4418.337402
1171.083984	4421.897949
1169.923828	4548.266113
1168.761719	4644.433105
1167.601563	4589.799316
1166.441406	4662.237793
1165.279297	4700.202148
1164.119141	4714.473633
1162.957031	4741.654297
1161.794922	4648.313477
1160.632813	4737.893066
1159.470703	4823.139160
1158.308594	4833.075195
1157.146484	4817.200684
1155.984375	4915.291016
1154.820313	4873.609863
1153.658203	4827.644043
1152.494141	4985.855957
1151.330078	5030.132324
1150.167969	5121.657227
1149.003906	5101.455566
1147.839844	5074.817871
1146.675781	5235.000000
1145.509766	5186.879395
1144.345703	5117.309570
1143.181641	5410.464355
1142.015625	5461.044434
1140.849609	5447.244141
1139.685547	5512.815918
1138.519531	5496.866211
1137.353516	5573.128418
1136.187500	5685.812012
1135.021484	5697.708008
1133.855469	5701.026367
1132.687500	5663.628418
1131.521484	5902.627930
1130.353516	5880.203613
1129.187500	5896.338379
1128.019531	6019.539063
1126.851563	6099.875977
1125.683594	6193.029785
1124.515625	6194.117676
1123.347656	6317.183105
1122.179688	6367.459961
1121.009766	6402.744629
1119.841797	6497.905273
1118.671875	6548.125000
1117.503906	6623.985352
1116.333984	6753.264160
1115.164063	6775.627441
1113.994141	6926.206543
1112.824219	6886.568359
1111.654297	7088.349121
1110.484375	7110.639160
1109.312500	7107.294434
1108.142578	7142.384766
1106.970703	7350.388184
1105.800781	7639.432617
1104.628906	7665.876953
1103.457031	7681.643555
1102.285156	7865.944824
1101.113281	7817.679688
1099.941406	8070.141113
1098.769531	8324.648438
1097.595703	8399.983398
1096.423828	8345.264648
1095.250000	8471.719727
1094.076172	8685.498047
1092.904297	8845.939453
1091.730469	8803.960938
1090.556641	8902.563477
1089.382813	8964.931641
1088.207031	9199.733398
1087.033203	9319.504883
1085.859375	9679.738281
1084.683594	9565.306641
1083.509766	9684.953125
1082.333984	9896.031250
1081.158203	9964.534180
1079.982422	10018.127930
1078.806641	10252.428711
1077.630859	10350.596680
1076.455078	10529.498047
1075.279297	10444.826172
1074.101563	10540.786133
1072.925781	10878.889648
1071.748047	10877.037109
1070.570313	11011.098633
1069.392578	11032.579102
1068.214844	11115.617188
1067.037109	11175.278320
1065.859375	11379.228516
1064.681641	11440.945313
1063.503906	11432.631836
1062.324219	11515.529297
1061.146484	11793.506836
1059.966797	11607.023438
1058.787109	11683.487305
1057.607422	11844.710938
1056.427734	11751.563477
1055.248047	11912.719727
1054.068359	11938.231445
1052.888672	12092.946289
1051.707031	12054.881836
1050.527344	12040.122070
1049.345703	12232.847656
1048.166016	12099.522461
1046.984375	12218.095703
1045.802734	12103.862305
1044.621094	12141.997070
1043.439453	12167.427734
1042.257813	12391.656250
1041.074219	12150.591797
1039.892578	12161.206055
1038.708984	12034.412109
1037.527344	12167.626953
1036.343750	12222.608398
1035.160156	12078.965820
1033.976563	12283.926758
1032.792969	12123.424805
1031.609375	12334.642578
1030.425781	12009.499023
1029.242188	12119.333984
1028.056641	11996.959961
1026.873047	11927.384766
1025.687500	11954.889648
1024.501953	11809.399414
1023.316406	11845.350586
1022.130859	11737.886719
1020.945313	11714.799805
1019.759766	11740.207031
1018.574219	11664.431641
1017.386719	11626.615234
1016.201172	11443.424805
1015.013672	11363.524414
1013.828125	11506.922852
1012.640625	11410.190430
1011.453125	11128.195313
1010.265625	11098.927734
1009.078125	10993.893555
1007.890625	11158.276367
1006.701172	11080.621094
1005.513672	10998.784180
1004.324219	10969.562500
1003.136719	10938.246094
1001.947266	10875.399414
1000.757813	10646.484375
999.568359	10716.135742
998.378906	10502.038086
997.189453	10477.130859
996.000000	10395.505859
994.808594	10360.121094
993.619141	10442.361328
992.427734	10333.484375
991.238281	10287.629883
990.046875	10054.964844
988.855469	10091.026367
987.664063	10022.152344
986.472656	10064.500977
985.281250	9804.761719
984.089844	9800.989258
982.896484	9591.710938
981.705078	9623.619141
980.511719	9791.774414
979.318359	9622.426758
978.126953	9534.864258
976.933594	9531.139648
975.740234	9596.546875
974.546875	9479.708984
973.351563	9279.145508
972.158203	9334.091797
970.964844	9359.711914
969.769531	9224.155273
968.574219	9017.493164
967.380859	9227.279297
966.185547	9259.174805
964.990234	8977.312500
963.794922	9044.790039
962.599609	8888.514648
961.402344	8947.622070
960.207031	8843.671875
959.009766	8967.550781
957.814453	8663.041016
956.617188	8686.628906
955.419922	8720.653320
954.222656	8785.991211
953.025391	8705.142578
951.828125	8620.145508
950.630859	8430.809570
949.433594	8512.847656
948.234375	8457.138672
947.037109	8436.916016
945.837891	8425.042969
944.638672	8237.986328
943.441406	8148.998047
942.242188	8205.979492
941.042969	8206.660156
939.841797	8165.657715
938.642578	8166.344238
937.443359	8242.033203
936.242188	8169.798828
935.042969	8085.092285
933.841797	8096.202637
932.640625	7988.635254
931.439453	7924.818848
930.238281	7938.031250
929.037109	7957.481934
927.835938	7793.834961
926.634766	7775.858887
925.431641	7537.423828
924.230469	7629.710938
923.027344	7511.972168
921.824219	7514.843750
920.623047	7546.812012
919.419922	7503.958496
918.216797	7409.175781
917.011719	7324.812012
915.808594	7406.638672
914.605469	7174.860840
913.400391	7161.174316
912.197266	7253.365234
910.992188	7171.174805
909.787109	7049.583008
908.582031	6992.353516
907.376953	6966.261230
906.171875	6906.991211
904.966797	6822.855469
903.761719	6912.918945
902.554688	6671.253906
901.349609	6784.112305
900.142578	6610.940918
898.935547	6640.889160
897.728516	6691.542969
896.521484	6543.332031
895.314453	6424.165039
894.107422	6319.533203
892.900391	6339.152832
891.693359	6333.926270
890.484375	6254.197754
889.275391	6188.980469
888.068359	6322.394531
886.859375	6246.844727
885.650391	6214.751953
884.441406	6122.704102
883.232422	6177.474609
882.023438	6116.470703
880.812500	5976.951660
879.603516	5949.063965
878.392578	5861.271484
877.183594	5913.973145
875.972656	6049.269043
874.761719	5949.114258
873.550781	5714.794922
872.339844	5899.596191
871.128906	5822.220215
869.916016	5792.332031
868.705078	5754.201172
867.494141	5753.214355
866.281250	5721.290039
865.068359	5730.619141
863.855469	5729.636230
862.642578	5726.591797
861.429688	5762.708008
860.216797	5541.224121
859.003906	5562.937012
857.791016	5448.682617
856.576172	5573.385742
855.363281	5547.717773
854.148438	5544.706543
852.933594	5494.349121
851.718750	5555.152832
850.503906	5473.942383
849.289063	5497.692871
848.074219	5404.176270
846.859375	5384.737305
845.642578	5254.255859
844.427734	5376.720215
843.210938	5328.514648
841.994141	5418.037598
840.777344	5334.905273
839.560547	5251.801270
838.343750	5400.866211
837.126953	5159.622070
835.910156	5333.294922
834.691406	5235.874512
833.474609	5335.568848
832.255859	5310.021484
831.039063	5329.631836
829.820313	5285.626953
828.601563	5309.336914
827.382813	5222.275879
826.164063	5235.734375
824.943359	5388.619629
823.724609	5276.987305
822.505859	5261.732422
821.285156	5318.211914
820.064453	5382.867676
818.845703	5316.383789
817.625000	5346.195313
816.404297	5398.524902
815.183594	5600.313965
813.960938	5468.324219
812.740234	5530.839844
811.519531	5521.702637
810.296875	5506.429688
809.074219	5640.511719
807.853516	5723.408691
806.630859	5585.397461
805.408203	5590.571777
804.185547	5718.412598
802.962891	5744.002930
801.738281	5716.446289
800.515625	5807.416992
799.291016	5736.954102
798.068359	5891.214355
796.843750	5798.294434
795.619141	5844.263184
794.394531	5880.008301
793.169922	5866.749023
791.945313	5980.033691
790.720703	5962.680176
789.496094	5959.613770
788.269531	5925.950195
787.042969	6149.282227
785.818359	5964.695313
784.591797	5933.085938
783.365234	6066.606445
782.138672	6024.799316
780.912109	6107.312988
779.685547	6110.336914
778.457031	6056.320313
777.230469	6077.682129
776.001953	6015.543945
774.775391	6085.770508
773.546875	6009.401855
772.318359	6199.690430
771.089844	6186.413086
769.861328	6199.590820
768.632813	6137.494141
767.402344	6044.909668
766.173828	6224.859375
764.943359	6254.286133
763.714844	6236.945801
762.484375	6158.634766
761.253906	6143.348633
760.023438	6345.476074
758.792969	6139.201172
757.562500	6270.168945
756.332031	6157.394531
755.099609	6142.120605
753.869141	6311.591309
752.636719	6231.343750
751.404297	6301.299316
750.173828	6304.271973
748.941406	6435.051270
747.708984	6502.906738
746.474609	6396.330078
745.242188	6356.702148
744.009766	6325.197266
742.775391	6540.991699
741.542969	6318.963867
740.308594	6664.365234
739.074219	6606.490723
737.839844	6544.585449
736.605469	6592.062500
735.371094	6671.920410
734.136719	6581.691895
732.900391	6679.741211
731.666016	6846.565918
730.429688	6746.235840
729.195313	6720.794922
727.958984	7019.005859
726.722656	6815.553711
725.486328	6800.223633
724.250000	6851.615723
723.013672	6767.558105
721.775391	7035.187012
720.539063	7017.808105
719.300781	6974.170898
718.064453	7104.266602
716.826172	7040.432617
715.587891	7166.432617
714.349609	7090.495605
713.111328	7135.700195
711.873047	7249.508301
710.632813	7353.187500
709.394531	7335.778809
708.154297	7366.787598
706.916016	7421.988281
705.675781	7414.657715
704.435547	7449.668945
703.195313	7533.046875
701.955078	7561.978516
700.714844	7480.068848
699.472656	7639.958496
698.232422	7876.339844
696.990234	7832.685059
695.750000	7815.223145
694.507813	7854.141113
693.265625	7957.461914
692.023438	8010.430176
690.781250	8135.823242
689.539063	8070.035156
688.296875	8082.723145
687.052734	8187.925293
685.810547	8439.888672
684.566406	8237.372070
683.322266	8378.676758
682.080078	8465.665039
680.835938	8492.335938
679.589844	8450.685547
678.345703	8565.738281
677.101563	8686.777344
675.857422	8753.553711
674.611328	8744.010742
673.365234	8848.895508
672.121094	8911.593750
670.875000	8861.891602
669.628906	8970.713867
668.382813	9223.934570
667.136719	9003.715820
665.888672	9170.612305
664.642578	9171.032227
663.396484	9367.911133
662.148438	9173.875000
660.900391	9456.856445
659.652344	9449.210938
658.404297	9479.629883
657.156250	9437.932617
655.908203	9664.597656
654.660156	9488.730469
653.412109	9358.966797
652.162109	9709.625000
650.912109	9711.948242
649.664063	9806.311523
648.414063	9682.583008
647.164063	9668.907227
645.914063	9859.219727
644.664063	9857.513672
643.412109	9891.793945
642.162109	9834.116211
640.912109	10004.282227
639.660156	10056.500977
638.408203	10120.687500
637.156250	9999.090820
635.906250	10127.170898
634.652344	10053.536133
633.400391	10081.742188
632.148438	10139.878906
630.896484	10311.749023
629.642578	10186.252930
628.390625	10346.084961
627.136719	10334.321289
625.882813	10304.612305
624.628906	10215.093750
623.375000	10504.394531
622.121094	10544.434570
620.867188	10415.061523
619.611328	10477.021484
618.357422	10564.858398
617.101563	10724.373047
615.845703	10634.887695
614.591797	10629.063477
613.335938	10720.793945
612.080078	10782.633789
610.822266	10810.619141
609.566406	10928.136719
608.310547	11065.507813
607.052734	10936.286133
605.796875	11358.004883
604.539063	11216.845703
603.281250	11439.558594
602.023438	11608.524414
600.765625	11519.066406
599.507813	11489.251953
598.250000	11538.916016
596.990234	11892.479492
595.732422	11781.186523
594.472656	11914.171875
593.212891	11983.580078
591.955078	12027.158203
590.695313	11973.472656
589.435547	12138.080078
588.173828	12314.534180
586.914063	12417.532227
585.654297	12183.334961
584.392578	12429.090820
583.132813	12456.674805
581.871094	12799.427734
580.609375	12555.415039
579.347656	12600.795898
578.085938	12743.240234
576.824219	12705.375000
575.562500	12942.816406
574.298828	13102.948242
573.037109	12906.650391
571.773438	13233.009766
570.509766	13109.986328
569.248047	13182.907227
567.984375	13230.082031
566.718750	13354.387695
565.455078	13302.625977
564.191406	13411.055664
562.927734	13462.110352
561.662109	13441.984375
560.396484	13475.227539
559.132813	13686.305664
557.867188	13843.964844
556.601563	13780.325195
555.335938	13835.209961
554.070313	14004.608398
552.802734	13881.742188
551.537109	14110.292969
550.269531	14172.974609
549.003906	14298.781250
547.736328	14219.352539
546.468750	14568.015625
545.201172	14372.200195
543.933594	14584.649414
542.666016	14639.293945
541.396484	14749.115234
540.128906	14973.211914
538.859375	15147.964844
537.591797	15326.597656
536.322266	15217.560547
535.052734	15275.974609
533.783203	15667.166016
532.513672	15831.800781
531.244141	15933.382813
529.972656	16070.357422
528.703125	16280.094727
527.431641	16535.011719
526.162109	16353.125000
524.890625	16775.119141
523.619141	16797.769531
522.347656	16944.279297
521.076172	17039.625000
519.804688	16930.527344
518.531250	17572.146484
517.259766	17294.023438
515.986328	17493.355469
514.712891	17749.576172
513.441406	17770.056641
512.167969	18145.906250
510.894531	17793.324219
509.621094	18259.324219
508.345703	18311.097656
507.072266	18260.824219
505.796875	18267.458984
504.523438	18315.277344
503.248047	18353.275391
501.972656	18310.869141
500.697266	18529.205078
499.421875	18586.742188
498.146484	18475.728516
496.871094	18593.992188
495.593750	18618.183594
494.318359	18601.234375
493.041016	18509.875000
491.765625	18338.271484
490.488281	18405.554688
489.210938	18419.968750
487.933594	18269.994141
486.654297	18405.732422
485.376953	18175.603516
484.099609	18190.044922
482.820313	18370.703125
481.541016	18318.625000
480.263672	18256.791016
478.984375	18042.521484
477.705078	18141.000000
476.425781	18368.400391
475.146484	18222.593750
473.865234	17867.847656
472.585938	17552.279297
471.304688	17584.369141
470.023438	17706.246094
468.744141	17224.962891
467.462891	17473.707031
466.181641	17478.468750
464.900391	17112.574219
463.617188	17251.978516
462.335938	17013.007813
461.054688	17064.638672
459.771484	16964.193359
458.488281	16963.187500
457.205078	16831.613281
455.921875	16709.826172
454.638672	16554.964844
453.355469	16657.259766
452.072266	16623.197266
450.789063	16519.052734
449.503906	16372.116211
448.218750	16357.584961
446.935547	16403.386719
445.650391	16242.923828
444.365234	16168.114258
443.080078	16229.482422
441.794922	16008.846680
440.507813	15969.113281
439.222656	15902.176758
437.935547	15994.645508
436.650391	15805.295898
435.363281	15899.691406
434.076172	15698.766602
432.789063	15591.142578
431.501953	15798.160156
430.214844	15863.364258
428.925781	15637.345703
427.638672	15655.969727
426.349609	15651.298828
425.062500	15671.852539
423.773438	15601.220703
422.484375	15478.242188
421.195313	15454.210938
419.906250	15538.767578
418.615234	15499.223633
417.326172	15417.050781
416.037109	15358.160156
414.746094	15237.287109
413.455078	15246.252930
412.164063	15348.186523
410.873047	15252.551758
409.582031	15031.093750
408.291016	15090.419922
407.000000	15182.629883
405.707031	15013.549805
404.416016	15039.953125
403.123047	14915.450195
401.832031	14806.464844
400.539063	14904.442383
399.246094	14851.568359
397.953125	14800.645508
396.658203	14695.619141
395.365234	14982.933594
394.072266	14848.927734
392.777344	14749.742188
391.482422	14347.341797
390.187500	14570.784180
388.894531	14417.633789
387.597656	14347.547852
386.302734	14557.361328
385.007813	14359.905273
383.712891	14494.391602
382.416016	14347.171875
381.121094	14385.170898
379.824219	14590.934570
378.527344	14276.025391
377.230469	14421.972656
375.933594	14294.166992
374.636719	14230.000977
373.337891	14266.050781
372.041016	14234.660156
370.742188	14162.832031
369.445313	14347.159180
368.146484	14207.943359
366.847656	14272.839844
365.548828	14170.255859
364.250000	14337.130859
362.951172	14355.789063
361.650391	14359.050781
360.351563	14368.081055
359.050781	14080.950195
357.751953	14211.159180
356.451172	14122.165039
355.150391	14369.567383
353.849609	14024.982422
352.548828	14299.213867
351.246094	14121.894531
349.945313	14052.198242
348.642578	14028.616211
347.341797	14135.606445
346.039063	14056.344727
344.736328	14040.450195
343.433594	13765.485352
342.130859	13883.958008
340.828125	13944.835938
339.523438	13998.019531
338.220703	13959.133789
336.916016	13893.416992
335.613281	13979.169922
334.308594	13664.298828
333.003906	13725.147461
331.699219	13699.752930
330.394531	13758.658203
329.089844	13875.002930
327.783203	13671.495117
326.478516	13693.993164
325.171875	13553.760742
323.865234	13384.867188
322.558594	13422.710938
321.251953	13655.705078
319.945313	13448.620117
318.638672	13327.677734
317.332031	13313.869141
316.023438	13309.625977
314.716797	13313.030273
313.408203	13234.244141
312.099609	13117.264648
310.791016	13227.698242
309.482422	13179.532227
308.173828	13381.595703
306.865234	13325.780273
305.556641	13239.434570
304.246094	13315.384766
302.935547	13042.018555
301.626953	13251.559570
300.316406	13413.327148
299.005859	13393.807617
297.695313	13099.636719
296.384766	12960.036133
295.072266	13259.019531
293.761719	13395.858398
292.449219	13210.533203
291.138672	13143.424805
289.826172	13266.873047
288.513672	13144.532227
287.201172	13212.701172
285.888672	13099.932617
284.574219	13029.091797
283.261719	13276.187500
281.947266	13178.693359
280.634766	13161.158203
279.320313	13078.938477
278.005859	13232.635742
276.691406	12967.838867
275.376953	13129.107422
274.062500	13090.679688
272.748047	13065.571289
271.431641	12852.305664
270.117188	12872.854492
268.800781	12916.196289
267.484375	13022.210938
266.167969	12987.637695
264.851563	12877.116211
263.535156	12933.714844
262.218750	12815.647461
260.900391	12915.889648
259.583984	13036.971680
258.265625	13023.299805
256.947266	12831.313477
255.630859	12921.998047
254.312500	13018.338867
252.994141	12945.902344
251.673828	12719.940430
250.355469	13115.727539
249.035156	12997.830078
247.716797	13020.178711
246.396484	12983.793945
245.076172	13133.034180
243.755859	12984.916016
242.435547	13090.555664
241.115234	13203.730469
239.794922	12961.041016
238.474609	13263.431641
237.152344	13291.375000
235.830078	13115.005859
234.509766	13012.459961
233.187500	13148.217773
231.865234	13087.296875
230.542969	13228.664063
229.218750	13213.109375
227.896484	13224.015625
226.572266	13338.832031
225.250000	13106.027344
223.925781	13201.936523
222.601563	13120.304688
221.277344	13295.473633
219.953125	13149.671875
218.628906	13271.925781
217.304688	13126.178711
215.978516	13082.364258
214.654297	13046.109375
213.328125	13185.268555
212.001953	13037.750977
210.675781	13284.328125
209.349609	13263.141602
208.023438	13087.416016
206.697266	13281.089844
205.371094	13210.928711
204.042969	13187.883789
202.714844	13121.529297
201.388672	13245.385742
200.060547	13307.068359
198.732422	13460.966797
197.404297	13479.300781
196.076172	13501.391602
194.746094	13382.370117
193.417969	13524.857422
192.087891	13509.312500
190.757813	13392.231445
189.429688	13822.291016
188.099609	13769.105469
186.769531	13885.084961
185.437500	13762.379883
184.107422	13953.468750
182.777344	13834.550781
181.445313	13916.629883
180.113281	13936.712891
178.783203	14157.673828
177.451172	14051.940430
176.119141	14038.206055
174.787109	14183.972656
173.453125	14006.997070
172.121094	13987.649414
170.787109	14137.096680
169.455078	14033.351563
168.121094	14107.746094
166.787109	14013.413086
165.453125	13971.587891
164.119141	14072.185547
162.785156	14264.546875
161.451172	14072.847656
160.115234	14178.991211
158.779297	14006.097656
157.445313	14217.054688
156.109375	14259.472656
154.773438	14243.860352
153.437500	14065.461914
152.101563	14149.041016
150.763672	14262.518555
149.427734	14396.526367
148.089844	14278.059570
146.753906	14641.965820
145.416016	14665.553711
144.078125	14418.149414
142.740234	14589.379883
141.402344	14797.913086
140.064453	14927.921875
138.724609	15298.794922
137.386719	14898.384766
136.046875	15207.524414
134.707031	15104.049805
133.367188	15288.006836
132.027344	15445.777344
130.687500	15594.163086
129.347656	15619.390625
128.007813	15553.229492
126.666016	15589.641602
125.326172	15540.285156
123.984375	15796.626953
122.642578	15609.345703
121.300781	15602.865234
119.958984	15827.388672
118.617188	15686.764648
117.273438	15730.552734
115.931641	15701.709961
114.587891	15849.729492
113.246094	15709.197266
111.902344	15782.723633
110.558594	15986.466797
109.214844	16098.983398
107.871094	16177.979492
106.525391	16163.965820
105.181641	15861.763672
103.835938	16087.618164
102.492188	16068.049805
101.146484	16156.270508
99.800781	16324.353516
98.455078	16302.893555
97.109375	16409.597656
95.763672	16423.412109
94.416016	16778.851563
93.070313	16883.556641
91.722656	16643.003906
90.375000	16898.005859
89.027344	16557.343750
87.679688	16636.041016
86.332031	16835.265625
84.984375	16986.205078
83.636719	16914.603516
82.287109	16952.396484
80.937500	16871.558594
79.589844	16881.548828
78.240234	16915.621094
76.890625	16690.339844
75.541016	17005.951172
74.189453	16927.021484
72.839844	16920.326172
71.490234	16452.707031
70.138672	16457.201172
68.787109	16365.469727
67.435547	16003.650391
66.085938	16004.520508
64.732422	15911.066406
63.380859	15865.721680
62.029297	15715.010742
60.675781	15623.503906
59.324219	15094.011719
57.970703	14405.791992
56.617188	14124.268555
55.263672	13602.709961
53.910156	13123.813477
52.556641	12761.416992
51.203125	12410.225586
