#Wave		#Intensity
4002.533203	1658.968140
4001.835938	1565.807861
4001.137695	1694.526489
4000.439453	1726.491455
3999.742188	1618.773193
3999.043945	1733.098022
3998.345703	1603.932007
3997.646484	1736.120483
3996.948242	1667.839355
3996.250000	1596.001709
3995.550781	1706.660156
3994.852539	1684.921875
3994.153320	1702.534790
3993.454102	1827.427490
3992.754883	1569.690186
3992.055664	1723.164185
3991.356445	1722.887207
3990.657227	1636.837158
3989.957031	1611.560913
3989.257813	1693.474731
3988.557617	1721.779785
3987.857422	1678.644043
3987.157227	1674.803345
3986.457031	1642.400269
3985.756836	1667.125244
3985.056641	1741.812378
3984.356445	1616.627441
3983.655273	1705.571167
3982.955078	1655.351196
3982.253906	1548.075317
3981.552734	1697.616211
3980.851563	1650.987305
3980.150391	1640.026245
3979.449219	1678.974365
3978.748047	1646.627441
3978.045898	1703.379761
3977.344727	1653.224243
3976.642578	1759.830933
3975.940430	1645.569214
3975.239258	1688.040039
3974.537109	1559.583862
3973.834961	1612.735107
3973.131836	1626.714111
3972.429688	1662.042480
3971.727539	1626.191406
3971.024414	1689.971069
3970.321289	1675.470581
3969.619141	1632.520996
3968.916016	1692.712769
3968.212891	1710.218506
3967.509766	1557.079712
3966.805664	1578.156006
3966.102539	1794.686401
3965.399414	1659.374023
3964.695313	1772.793579
3963.991211	1662.392944
3963.288086	1665.677490
3962.583984	1651.205933
3961.879883	1633.188599
3961.174805	1640.025879
3960.470703	1653.959473
3959.766602	1604.011963
3959.061523	1667.620605
3958.357422	1709.923462
3957.652344	1645.802979
3956.947266	1649.084961
3956.242188	1623.999146
3955.537109	1598.921265
3954.832031	1641.201050
3954.125977	1701.187744
3953.420898	1615.868774
3952.714844	1810.474365
3952.009766	1707.453003
3951.303711	1661.134399
3950.597656	1646.702393
3949.891602	1649.978638
3949.185547	1646.173462
3948.479492	1674.225830
3947.772461	1645.644653
3947.066406	1758.610840
3946.359375	1691.108643
3945.653320	1740.359375
3944.946289	1722.396118
3944.239258	1700.902466
3943.532227	1693.557983
3942.825195	1739.241577
3942.117188	1756.634644
3941.410156	1639.733521
3940.702148	1568.803345
3939.995117	1748.722900
3939.287109	1670.733521
3938.579102	1610.427246
3937.871094	1680.790039
3937.163086	1620.501587
3936.455078	1648.480835
3935.746094	1609.393066
3935.038086	1672.653076
3934.329102	1622.989136
3933.621094	1742.669312
3932.912109	1583.669678
3932.203125	1675.105347
3931.494141	1636.050659
3930.785156	1607.584717
3930.075195	1762.419556
3929.366211	1659.932617
3928.657227	1596.239380
3927.947266	1627.691284
3927.237305	1630.952515
3926.527344	1581.382446
3925.817383	1528.306885
3925.107422	1693.542725
3924.397461	1696.791138
3923.687500	1675.400269
3922.976563	1689.207886
3922.266602	1688.936768
3921.555664	1685.147461
3920.844727	1561.764771
3920.133789	1603.717163
3919.422852	1737.081299
3918.711914	1624.296997
3918.000977	1627.551392
3917.290039	1683.524780
3916.578125	1605.944214
3915.866211	1602.172852
3915.155273	1566.785889
3914.443359	1636.782593
3913.731445	1731.339600
3913.019531	1583.587769
3912.307617	1625.462158
3911.594727	1670.833252
3910.882813	1663.545776
3910.169922	1593.098267
3909.458008	1757.740234
3908.745117	1648.713135
3908.032227	1690.536499
3907.319336	1732.346436
3906.606445	1626.881958
3905.893555	1661.677368
3905.179688	1640.380005
3904.466797	1633.107666
3903.752930	1657.373291
3903.039063	1653.603760
3902.326172	1649.835571
3901.612305	1681.091187
3900.898438	1698.329834
3900.183594	1600.025024
3899.469727	1638.274658
3898.755859	1606.511475
3898.041016	1634.249390
3897.326172	1672.474976
3896.612305	1700.193237
3895.897461	1661.444702
3895.182617	1615.714233
3894.467773	1671.401367
3893.751953	1720.078491
3893.037109	1684.847046
3892.322266	1632.151978
3891.606445	1715.755859
3890.890625	1677.048218
3890.174805	1655.819336
3889.458984	1659.046265
3888.743164	1655.287842
3888.027344	1679.463379
3887.311523	1679.193848
3886.594727	1637.038452
3885.878906	1696.104492
3885.162109	1643.491821
3884.445313	1688.582520
3883.729492	1785.982422
3883.012695	1635.725342
3882.294922	1701.718140
3881.578125	1677.039185
3880.861328	1753.462158
3880.143555	1697.413574
3879.426758	1683.201660
3878.708984	1738.680786
3877.991211	1707.047852
3877.273438	1692.841064
3876.555664	1727.395874
3875.837891	1681.851440
3875.120117	1632.840088
3874.401367	1632.578125
3873.683594	1642.757324
3872.964844	1684.252075
3872.246094	1704.857544
3871.527344	1673.275391
3870.808594	1673.006836
3870.089844	1679.693604
3869.371094	1648.130493
3868.652344	1599.194824
3867.932617	1706.692749
3867.213867	1619.534058
3866.494141	1615.799316
3865.774414	1705.871338
3865.054688	1615.280884
3864.334961	1733.109253
3863.615234	1548.783081
3862.894531	1729.081177
3862.174805	1777.404663
3861.454102	1700.758789
3860.734375	1752.541626
3860.013672	1752.260498
3859.292969	1623.616455
3858.572266	1668.449219
3857.851563	1758.353516
3857.130859	1584.691528
3856.409180	1691.915527
3855.688477	1663.912231
3854.966797	1771.088989
3854.245117	1659.912964
3853.523438	1670.041138
3852.802734	1745.986816
3852.080078	1672.968994
3851.358398	1728.110962
3850.636719	1758.997070
3849.914063	1720.632446
3849.192383	1685.741577
3848.469727	1578.182373
3847.747070	1681.740356
3847.024414	1736.827637
3846.301758	1753.845337
3845.579102	1801.985840
3844.856445	1673.745117
3844.133789	1676.934204
3843.410156	1714.692627
3842.686523	1704.048096
3841.963867	1696.862915
3841.240234	1713.867554
3840.516602	1672.134766
3839.792969	1626.961060
3839.068359	1706.135498
3838.344727	1705.861816
3837.621094	1774.640381
3836.896484	1763.999512
3836.171875	1577.335571
3835.448242	1583.984375
3834.723633	1669.990112
3833.999023	1614.524902
3833.273438	1779.831543
3832.548828	1731.263794
3831.824219	1634.437134
3831.098633	1668.651245
3830.373047	1689.066040
3829.648438	1709.474243
3828.922852	1674.740356
3828.197266	1688.253296
3827.471680	1687.982544
3826.745117	1663.601685
3826.019531	1718.434937
3825.292969	1656.181641
3824.567383	1659.358643
3823.840820	1648.766113
3823.114258	1793.046753
3822.387695	1668.883301
3821.661133	1713.341431
3820.934570	1685.547485
3820.208008	1695.595093
3819.480469	1654.057739
3818.753906	1650.354248
3818.026367	1687.904053
3817.298828	1852.615845
3816.571289	1824.826050
3815.843750	1821.097290
3815.116211	1772.708496
3814.388672	1710.595459
3813.660156	1679.411743
3812.932617	1679.142334
3812.204102	1682.306396
3811.475586	1760.989258
3810.748047	1757.274658
3810.019531	1787.877441
3809.290039	1650.347778
3808.561523	1780.442993
3807.833008	1728.707886
3807.103516	1725.001221
3806.375000	1687.006958
3805.645508	1758.731201
3804.916016	1768.732544
3804.186523	1754.739990
3803.457031	1720.191772
3802.727539	1692.506958
3801.998047	1675.107666
3801.267578	1777.589844
3800.538086	1794.427246
3799.807617	1705.117188
3799.077148	1787.005005
3798.346680	1680.610596
3797.616211	1731.675293
3796.885742	1727.975952
3796.155273	1645.590332
3795.423828	1710.318604
3794.693359	1706.624268
3793.961914	1720.028809
3793.230469	1709.495972
3792.500000	1654.526733
3791.768555	1640.589844
3791.036133	1712.091064
3790.304688	1780.152588
3789.573242	1660.298340
3788.840820	1728.346069
3788.109375	1724.653809
3787.376953	1717.548096
3786.644531	1662.647705
3785.912109	1624.832397
3785.179688	1679.179321
3784.447266	1702.797119
3783.714844	1757.114014
3782.981445	1692.017090
3782.249023	1701.978149
3781.515625	1681.243774
3780.782227	1742.348511
3780.048828	1704.568726
3779.315430	1683.843872
3778.582031	1748.326660
3777.848633	1621.968994
3777.114258	1727.324341
3776.380859	1761.111450
3775.646484	1777.858398
3774.912109	1777.573364
3774.177734	1681.954834
3773.443359	1698.706299
3772.708984	1708.645020
3771.974609	1667.533447
3771.240234	1657.058350
3770.504883	1697.617188
3769.770508	1724.556885
3769.035156	1669.865234
3768.299805	1775.010010
3767.564453	1716.927856
3766.829102	1689.458130
3766.093750	1855.726807
3765.357422	1777.270264
3764.622070	1790.576050
3763.885742	1742.729126
3763.150391	1643.948608
3762.414063	1759.150513
3761.677734	1748.682007
3760.941406	1850.250244
3760.205078	1805.826294
3759.467773	1693.539185
3758.731445	1744.167603
3757.994141	1720.138550
3757.257813	1699.509277
3756.520508	1644.969849
3755.783203	1790.525391
3755.045898	1674.957886
3754.308594	1684.859497
3753.571289	1840.507202
3752.833008	1708.042236
3752.095703	1714.545166
3751.357422	1727.821899
3750.619141	1730.932251
3749.880859	1744.202026
3749.142578	1760.853638
3748.404297	1801.199951
3747.666016	1733.207764
3746.927734	1709.237549
3746.188477	1732.652100
3745.450195	1756.059204
3744.710938	1742.245605
3743.971680	1735.201416
3743.232422	1832.998901
3742.493164	1805.654053
3741.753906	1741.128784
3741.013672	1703.666504
3740.274414	1754.089600
3739.534180	1679.465820
3738.794922	1797.449951
3738.054688	1797.161743
3737.314453	1709.056641
3736.574219	1874.257568
3735.833984	1830.062744
3735.092773	1782.505859
3734.352539	1761.967651
3733.611328	1650.314331
3732.871094	1889.627563
3732.129883	1821.848755
3731.388672	1727.105713
3730.647461	1858.364624
3729.906250	1733.296387
3729.165039	1773.478149
3728.422852	1817.018066
3727.681641	1880.767212
3726.939453	1826.545654
3726.197266	1863.317017
3725.455078	1761.950439
3724.712891	1714.510498
3723.970703	1815.271240
3723.228516	1835.184082
3722.486328	1693.485596
3721.743164	1794.201050
3721.000977	1800.644897
3720.257813	1770.069946
3719.514648	1796.703125
3718.771484	1735.861816
3718.028320	1853.307251
3717.285156	1789.113281
3716.541016	1872.887939
3715.797852	1812.073242
3715.053711	1902.539917
3714.310547	1835.018188
3713.566406	1868.327148
3712.822266	1958.741211
3712.078125	1854.291382
3711.333008	1924.526489
3710.588867	1860.413330
3709.844727	1786.247681
3709.099609	1822.889160
3708.354492	1896.440674
3707.610352	1886.068726
3706.865234	1932.742920
3706.120117	1878.754395
3705.374023	1848.263916
3704.628906	1851.321411
3703.883789	1985.156982
3703.137695	1890.961304
3702.391602	1867.192627
3701.646484	1830.024658
3700.900391	1896.754517
3700.154297	2040.527100
3699.408203	1899.496704
3698.661133	1946.085815
3697.915039	1959.169922
3697.167969	1922.022827
3696.421875	1894.931274
3695.674805	1944.838501
3694.927734	1947.873657
3694.180664	1887.327637
3693.433594	2007.473633
3692.686523	1890.067993
3691.938477	2006.830200
3691.191406	1969.722534
3690.443359	1812.255493
3689.695313	1979.120483
3688.947266	1905.266724
3688.199219	2048.668945
3687.451172	1881.265625
3686.703125	2027.966553
3685.955078	1980.875488
3685.206055	2050.695801
3684.458008	1993.598145
3683.708984	1953.212646
3682.959961	1922.854980
3682.210938	2036.030518
3681.461914	1955.610962
3680.712891	1968.644287
3679.962891	1951.648071
3679.213867	2074.752930
3678.463867	1961.027710
3677.714844	2040.742554
3676.964844	1970.401245
3676.214844	2073.423340
3675.464844	2116.419189
3674.713867	2086.088379
3673.963867	2085.754150
3673.213867	2062.100342
3672.462891	2058.439209
3671.711914	2091.412109
3670.961914	2134.363525
3670.210938	2104.058594
3669.459961	2093.735352
3668.708008	2169.947021
3667.957031	2169.599365
3667.206055	2209.176514
3666.454102	2172.230469
3665.702148	2125.318359
3664.950195	2228.067383
3664.199219	2174.511230
3663.446289	2190.784668
3662.694336	2250.263428
3661.942383	2180.112549
3661.190430	2312.675537
3660.437500	2269.115479
3659.684570	2212.281982
3658.932617	2291.636719
3658.179688	2261.383301
3657.426758	2360.625244
3656.672852	2217.503418
3655.919922	2373.145020
3655.166992	2362.809082
3654.413086	2332.568359
3653.659180	2348.781982
3652.906250	2394.843018
3652.152344	2424.306885
3651.398438	2417.286621
3650.644531	2446.737549
3649.889648	2436.400879
3649.135742	2472.467773
3648.380859	2419.051270
3647.626953	2491.554932
3646.872070	2467.966553
3646.117188	2504.005127
3645.362305	2513.538818
3644.607422	2460.158203
3643.851563	2565.702637
3643.096680	2532.190918
3642.341797	2574.808838
3641.585938	2458.581543
3640.830078	2600.451416
3640.074219	2616.574219
3639.318359	2794.754639
3638.562500	2609.122070
3637.806641	2651.686279
3637.049805	2714.071777
3636.293945	2640.920654
3635.537109	2597.535645
3634.780273	2570.685547
3634.024414	2656.169678
3633.267578	2721.807373
3632.509766	2741.187012
3631.752930	2714.330811
3630.996094	2651.166016
3630.238281	2687.052734
3629.481445	2798.839600
3628.723633	2874.291016
3627.965820	2877.129639
3627.208008	2705.124268
3626.450195	2843.223633
3625.692383	2753.725342
3624.933594	2687.337158
3624.175781	2855.044189
3623.416992	2696.364746
3622.658203	2883.791260
3621.899414	2797.653076
3621.140625	2665.416504
3620.381836	2869.228271
3619.623047	2868.768555
3618.864258	2901.239990
3618.104492	2772.364014
3617.345703	2804.840332
3616.585938	2889.970947
3615.826172	3011.275146
3615.066406	2984.468750
3614.306641	2934.641113
3613.546875	2858.513916
3612.786133	2887.656006
3612.026367	2926.653809
3611.265625	3021.532471
3610.504883	2978.312988
3609.744141	2954.828125
3608.983398	2970.785889
3608.222656	2940.738281
3607.461914	2956.693115
3606.701172	2887.240723
3605.939453	3070.691162
3605.178711	3060.348145
3604.416992	2990.912598
3603.655273	3079.062988
3602.893555	3219.697998
3602.131836	3032.134766
3601.370117	3057.896973
3600.607422	3034.443604
3599.845703	2922.438721
3599.083008	2977.720703
3598.320313	3039.542725
3597.557617	3019.385498
3596.794922	2995.956543
3596.032227	3083.964355
3595.269531	3096.577393
3594.506836	3001.069092
3593.743164	3128.342529
3592.980469	3144.217285
3592.216797	3156.812256
3591.453125	2999.145752
3590.689453	3119.790283
3589.925781	3302.585449
3589.162109	3210.423340
3588.397461	3121.562744
3587.633789	3202.851318
3586.869141	3153.272705
3586.104492	3257.423584
3585.339844	3227.471680
3584.575195	3181.182129
3583.810547	3095.680176
3583.045898	3095.184082
3582.281250	3065.277100
3581.515625	3153.004639
3580.750977	3096.963135
3579.985352	3027.874268
3579.219727	3154.754883
3578.454102	3131.392334
3577.688477	3232.097656
3576.921875	3078.161377
3576.156250	3165.787842
3575.390625	3080.437988
3574.624023	3249.602295
3573.857422	3170.790283
3573.090820	3235.514404
3572.324219	3098.030273
3571.557617	3009.498779
3570.791016	3305.679932
3570.023438	3187.807617
3569.256836	3056.937012
3568.489258	3128.133545
3567.722656	3147.179932
3566.955078	3019.635986
3566.187500	3178.740479
3565.418945	3061.001221
3564.651367	3145.163086
3563.883789	3193.489014
3563.115234	3127.880859
3562.347656	3234.771484
3561.579102	3185.446533
3560.810547	3292.293457
3560.041992	3015.283447
3559.273438	3083.096680
3558.503906	3219.173584
3557.735352	3030.089844
3556.966797	3045.857422
3556.197266	3090.871094
3555.427734	3113.123047
3554.658203	3145.114990
3553.888672	3040.656982
3553.119141	2913.495850
3552.349609	3046.177490
3551.579102	2954.773193
3550.809570	2983.518066
3550.039063	3171.305664
3549.268555	3125.361328
3548.498047	3069.696777
3547.727539	3127.604004
3546.957031	3153.053955
3546.186523	3168.765381
3545.415039	3119.614990
3544.644531	2992.664307
3543.873047	3060.262695
3543.101563	3166.734619
3542.330078	3146.782471
3541.558594	2984.265869
3540.787109	3174.931396
3540.015625	3171.183350
3539.243164	3190.107422
3538.471680	3141.023682
3537.699219	3027.202393
3536.926758	3253.316406
3536.154297	3035.942139
3535.381836	3077.524658
3534.609375	3099.680420
3533.836914	3024.777588
3533.063477	3143.970703
3532.291016	3078.786377
3531.517578	3071.825928
3530.744141	3032.537842
3529.970703	3083.771240
3529.197266	3041.261719
3528.423828	3044.005615
3527.649414	3101.674316
3526.875977	3010.726074
3526.101563	3220.185547
3525.328125	3061.430908
3524.553711	3041.567139
3523.779297	3102.417969
3523.004883	3127.743164
3522.229492	3153.060059
3521.455078	3039.617676
3520.680664	3026.225586
3519.905273	3116.061279
3519.129883	3109.111328
3518.354492	3079.590820
3517.579102	2985.595703
3516.803711	2962.551514
3516.028320	3091.002930
3515.252930	3042.167969
3514.476563	2957.905273
3513.700195	3008.976807
3512.924805	3037.484375
3512.148438	2998.350586
3511.372070	2975.329834
3510.595703	3129.390625
3509.818359	3058.070557
3509.041992	3012.521484
3508.264648	2973.422607
3507.488281	2915.031494
3506.710938	2937.083008
3505.933594	2888.365723
3505.156250	3000.460205
3504.378906	2958.178955
3503.601563	3057.366455
3502.823242	3040.804688
3502.045898	3040.317139
3501.267578	2904.869141
3500.489258	3023.278564
3499.710938	3032.430908
3498.932617	2929.166992
3498.154297	3018.613770
3497.375977	3018.129883
3496.596680	2889.235596
3495.818359	2985.064941
3495.039063	3071.235840
3494.259766	2984.108154
3493.480469	2945.131348
3492.701172	2983.151611
3491.921875	2992.294922
3491.142578	2876.375488
3490.362305	3020.191162
3489.582031	2939.566162
3488.802734	2955.120605
3488.022461	2980.283691
3487.242188	2947.765137
3486.461914	3075.435791
3485.681641	2934.008057
3484.900391	2859.878906
3484.120117	2929.865479
3483.338867	2862.163818
3482.557617	2941.730225
3481.777344	2842.043213
3480.996094	2966.387207
3480.213867	2943.515381
3479.432617	2987.828857
3478.651367	2945.770264
3477.869141	2871.745605
3477.087891	2871.285156
3476.305664	2890.006348
3475.523438	2844.793457
3474.741211	2834.749756
3473.958984	2834.295410
3473.175781	2859.399902
3472.393555	2938.800293
3471.610352	2970.267578
3470.828125	2867.605225
3470.044922	2969.315430
3469.261719	2847.531982
3468.478516	2885.376953
3467.695313	2865.766846
3466.911133	2827.018311
3466.127930	2903.131104
3465.343750	2953.701660
3464.560547	2787.388184
3463.776367	2943.188477
3462.992188	2891.705322
3462.208008	2830.675537
3461.423828	2855.719238
3460.638672	2826.581543
3459.854492	2797.452881
3459.069336	2975.400879
3458.285156	2799.741211
3457.500000	2824.769287
3456.714844	2827.500732
3455.929688	2855.699951
3455.143555	2778.847656
3454.358398	2867.514648
3453.572266	2784.320801
3452.787109	2758.421875
3452.000977	2872.497803
3451.214844	2837.051270
3450.428711	2995.598633
3449.642578	2804.346436
3448.856445	2794.359863
3448.069336	2806.625732
3447.283203	2736.259766
3446.496094	2783.483643
3445.708984	2808.453125
3444.921875	2769.885254
3444.134766	2772.617188
3443.347656	2730.891602
3442.560547	2743.153564
3441.772461	2787.156006
3440.985352	2742.274170
3440.197266	2741.834473
3439.409180	2722.357422
3438.621094	2880.541016
3437.833008	2743.687744
3437.044922	2673.477539
3436.256836	2841.105225
3435.467773	2717.005371
3434.679688	2795.816162
3433.890625	2770.013184
3433.101563	2677.672607
3432.312500	2816.649902
3431.523438	2717.995850
3430.734375	2647.878906
3429.944336	2631.620361
3429.155273	2688.191895
3428.365234	2719.418701
3427.575195	2728.478760
3426.785156	2645.756836
3425.995117	2702.289551
3425.205078	2692.364990
3424.415039	2786.831055
3423.624023	2764.244873
3422.833984	2697.394531
3422.042969	2807.622803
3421.251953	2617.498779
3420.460938	2797.240479
3419.669922	2689.344482
3418.878906	2777.385254
3418.087891	2691.641357
3417.295898	2637.511963
3416.504883	2659.196289
3415.712891	2646.139160
3414.920898	2686.758301
3414.128906	2579.000488
3413.336914	2704.833496
3412.544922	2758.046143
3411.752930	2700.811035
3410.959961	2649.903564
3410.166992	2636.862061
3409.375000	2649.053711
3408.582031	2680.160400
3407.789063	2667.120117
3406.996094	2632.019043
3406.202148	2631.596924
3405.409180	2738.312744
3404.615234	2652.807373
3403.822266	2520.077881
3403.028320	2683.452393
3402.234375	2613.742188
3401.440430	2742.414795
3400.646484	2672.717529
3399.851563	2703.764648
3399.057617	2545.977539
3398.262695	2605.354004
3397.468750	2586.059814
3396.673828	2648.556152
3395.878906	2723.612549
3395.083984	2547.081299
3394.288086	2543.528809
3393.493164	2593.417480
3392.698242	2482.995361
3391.902344	2492.024658
3391.106445	2425.642578
3390.310547	2481.801025
3389.514648	2641.594727
3388.718750	2452.740234
3387.922852	2518.287109
3387.125977	2502.185791
3386.330078	2573.981445
3385.533203	2548.460693
3384.736328	2585.708008
3383.939453	2569.605713
3383.142578	2481.357910
3382.345703	2622.101807
3381.548828	2496.241943
3380.750977	2618.125244
3379.954102	2511.116211
3379.156250	2623.554443
3378.358398	2504.042725
3377.560547	2641.513672
3376.762695	2540.835205
3375.964844	2593.679443
3375.166016	2474.249023
3374.368164	2448.800537
3373.569336	2551.729248
3372.771484	2545.059082
3371.972656	2544.650879
3371.173828	2597.443359
3370.374023	2500.029297
3369.575195	2512.142090
3368.776367	2505.483154
3367.976563	2520.718506
3367.176758	2532.822021
3366.377930	2460.507568
3365.578125	2450.735107
3364.778320	2578.484863
3363.977539	2503.072754
3363.177734	2483.924805
3362.377930	2499.145996
3361.577148	2495.621582
3360.776367	2479.606689
3359.975586	2435.494873
3359.174805	2488.177002
3358.374023	2518.992188
3357.573242	2584.127441
3356.772461	2415.209961
3355.970703	2542.739502
3355.168945	2526.734375
3354.368164	2457.712646
3353.566406	2566.463379
3352.764648	2550.461914
3351.961914	2465.882324
3351.160156	2428.083740
3350.358398	2490.022705
3349.555664	2511.434570
3348.752930	2486.108398
3347.950195	2423.411133
3347.147461	2304.674072
3346.344727	2500.481689
3345.541992	2506.307373
3344.739258	2337.807373
3343.935547	2409.018066
3343.132813	2505.101318
3342.329102	2417.579346
3341.525391	2494.964844
3340.721680	2463.460205
3339.917969	2459.955078
3339.113281	2412.918945
3338.309570	2487.145996
3337.504883	2424.578369
3336.701172	2477.024170
3335.896484	2498.378906
3335.091797	2470.015625
3334.287109	2413.703369
3333.482422	2500.282471
3332.676758	2499.881348
3331.872070	2521.214844
3331.066406	2489.765869
3330.260742	2421.079346
3329.455078	2457.932373
3328.649414	2454.435059
3327.843750	2447.836426
3327.038086	2450.545410
3326.232422	2487.369873
3325.425781	2415.648682
3324.619141	2474.169678
3323.812500	2417.973389
3323.006836	2507.469971
3322.199219	2414.098389
3321.392578	2515.960693
3320.585938	2394.735840
3319.778320	2403.644043
3318.971680	2332.027832
3318.164063	2303.785156
3317.356445	2417.967041
3316.548828	2377.337646
3315.741211	2457.426025
3314.933594	2367.291260
3314.125000	2419.509277
3313.317383	2450.056152
3312.508789	2523.895264
3311.700195	2344.124512
3310.891602	2396.312500
3310.083008	2383.561768
3309.274414	2389.361328
3308.465820	2395.158936
3307.656250	2434.945068
3306.847656	2375.853027
3306.038086	2384.738770
3305.228516	2294.788330
3304.418945	2387.061523
3303.609375	2380.503418
3302.799805	2370.860107
3301.989258	2373.566162
3301.179688	2323.808105
3300.369141	2298.750732
3299.558594	2477.316162
3298.748047	2319.604980
3297.937500	2365.493896
3297.126953	2386.699219
3296.316406	2315.405029
3295.504883	2392.098389
3294.694336	2348.564941
3293.882813	2379.004150
3293.071289	2480.299072
3292.259766	2402.885498
3291.448242	2337.817139
3290.636719	2334.362305
3289.824219	2352.462402
3289.012695	2401.343018
3288.200195	2333.238281
3287.387695	2388.261719
3286.575195	2363.260986
3285.762695	2356.728271
3284.950195	2442.482910
3284.137695	2346.744629
3283.324219	2404.796631
3282.511719	2256.825195
3281.698242	2419.395508
3280.884766	2379.049072
3280.071289	2194.274414
3279.257813	2332.194580
3278.444336	2356.397949
3277.629883	2306.871826
3276.816406	2334.142822
3276.001953	2361.404785
3275.187500	2443.922607
3274.373047	2382.135010
3273.558594	2258.981689
3272.744141	2350.682373
3271.929688	2252.119873
3271.114258	2435.825928
3270.299805	2417.031006
3269.484375	2376.774414
3268.668945	2186.281494
3267.853516	2372.945557
3267.038086	2381.760498
3266.221680	2418.156250
3265.406250	2335.030518
3264.590820	2395.932861
3263.774414	2361.851074
3262.958008	2352.283447
3262.141602	2263.096680
3261.325195	2397.456299
3260.508789	2228.694824
3259.691406	2252.823975
3258.875000	2280.006104
3258.057617	2310.239258
3257.241211	2273.155029
3256.423828	2333.968750
3255.606445	2290.775879
3254.788086	2308.755615
3253.970703	2271.695557
3253.153320	2317.185303
3252.334961	2295.417725
3251.516602	2417.288818
3250.699219	2325.235596
3249.880859	2248.487061
3249.062500	2336.707031
3248.243164	2342.439941
3247.424805	2265.725342
3246.605469	2341.687744
3245.787109	2347.416748
3244.967773	2331.779297
3244.148438	2416.849121
3243.329102	2215.089355
3242.509766	2281.846680
3241.690430	2403.484375
3240.870117	2360.403809
3240.050781	2311.238770
3239.230469	2408.424072
3238.410156	2322.688965
3237.589844	2371.078613
3236.769531	2373.744873
3235.949219	2348.990234
3235.127930	2369.936279
3234.307617	2296.458984
3233.486328	2366.129883
3232.665039	2277.452881
3231.843750	2325.794922
3231.022461	2319.333740
3230.201172	2264.182617
3229.379883	2388.572510
3228.557617	2345.596924
3227.736328	2369.554688
3226.914063	2268.811035
3226.091797	2253.242432
3225.269531	2280.243652
3224.447266	2319.395264
3223.625000	2315.983154
3222.801758	2349.038574
3221.979492	2272.702148
3221.156250	2363.473633
3220.333008	2399.542725
3219.509766	2238.201172
3218.686523	2368.407471
3217.863281	2207.122803
3217.039063	2288.725098
3216.215820	2224.623535
3215.391602	2287.989990
3214.567383	2324.030273
3213.744141	2214.450928
3212.918945	2283.854492
3212.094727	2362.333008
3211.270508	2304.344971
3210.446289	2270.627686
3209.621094	2297.542480
3208.795898	2254.745361
3207.970703	2266.503418
3207.145508	2254.020996
3206.320313	2293.037354
3205.495117	2216.953369
3204.669922	2295.328613
3203.843750	2346.429932
3203.017578	2243.129395
3202.192383	2254.875732
3201.366211	2315.037354
3200.539063	2281.382568
3199.712891	2311.268066
3198.886719	2150.585938
3198.059570	2216.773926
3197.233398	2270.845459
3196.406250	2315.829590
3195.579102	2351.730957
3194.751953	2330.197021
3193.924805	2257.298828
3193.097656	2275.064209
3192.269531	2229.385986
3191.442383	2331.719971
3190.614258	2394.762695
3189.786133	2228.311279
3188.958008	2303.426025
3188.129883	2315.129639
3187.301758	2284.578125
3186.472656	2235.931885
3185.644531	2169.199219
3184.815430	2217.114258
3183.986328	2298.189941
3183.157227	2285.758545
3182.328125	2312.526611
3181.499023	2128.267578
3180.669922	2356.994141
3179.839844	2278.262451
3179.010742	2326.105713
3178.180664	2322.719238
3177.350586	2295.236816
3176.520508	2207.530518
3175.690430	2261.376465
3174.859375	2221.874268
3174.029297	2224.527344
3173.198242	2176.014648
3172.368164	2277.978271
3171.537109	2271.594727
3170.706055	2199.031494
3169.875000	2231.763672
3169.042969	2225.390381
3168.211914	2206.991699
3167.379883	2239.706543
3166.548828	2182.235596
3165.716797	2208.933105
3164.884766	2238.626709
3164.052734	2238.266846
3163.220703	2261.938232
3162.387695	2303.622559
3161.555664	2285.234619
3160.722656	2251.840332
3159.889648	2302.511719
3159.056641	2302.141602
3158.223633	2331.781738
3157.390625	2214.386475
3156.557617	2214.030518
3155.723633	2213.674561
3154.890625	2165.333252
3154.056641	2242.948730
3153.222656	2173.631592
3152.388672	2251.220459
3151.554688	2307.804443
3150.720703	2187.566650
3149.885742	2241.146240
3149.051758	2129.945068
3148.216797	2282.358887
3147.381836	2171.186523
3146.546875	2275.636475
3145.711914	2293.233154
3144.876953	2224.018799
3144.041992	2328.409668
3143.206055	2211.334229
3142.370117	2207.986816
3141.535156	2171.735352
3140.699219	2180.358887
3139.863281	2284.672607
3139.026367	2353.073486
3138.190430	2260.022461
3137.354492	2214.824463
3136.517578	2112.859863
3135.680664	2130.447998
3134.843750	2261.556641
3134.006836	2120.801758
3133.169922	2284.721680
3132.333008	2284.354492
3131.495117	2275.030273
3130.658203	2250.783447
3129.820313	2205.651855
3128.982422	2065.041260
3128.144531	2195.991211
3127.306641	2237.403076
3126.468750	2204.233154
3125.629883	2272.470459
3124.791992	2188.615479
3123.953125	2203.169922
3123.114258	2170.026611
3122.275391	2157.756348
3121.436523	2079.933350
3120.597656	2183.876709
3119.758789	2153.736572
3118.918945	2239.763916
3118.079102	2170.911377
3117.240234	2128.877930
3116.400391	2095.788818
3115.560547	2214.511475
3114.719727	2092.138672
3113.879883	2192.970215
3113.040039	2192.617432
3112.199219	2100.052979
3111.358398	2206.782715
3110.517578	2132.087158
3109.676758	2256.616211
3108.835938	2226.526611
3107.995117	2142.947021
3107.153320	2246.612305
3106.312500	2112.545410
3105.470703	2133.000732
3104.628906	2189.093018
3103.787109	2156.072998
3102.945313	2105.247803
3102.103516	2235.538086
3101.260742	2238.146729
3100.418945	2098.295898
3099.576172	2219.622314
3098.733398	2251.901367
3097.890625	2207.042236
3097.047852	2194.823242
3096.205078	2259.711182
3095.361328	2158.536621
3094.518555	2081.111328
3093.674805	2128.201416
3092.831055	2279.002197
3091.987305	2180.852783
3091.143555	2121.249023
3090.299805	2100.172607
3089.456055	2123.528076
3088.611328	2238.673584
3087.766602	2137.648438
3086.922852	2169.867432
3086.078125	2113.282471
3085.233398	2186.924805
3084.387695	2177.696533
3083.542969	2162.554199
3082.698242	2111.922363
3081.852539	2155.943604
3081.006836	2075.759766
3080.161133	2214.378662
3079.315430	2184.462646
3078.469727	2133.867676
3077.624023	2098.063965
3076.777344	2150.907959
3075.931641	2177.148438
3075.084961	2241.777100
3074.238281	2111.479248
3073.391602	2119.997314
3072.544922	2166.890625
3071.698242	2116.363281
3070.850586	2127.827393
3070.003906	2103.878906
3069.156250	2071.087402
3068.308594	2129.750000
3067.460938	2191.342773
3066.613281	2096.627197
3065.765625	2164.102051
3064.916992	2154.910156
3064.069336	2151.615723
3063.220703	2127.693848
3062.372070	2174.494873
3061.523438	2165.306885
3060.674805	2203.250000
3059.826172	2120.434082
3058.976563	2202.540771
3058.127930	2125.639648
3057.278320	2169.451904
3056.428711	2089.637451
3055.579102	2207.008057
3054.729492	2136.040039
3053.879883	2194.530762
3053.030273	2144.176025
3052.179688	2143.830811
3051.330078	2117.022705
3050.479492	2169.599121
3049.628906	2131.038086
3048.778320	2189.472656
3047.926758	2098.029297
3047.076172	2103.567383
3046.225586	2056.229004
3045.374023	2047.087036
3044.522461	2149.535645
3043.670898	2166.805908
3042.819336	2154.714844
3041.967773	2113.276367
3041.116211	2115.870605
3040.263672	2171.279053
3039.412109	2129.857666
3038.559570	2164.713379
3037.707031	2214.221436
3036.854492	2081.912598
3036.001953	2166.599365
3035.148438	2090.036133
3034.295898	2142.454834
3033.442383	2147.970703
3032.589844	2182.783691
3031.736328	2085.760498
3030.882813	1988.768799
3030.028320	2158.301270
3029.174805	2055.472656
3028.321289	2005.373291
3027.466797	2063.592041
3026.612305	2069.112793
3025.758789	2118.523926
3024.904297	2001.156006
3024.048828	2088.589600
3023.194336	2170.145264
3022.339844	2149.326172
3021.484375	2119.741943
3020.628906	2125.247314
3019.773438	2101.522217
3018.917969	2121.640137
3018.062500	2170.970703
3017.207031	2164.778076
3016.351563	2082.642578
3015.495117	2131.955322
3014.638672	2084.891602
3013.782227	1979.452148
3012.925781	2113.410889
3012.069336	2142.256348
3011.212891	2141.911133
3010.356445	2144.483887
3009.499023	2147.055420
3008.641602	2038.790771
3007.785156	2099.703613
3006.927734	2058.544434
3006.069336	2023.228882
3005.211914	2011.243530
3004.354492	2045.892090
3003.496094	2042.648438
3002.638672	2129.722412
3001.780273	2012.860596
3000.921875	2239.711182
3000.063477	2134.517090
2999.204102	2020.622437
2998.345703	2090.163086
2997.486328	2150.949219
2996.627930	2185.524414
2995.768555	2092.062500
2994.909180	2036.450195
2994.049805	2071.027100
2993.190430	2085.234619
2992.330078	2137.239258
2991.470703	2081.655273
2990.610352	2191.781006
2989.750000	2072.265137
2988.889648	2103.896484
2988.029297	2025.109863
2987.168945	2079.978271
2986.308594	2099.974854
2985.447266	2195.470459
2984.585938	2116.719482
2983.725586	2168.634766
2982.864258	2188.603760
2982.002930	2130.207275
2981.140625	2121.158691
2980.279297	2097.606689
2979.416992	2097.268555
2978.555664	2091.133789
2977.693359	2084.998779
2976.831055	2078.864014
2975.968750	2072.729004
2975.106445	2066.594238
2974.243164	2158.996582
2973.380859	2147.058594
2972.517578	2097.462646
2971.654297	2039.192871
2970.791016	2119.955322
2969.927734	2108.031006
2969.064453	2061.368164
2968.201172	2124.719482
2967.336914	2069.386230
2966.473633	2132.715820
2965.609375	2204.704834
2964.745117	2117.563965
2963.880859	2201.101563
2963.016602	2102.421631
2962.151367	2133.888428
2961.287109	2081.506836
2960.421875	2144.762451
2959.556641	2153.086914
2958.691406	2086.279297
2957.826172	2094.610107
2956.960938	2172.266113
2956.095703	2085.270264
2955.229492	2004.077759
2954.363281	2101.921143
2953.498047	2075.601074
2952.631836	2063.721191
2951.765625	2095.132813
2950.898438	2201.554443
2950.032227	2071.377686
2949.165039	2056.621338
2948.298828	2119.737549
2947.431641	2044.423828
2946.564453	1989.315918
2945.697266	2127.359863
2944.830078	2112.606201
2943.961914	2138.200439
2943.094727	2117.687012
2942.226563	2163.437500
2941.358398	2056.518311
2940.490234	2122.422119
2939.622070	2179.666748
2938.753906	2012.339966
2937.885742	2141.544189
2937.016602	2129.687012
2936.148438	2089.058594
2935.279297	2143.385010
2934.410156	2151.668945
2933.541016	2108.180420
2932.670898	2090.586426
2931.801758	2124.751221
2930.932617	2029.543213
2930.062500	2135.562744
2929.192383	2152.460938
2928.322266	2120.507324
2927.452148	2002.378174
2926.582031	2119.822998
2925.710938	2139.584473
2924.840820	2150.725098
2923.969727	2196.314209
2923.098633	2115.584717
2922.227539	2054.971924
2921.356445	2246.904053
2920.485352	2054.308838
2919.614258	2145.775146
2918.742188	2168.374756
2917.870117	2320.015869
2916.999023	2176.276855
2916.126953	2150.124268
2915.253906	2218.570068
2914.381836	2163.759766
2913.509766	2214.988770
2912.636719	2165.926514
2911.764648	2240.054443
2910.891602	2202.460205
2910.018555	2242.195068
2909.145508	2204.612549
2908.271484	2290.136963
2907.398438	2178.141113
2906.524414	2235.024414
2905.651367	2351.976563
2904.777344	2122.730957
2903.903320	2279.708252
2903.029297	2139.205322
2902.154297	2150.297607
2901.280273	2121.360840
2900.405273	2195.339844
2899.531250	2063.514893
2898.656250	2120.333740
2897.781250	2091.420166
2896.906250	2188.209229
2896.030273	2165.006348
2895.155273	2073.272949
2894.279297	2104.346436
2893.404297	2106.861572
2892.528320	2055.142822
2891.652344	2106.181396
2890.776367	2088.720703
2889.899414	2068.412598
2889.023438	2165.064453
2888.146484	2082.005127
2887.270508	2050.301270
2886.393555	2035.714600
2885.516602	2069.593994
2884.638672	2055.008789
2883.761719	2086.024414
2882.884766	2062.893066
2882.006836	2145.176270
2881.128906	1982.472290
2880.250977	1953.672974
2879.373047	2144.137451
2878.495117	2055.534180
2877.617188	2143.445068
2876.738281	2080.485107
2875.860352	2037.464722
2874.981445	2025.755127
2874.102539	2159.128906
2873.223633	2047.854736
2872.344727	2149.900146
2871.464844	1981.796875
2870.585938	2004.219727
2869.706055	2163.070801
2868.826172	2051.885498
2867.947266	1977.675415
2867.066406	1943.263672
2866.186523	1954.312134
2865.306641	2036.359619
2864.425781	2084.304932
2863.545898	1981.757202
2862.665039	1927.501099
2861.784180	1938.542847
2860.903320	2043.229004
2860.022461	2068.435059
2859.140625	2119.165283
2858.259766	2050.748291
2857.377930	1988.025391
2856.496094	2069.934326
2855.614258	2097.950684
2854.732422	1984.227417
2853.850586	2020.750854
2852.967773	2054.428711
2852.085938	1988.932251
2851.203125	2008.440430
2850.320313	2084.588623
2849.437500	2053.101318
2848.554688	1891.379395
2847.671875	1942.030884
2846.788086	1987.005005
2845.905273	2080.074951
2845.021484	1997.681152
2844.137695	1977.554565
2843.253906	2036.636963
2842.370117	1993.884766
2841.486328	2007.701294
2840.601563	1976.276611
2839.717773	2069.242920
2838.833008	1992.596191
2837.948242	1938.581665
2837.063477	1977.824951
2836.178711	2050.955566
2835.292969	2019.553955
2834.408203	2064.413086
2833.522461	2004.783081
2832.636719	1962.111328
2831.750977	1927.921387
2830.865234	2020.744751
2829.979492	2054.279785
2829.093750	1980.592529
2828.207031	2022.585938
2827.321289	2002.515869
2826.434570	1982.452271
2825.547852	1982.131836
2824.661133	1967.716064
2823.774414	1956.123413
2822.886719	2065.715820
2822.000000	2054.110840
2821.112305	1963.626709
2820.224609	2044.996460
2819.336914	2050.298584
2818.449219	1973.938110
2817.561523	1962.357178
2816.672852	2032.414429
2815.785156	1930.762939
2814.896484	2043.013550
2814.007813	2096.141846
2813.119141	1974.837158
2812.230469	2098.276855
2811.341797	2013.570068
2810.452148	1985.126587
2809.563477	2026.975586
2808.673828	2085.676514
2807.784180	2031.941040
2806.894531	1989.462769
2806.004883	1980.712524
2805.114258	2070.282471
2804.224609	1966.028931
2803.333984	2083.653564
2802.444336	2049.624268
2801.553711	2038.063721
2800.663086	2071.415771
2799.771484	2045.823608
2798.880859	1978.151367
2797.989258	2033.940186
2797.098633	2025.196289
2796.207031	1994.018921
2795.315430	1957.243408
2794.423828	2083.089844
2793.532227	2023.886353
2792.639648	2074.007813
2791.748047	2006.418091
2790.855469	2070.535156
2789.962891	2016.974487
2789.070313	2055.860840
2788.177734	2007.920532
2787.285156	1993.595825
2786.391602	1982.075073
2785.499023	2090.918945
2784.605469	2098.976563
2783.711914	2073.453369
2782.818359	2087.106445
2781.924805	2092.363525
2781.031250	2086.431152
2780.136719	2021.777100
2779.243164	2018.654053
2778.348633	2063.054932
2777.454102	2004.025879
2776.559570	1947.810303
2775.665039	2022.936157
2774.769531	2025.402466
2773.875000	1955.244507
2772.979492	2055.467285
2772.083984	2071.888428
2771.188477	1945.919922
2770.292969	2101.923340
2769.397461	2107.165039
2768.501953	2020.318726
2767.605469	1992.091309
2766.708984	2025.244019
2765.812500	1977.500854
2764.916016	2097.094482
2764.019531	2066.084473
2763.123047	2101.991211
2762.226563	2084.927002
2761.329102	2084.589600
2760.431641	2020.164307
2759.534180	2106.202637
2758.636719	2016.724854
2757.739258	2044.249146
2756.841797	2021.641235
2755.943359	2038.019043
2755.045898	2023.770508
2754.147461	2040.142578
2753.249023	2042.595093
2752.350586	2039.482056
2751.452148	2028.024170
2750.552734	2011.006958
2749.654297	2013.462402
2748.754883	2046.503418
2747.855469	2101.774658
2746.956055	1995.806641
2746.056641	2039.951050
2745.157227	2061.851074
2744.257813	2072.630371
2743.357422	1963.957764
2742.457031	1994.191406
2741.556641	2099.393555
2740.656250	2051.852539
2739.755859	1968.238159
2738.855469	1981.797485
2737.954102	1998.127686
2737.053711	2158.738281
2736.152344	2030.771851
2735.250977	2016.573853
2734.349609	1980.193359
2733.448242	2112.973389
2732.545898	2046.091553
2731.644531	1995.863647
2730.742188	1981.682495
2729.840820	2031.241943
2728.938477	2080.785156
2728.035156	1977.949463
2727.132813	1983.168701
2726.230469	2060.388916
2725.327148	1965.912842
2724.424805	2095.711182
2723.521484	2012.331909
2722.618164	2017.541138
2721.713867	2025.515503
2720.810547	2074.987061
2719.907227	2016.560791
2719.002930	2057.720459
2718.098633	1993.785034
2717.194336	2209.120850
2716.290039	2031.840698
2715.385742	2056.387207
2714.481445	2067.108154
2713.576172	1939.672119
2712.671875	2005.660645
2711.766602	1961.140991
2710.861328	2016.057739
2709.956055	1982.595703
2709.050781	2015.404419
2708.144531	1979.192871
2707.239258	2014.751343
2706.333008	2058.576660
2705.426758	1989.266968
2704.520508	1975.151733
2703.614258	1966.557129
2702.708008	2037.938599
2701.800781	1957.648071
2700.893555	2017.980469
2699.987305	2020.409790
2699.080078	2009.058716
2698.172852	1948.112915
2697.264648	2038.712769
2696.357422	2052.155029
2695.450195	1905.853882
2694.541992	2043.228882
2693.633789	2045.650879
2692.725586	1926.949585
2691.817383	2072.511230
2690.909180	2066.671387
2690.000000	1934.266968
2689.091797	2024.736450
2688.182617	1928.138794
2687.273438	1916.825806
2686.364258	1946.761353
2685.455078	1990.433228
2684.545898	2039.588379
2683.635742	2003.529541
2682.726563	2003.204712
2681.816406	2079.808105
2680.906250	2002.555176
2679.996094	2048.921631
2679.085938	1941.491577
2678.174805	2020.800781
2677.264648	1960.078491
2676.353516	1959.760620
2675.442383	1981.397461
2674.531250	1950.893555
2673.620117	1994.472046
2672.708984	2013.349487
2671.796875	1980.112427
2670.885742	2078.506836
2669.973633	1927.379028
2669.061523	1979.149292
2668.149414	1967.865234
2667.237305	1945.623535
2666.324219	1890.510620
2665.412109	2043.611816
2664.499023	2018.629517
2663.585938	2067.595703
2662.672852	1976.903320
2661.759766	1976.582642
2660.846680	1877.722656
2659.933594	2038.886963
2659.019531	1986.566162
2658.105469	1909.639526
2657.192383	1980.450928
2656.278320	2043.034302
2655.363281	2023.561035
2654.449219	1922.071045
2653.535156	1973.698730
2652.620117	2044.442017
2651.705078	2098.765625
2650.790039	1980.935181
2649.875000	2007.932617
2648.959961	2064.967041
2648.044922	2001.819092
2647.128906	1982.380371
2646.212891	2036.660889
2645.296875	2025.411743
2644.380859	1943.206421
2643.464844	2011.110596
2642.548828	2002.599243
2641.632813	2037.736816
2640.715820	2121.957031
2639.798828	1887.090088
2638.881836	2028.565186
2637.964844	2009.153076
2637.047852	1946.136353
2636.130859	1978.523438
2635.212891	1934.605469
2634.294922	1983.329956
2633.377930	1966.664551
2632.459961	2018.091187
2631.541992	2020.486694
2630.623047	1913.977905
2629.705078	2014.386475
2628.786133	1935.130127
2627.867188	2046.387695
2626.949219	2032.451416
2626.030273	2021.239990
2625.110352	1939.313721
2624.191406	2031.461670
2623.271484	1965.874634
2622.352539	1965.555542
2621.432617	1986.981689
2620.512695	1978.505981
2619.592773	2162.960205
2618.672852	1991.447754
2617.751953	1999.273560
2616.832031	1958.209473
2615.911133	2023.064087
2614.990234	2096.042725
2614.069336	1886.675171
2613.148438	2051.934814
2612.226563	1943.051392
2611.305664	2102.821533
2610.383789	2126.895996
2609.462891	1974.654175
2608.541016	1971.621460
2607.618164	1976.724365
2606.696289	2074.003418
2605.774414	2041.138550
2604.851563	2010.994385
2603.929688	2026.926514
2603.006836	1983.247681
2602.083984	2093.990967
2601.160156	2093.650879
2600.237305	2001.237671
2599.314453	1971.129028
2598.390625	2057.437744
2597.466797	2113.944580
2596.542969	2016.175293
2595.619141	2056.435303
2594.695313	1966.823120
2593.770508	2074.701904
2592.846680	2044.615112
2591.921875	2022.650269
2590.997070	2000.692505
2590.072266	1938.193848
2589.147461	1954.095581
2588.222656	1999.717529
2587.296875	2066.939697
2586.372070	1993.664795
2585.446289	2071.669922
2584.520508	1933.604492
2583.594727	2043.995483
2582.668945	1962.672729
2581.742188	2008.240967
2580.816406	1945.842041
2579.889648	1996.794800
2578.962891	1974.886841
2578.036133	1971.868408
2577.109375	2098.309570
2576.181641	1990.103882
2575.254883	2070.665771
2574.327148	2094.590820
2573.399414	2078.078613
2572.472656	2015.758911
2571.543945	1950.765015
2570.616211	2033.961670
2569.688477	1947.437378
2568.759766	1949.813843
2567.831055	2100.286865
2566.903320	2005.717041
2565.974609	2040.384399
2565.044922	2007.756348
2564.116211	1926.702148
2563.186523	2004.413086
2562.257813	1974.496582
2561.328125	1982.244385
2560.398438	1984.611328
2559.468750	1914.381470
2558.539063	2053.861816
2557.608398	1908.383179
2556.678711	1991.383179
2555.748047	1961.502441
2554.817383	1958.496948
2553.886719	1912.514526
2552.956055	1939.060303
2552.024414	1984.394043
2551.093750	2061.930664
2550.162109	2018.645508
2549.230469	1970.006348
2548.298828	2004.571411
2547.367188	1926.436646
2546.435547	1923.440796
2545.503906	1976.771606
2544.571289	2048.857422
2543.638672	1927.864990
2542.706055	2010.658691
2541.773438	1983.527222
2540.840820	2018.044556
2539.908203	1942.688354
2538.974609	2033.462891
2538.041016	1971.522095
2537.108398	1963.166504
2536.174805	2107.449707
2535.240234	1879.528687
2534.306641	1903.315552
2533.373047	1969.918823
2532.438477	2065.937500
2531.503906	1979.980469
2530.569336	1968.957520
2529.634766	1965.962402
2528.700195	2083.313477
2527.765625	1935.909668
2526.830078	1962.329346
2525.894531	2002.105591
2524.958984	1961.690796
2524.023438	1972.060181
2523.087891	1934.334961
2522.152344	1950.047974
2521.215820	1963.084961
2520.280273	2000.151489
2519.343750	1903.706177
2518.407227	2079.587402
2517.470703	1977.822021
2516.534180	2009.524414
2515.596680	2009.197388
2514.660156	2072.897949
2513.722656	1968.532471
2512.785156	1992.214722
2511.847656	1970.558228
2510.910156	2010.228760
2509.971680	2023.229736
2509.034180	1993.583008
2508.095703	1870.678345
2507.157227	1982.276611
2506.218750	1944.659058
2505.280273	2005.602539
2504.341797	2074.515137
2503.402344	1927.733643
2502.463867	1962.028076
2501.524414	1967.032227
2500.584961	2038.567383
2499.645508	1990.339600
2498.706055	1878.276611
2497.765625	1979.051392
2496.826172	1978.729126
2495.885742	1983.725220
2494.945313	1962.132446
2494.004883	1945.863159
2493.064453	2025.281738
2492.124023	1910.682983
2491.182617	2064.477051
2490.241211	2032.262085
2489.300781	1909.749634
2488.359375	1983.797729
2487.417969	1906.472290
2486.475586	1983.151611
2485.534180	1943.012695
2484.591797	1971.889771
2483.649414	1971.568604
2482.708008	1965.941162
2481.764648	1944.399658
2480.822266	1946.735107
2479.879883	1917.248291
2478.936523	1999.128174
2477.994141	1998.802490
2477.050781	2093.894775
2476.107422	1926.599365
2475.164063	2019.022827
2474.219727	1939.217651
2473.276367	1901.818848
2472.332031	2031.277710
2471.387695	1906.494995
2470.443359	2022.673340
2469.499023	2017.049683
2468.554688	1921.442871
2467.610352	2019.038574
2466.665039	1910.233643
2465.719727	1997.217896
2464.774414	1946.639526
2463.829102	1885.499756
2462.883789	2051.766113
2461.938477	1829.369629
2460.992188	2027.308960
2460.045898	1968.838379
2459.100586	2008.151978
2458.154297	1965.554688
2457.207031	2015.421753
2456.260742	1970.196045
2455.314453	1927.625488
2454.367188	1945.792358
2453.419922	1884.761597
2452.472656	1926.682983
2451.525391	1976.507202
2450.578125	1891.755249
2449.629883	1928.378784
2448.682617	1957.077637
2447.734375	1956.758545
2446.786133	1982.806641
2445.837891	1813.761353
2444.889648	2026.969604
2443.940430	1939.670166
2442.992188	1828.684204
2442.042969	1931.133911
2441.093750	1941.355591
2440.144531	1898.899780
2439.195313	1969.688477
2438.246094	2061.516846
2437.295898	1924.295044
2436.346680	1929.245117
2435.396484	2023.666504
2434.446289	1939.140381
2433.496094	2120.342285
2432.545898	1941.138184
2431.594727	1906.633667
2430.643555	1977.316772
2429.693359	2011.171021
2428.742188	1976.671753
2427.791016	1986.861816
2426.838867	1957.633057
2425.887695	1886.377441
2424.936523	1909.711304
2423.984375	1909.399780
2423.032227	2003.623535
2422.080078	1937.657837
2421.127930	1932.091431
2420.174805	1950.149048
2419.222656	1955.079468
2418.269531	1862.926025
2417.316406	1933.454224
2416.363281	2009.205200
2415.410156	1972.161621
2414.457031	2003.305298
2413.502930	1942.679321
2412.549805	1921.392090
2411.595703	1839.832397
2410.641602	1876.218018
2409.687500	1852.331909
2408.733398	1969.909790
2407.778320	1851.727295
2406.824219	1950.935913
2405.869141	1882.542236
2404.914063	1827.260132
2403.958984	1855.753540
2403.003906	1897.322510
2402.048828	1836.831787
2401.091797	1846.996460
2400.136719	1919.935059
2399.181641	1992.849609
2398.224609	1867.010986
2397.269531	1882.392822
2396.312500	1913.453613
2395.355469	1813.825073
2394.398438	1868.405151
2393.441406	1904.678345
2392.484375	1891.305908
2391.527344	1849.207031
2390.570313	1932.471436
2389.613281	1892.990601
2388.656250	1973.609985
2387.697266	1840.169067
2386.740234	1954.697266
2385.781250	1810.865601
2384.824219	1784.480957
2383.865234	1932.872070
2382.906250	1841.275024
2381.947266	1867.050415
2380.988281	1767.672363
2380.029297	1798.664795
2379.070313	1923.475098
2378.111328	1886.678223
2377.152344	1852.498779
2376.191406	1878.246704
2375.232422	1914.404785
2374.271484	1929.717285
2373.312500	1814.835693
2372.351563	1858.796265
2371.390625	1827.257446
2370.431641	1852.984009
2369.470703	1889.110352
2368.509766	1907.013306
2367.548828	1849.474731
2366.585938	1851.773315
2365.625000	1919.080688
2364.664063	1734.170288
2363.701172	1801.474731
2362.740234	1782.986572
2361.777344	1855.458374
2360.816406	1790.198730
2359.853516	1800.297485
2358.890625	1792.211060
2357.927734	1875.021606
2356.964844	1866.925537
2356.001953	1783.544189
2355.039063	1902.655273
2354.076172	1744.031982
2353.113281	1873.489990
2352.148438	1779.783936
2351.185547	1878.065552
2350.220703	1807.731689
2349.257813	1869.672119
2348.292969	1794.177002
2347.328125	1884.614868
2346.365234	1770.263428
2345.400391	1757.016724
2344.435547	1777.457886
2343.470703	1854.885986
2342.503906	1851.992554
2341.539063	1885.356812
2340.574219	1848.797607
2339.607422	1724.226685
2338.642578	1749.829834
2337.675781	1868.595581
2336.710938	1780.309570
2335.744141	1855.048340
2334.777344	1771.966919
2333.810547	1797.541138
2332.843750	1879.998169
2331.876953	1895.203979
2330.910156	2003.469116
2329.943359	2049.666016
2328.974609	1976.971069
2328.007813	1896.548218
2327.041016	1940.156372
2326.072266	1919.175049
2325.103516	1807.809937
2324.136719	1784.274780
2323.167969	1817.545532
2322.199219	1806.922974
2321.230469	1778.237549
2320.261719	1741.819946
2319.292969	1710.574341
2318.324219	1697.396362
2317.355469	1715.173218
2316.384766	1799.992432
2315.416016	1714.611938
2314.445313	1691.130005
2313.476563	1744.981201
2312.505859	1788.506348
2311.535156	1837.170532
2310.564453	1751.853516
2309.593750	1746.415161
2308.623047	1746.129395
2307.652344	1738.118774
2306.681641	1676.044678
2305.710938	1771.013794
2304.740234	1747.560425
2303.767578	1739.554565
2302.796875	1777.863037
2301.824219	1736.412720
2300.851563	1682.115601
2299.880859	1738.415894
2298.908203	1761.272217
2297.935547	1691.572876
2296.962891	1678.444214
2295.990234	1649.900146
2295.017578	1775.536377
2294.042969	1716.156494
2293.070313	1723.581543
2292.097656	1679.639038
2291.123047	1725.585083
2290.150391	1676.521729
2289.175781	1742.989014
2288.201172	1729.870850
2287.228516	1691.095337
2286.253906	1698.515625
2285.279297	1729.021240
2284.304688	1680.005127
2283.330078	1728.455078
2282.353516	1743.556274
2281.378906	1709.943604
2280.404297	1655.836060
2279.427734	1760.639404
2278.453125	1737.289673
2277.476563	1737.005127
2276.500000	1631.697754
2275.525391	1772.291870
2274.548828	1718.226929
2273.572266	1702.583862
2272.595703	1679.266235
2271.619141	1653.396851
2270.640625	1653.125977
2269.664063	1675.882568
2268.687500	1693.515259
2267.708984	1739.277588
2266.732422	1606.010864
2265.753906	1669.670776
2264.777344	1700.075317
2263.798828	1666.567627
2262.820313	1666.294556
2261.841797	1650.690063
2260.863281	1803.709351
2259.884766	1675.693359
2258.906250	1734.160522
2257.925781	1687.911987
2256.947266	1682.529175
2255.968750	1797.126587
2254.988281	1676.873047
2254.009766	1666.390747
2253.029297	1658.463135
2252.048828	1668.395630
2251.068359	1673.223389
2250.087891	1660.197998
2249.107422	1769.567749
2248.126953	1713.191040
2247.146484	1715.459229
2246.166016	1676.949707
2245.185547	1737.830078
2244.203125	1704.424927
2243.222656	1630.273682
2242.240234	1665.662842
2241.259766	1688.307983
2240.277344	1665.116699
2239.294922	1580.837891
2238.312500	1679.842041
2237.330078	1651.573853
2236.347656	1692.013184
2235.365234	1668.840088
2234.382813	1704.176025
2233.398438	1701.353516
2232.416016	1759.556885
2231.431641	1759.268311
2230.449219	1697.974731
2229.464844	1692.613403
2228.480469	1603.399170
2227.498047	1697.139526
2226.513672	1740.044800
2225.529297	1688.963501
2224.544922	1693.765137
2223.560547	1668.097778
2222.574219	1662.747070
2221.589844	1591.406738
2220.605469	1707.880493
2219.619141	1684.764648
2218.634766	1641.361328
2217.648438	1681.675415
2216.662109	1691.543701
2215.675781	1749.585815
2214.691406	1744.228271
2213.705078	1627.341309
2212.718750	1639.746216
2211.730469	1761.107666
2210.744141	1700.013428
2209.757813	1656.671143
2208.771484	1641.203003
2207.783203	1691.579834
2206.794922	1703.961670
2205.808594	1685.961670
2204.820313	1728.713013
2203.832031	1710.714844
2202.843750	1594.043579
2201.855469	1550.775146
2200.867188	1714.931519
2199.878906	1717.178955
2198.890625	1613.225830
2197.902344	1678.692993
2196.912109	1620.279541
2195.923828	1662.978027
2194.933594	1652.597412
2193.945313	1697.802979
2192.955078	1571.220459
2191.964844	1548.231445
2190.974609	1638.886230
2189.984375	1701.738037
2188.994141	1706.507446
2188.003906	1640.603149
2187.013672	1670.616943
2186.023438	1660.249878
2185.031250	1543.930176
2184.041016	1591.601318
2183.048828	1666.997925
2182.058594	1618.815308
2181.066406	1603.422852
2180.074219	1618.283691
2179.082031	1610.457153
2178.089844	1642.950806
2177.097656	1677.953247
2176.105469	1599.587646
2175.113281	1589.250366
2174.121094	1576.398315
2173.126953	1674.333374
2172.134766	1621.193359
2171.140625	1600.791260
2170.148438	1580.395874
2169.154297	1587.684692
2168.160156	1537.109375
2167.166016	1614.831543
2166.171875	1700.072876
2165.177734	1624.358887
2164.183594	1591.409058
2163.189453	1603.715942
2162.195313	1518.001953
2161.199219	1598.163330
2160.205078	1545.139771
2159.208984	1554.933960
2158.214844	1602.398804
2157.218750	1657.381470
2156.222656	1566.721313
2155.226563	1538.849976
2154.230469	1616.405396
2153.234375	1681.387573
2152.238281	1580.746338
2151.242188	1550.382080
2150.244141	1580.226807
2149.248047	1600.030151
2148.251953	1642.394165
2147.253906	1602.011230
2146.255859	1514.015259
2145.259766	1571.409790
2144.261719	1568.645630
2143.263672	1643.550049
2142.265625	1575.644897
2141.267578	1610.450073
2140.269531	1590.151855
2139.269531	1622.439331
2138.271484	1607.152466
2137.273438	1684.479370
2136.273438	1584.101318
2135.275391	1536.300537
2134.275391	1618.604248
2133.275391	1575.816040
2132.277344	1655.585205
2131.277344	1585.299683
2130.277344	1547.538086
2129.277344	1579.779053
2128.275391	1607.010742
2127.275391	1646.727783
2126.275391	1569.005981
2125.273438	1603.719971
2124.273438	1565.992310
2123.271484	1623.169922
2122.271484	1570.470703
2121.269531	1627.628662
2120.267578	1525.026855
2119.265625	1532.262573
2118.263672	1581.913086
2117.261719	1501.821777
2116.259766	1606.335815
2115.257813	1551.205688
2114.253906	1600.820190
2113.251953	1540.722900
2112.248047	1528.006104
2111.246094	1585.076660
2110.242188	1562.389160
2109.238281	1532.234741
2108.236328	1681.444336
2107.232422	1501.843140
2106.228516	1524.007813
2105.224609	1536.205933
2104.218750	1518.527466
2103.214844	1520.766479
2102.210938	1585.218994
2101.205078	1490.407959
2100.201172	1582.209473
2099.195313	1494.892090
2098.189453	1604.070923
2097.185547	1573.968628
2096.179688	1546.362305
2095.173828	1481.479370
2094.167969	1545.853149
2093.162109	1518.264893
2092.156250	1500.623657
2091.148438	1445.727051
2090.142578	1487.711182
2089.134766	1559.480469
2088.128906	1464.875732
2087.121094	1514.283203
2086.115234	1566.156250
2085.107422	1513.784546
2084.099609	1565.640503
2083.091797	1538.093872
2082.083984	1495.674072
2081.076172	1509.476318
2080.068359	1523.278687
2079.058594	1537.080933
2078.050781	1526.912720
2077.041016	1439.919067
2076.033203	1499.152466
2075.023438	1553.411133
2074.013672	1511.044189
2073.005859	1500.888428
2071.996094	1498.164795
2070.986328	1490.490356
2069.976563	1482.818359
2068.966797	1502.374634
2067.955078	1440.260254
2066.945313	1496.931152
2065.935547	1491.736694
2064.923828	1513.751953
2063.912109	1597.586060
2062.902344	1584.959595
2061.890625	1513.003784
2060.878906	1438.599854
2059.867188	1519.919434
2058.855469	1608.625122
2057.843750	1489.771240
2056.832031	1435.181519
2055.820313	1518.917725
2054.806641	1454.463501
2053.794922	1518.416992
2052.781250	1491.012573
2051.769531	1550.002563
2050.755859	1505.327515
2049.742188	1542.089478
2048.730469	1536.901367
2047.716797	1507.049683
2046.703125	1501.869019
2045.687500	1484.361328
2044.673828	1471.790039
2043.660156	1385.275757
2042.646484	1385.047363
2041.630859	1468.598145
2040.617188	1463.428589
2039.601563	1465.650513
2038.585938	1458.020264
2037.570313	1511.954102
2036.556641	1504.318481
2035.541016	1496.685425
2034.523438	1469.364868
2033.507813	1456.818359
2032.492188	1439.355103
2031.476563	1476.018066
2030.458984	1392.147461
2029.443359	1433.724487
2028.425781	1431.029175
2027.410156	1386.541748
2026.392578	1516.587158
2025.375000	1467.185059
2024.357422	1548.030273
2023.339844	1451.960327
2022.322266	1385.398438
2021.304688	1500.600708
2020.287109	1407.041504
2019.267578	1438.726440
2018.250000	1490.039063
2017.230469	1440.706055
2016.212891	1379.119629
2015.193359	1432.869995
2014.173828	1454.711792
2013.154297	1518.242798
2012.134766	1481.207275
2011.115234	1473.607056
2010.095703	1466.009277
2009.076172	1433.902832
2008.056641	1443.468994
2007.035156	1399.125244
2006.015625	1469.941528
2004.994141	1410.910889
2003.974609	1405.779785
2002.953125	1527.982178
2001.931641	1483.660889
2000.910156	1427.114624
1999.888672	1510.093262
1998.867188	1424.196411
1997.845703	1384.814575
1996.824219	1457.973877
1995.800781	1430.828613
1994.779297	1445.265137
1993.755859	1364.339722
1992.734375	1449.677124
1991.710938	1473.880249
1990.687500	1383.214722
1989.666016	1431.854980
1988.642578	1490.251343
1987.619141	1414.283691
1986.595703	1436.030151
1985.570313	1406.491089
1984.546875	1401.375977
1983.523438	1364.529175
1982.498047	1549.790527
1981.474609	1420.203247
1980.449219	1395.570557
1979.423828	1385.582397
1978.400391	1390.231567
1977.375000	1321.721069
1976.349609	1328.817261
1975.324219	1443.174072
1974.296875	1321.066040
1973.271484	1428.075317
1972.246094	1383.980835
1971.218750	1398.369263
1970.193359	1407.881226
1969.166016	1380.859497
1968.140625	1460.985474
1967.113281	1399.879639
1966.085938	1467.805176
1965.058594	1423.754761
1964.031250	1457.586548
1963.003906	1394.088623
1961.976563	1505.755981
1960.949219	1439.838745
1959.919922	1432.305542
1958.892578	1402.892456
1957.863281	1441.555908
1956.835938	1385.414917
1955.806641	1387.615967
1954.777344	1469.998047
1953.748047	1430.885498
1952.718750	1501.088257
1951.689453	1478.983276
1950.660156	1534.585938
1949.630859	1456.644531
1948.599609	1436.984985
1947.570313	1383.354736
1946.539063	1429.230103
1945.509766	1387.749512
1944.478516	1363.262695
1943.447266	1387.290527
1942.417969	1374.936401
1941.386719	1352.888306
1940.355469	1435.084961
1939.324219	1442.118774
1938.291016	1376.450317
1937.259766	1453.756348
1936.228516	1438.980713
1935.195313	1390.300171
1934.164063	1450.613281
1933.130859	1404.368164
1932.097656	1401.714966
1931.064453	1328.867310
1930.033203	1377.049927
1929.000000	1454.253174
1927.966797	1412.884155
1926.931641	1294.123169
1925.898438	1383.394409
1924.865234	1375.911133
1923.830078	1375.683350
1922.796875	1404.463623
1921.761719	1409.065063
1920.728516	1442.663086
1919.693359	1403.766479
1918.658203	1422.859863
1917.623047	1415.378418
1916.587891	1395.824829
1915.552734	1376.277588
1914.517578	1356.736816
1913.480469	1409.614136
1912.445313	1279.061279
1911.408203	1435.689575
1910.373047	1394.439087
1909.335938	1353.202026
1908.298828	1408.447754
1907.263672	1362.399292
1906.226563	1405.570435
1905.189453	1357.127197
1904.152344	1397.874634
1903.113281	1366.316772
1902.076172	1464.873047
1901.039063	1433.314331
1900.000000	1389.723389
1898.962891	1406.350220
1897.923828	1353.147095
1896.886719	1384.218384
1895.847656	1396.023804
1894.808594	1398.199097
1893.769531	1458.121094
1892.730469	1460.285278
1891.691406	1383.072388
1890.650391	1387.653198
1889.611328	1356.164307
1888.572266	1404.022583
1887.531250	1362.926270
1886.492188	1365.103760
1885.451172	1374.489380
1884.410156	1374.261719
1883.369141	1313.980103
1882.328125	1369.002808
1881.287109	1399.993652
1880.246094	1373.351074
1879.205078	1332.313965
1878.164063	1298.490845
1877.121094	1334.272217
1876.080078	1370.041626
1875.037109	1329.031982
1873.996094	1419.957642
1872.953125	1347.776978
1871.910156	1333.166870
1870.867188	1289.792969
1869.824219	1371.076782
1868.781250	1349.280151
1867.738281	1313.113647
1866.695313	1324.874878
1865.650391	1358.190918
1864.607422	1298.090698
1863.562500	1333.794556
1862.519531	1295.266113
1861.474609	1359.684204
1860.429688	1275.689331
1859.384766	1335.303223
1858.339844	1380.541626
1857.294922	1351.605957
1856.250000	1267.667969
1855.205078	1315.286255
1854.158203	1307.895142
1853.113281	1369.834717
1852.068359	1259.656494
1851.021484	1271.396851
1849.974609	1299.859375
1848.927734	1330.701416
1847.882813	1340.035278
1846.835938	1280.106567
1845.789063	1308.548584
1844.740234	1301.169067
1843.693359	1308.114502
1842.646484	1310.284058
1841.599609	1326.770630
1840.550781	1321.778809
1839.501953	1288.162720
1838.455078	1295.104248
1837.406250	1352.122070
1836.357422	1223.145508
1835.308594	1315.914795
1834.259766	1291.861328
1833.210938	1286.880737
1832.162109	1305.728882
1831.113281	1262.630493
1830.062500	1198.108887
1829.013672	1233.633057
1827.962891	1233.428223
1826.914063	1233.223511
1825.863281	1235.399170
1824.812500	1318.492432
1823.761719	1282.580200
1822.710938	1225.267456
1821.660156	1279.775635
1820.609375	1327.130615
1819.558594	1257.948975
1818.505859	1238.719482
1817.455078	1297.943481
1816.402344	1254.945679
1815.351563	1354.546021
1814.298828	1309.177124
1813.246094	1287.579224
1812.193359	1225.609863
1811.140625	1151.786987
1810.087891	1213.330688
1809.035156	1248.739624
1807.982422	1317.367676
1806.927734	1217.472778
1805.875000	1252.863281
1804.820313	1250.282715
1803.767578	1250.075073
1802.712891	1302.044067
1801.658203	1294.713989
1800.603516	1313.465942
1799.548828	1299.024780
1798.494141	1258.517456
1797.439453	1345.987183
1796.384766	1281.792358
1795.330078	1272.103760
1794.273438	1276.629517
1793.218750	1316.675415
1792.162109	1340.133911
1791.105469	1287.829834
1790.050781	1263.946411
1788.994141	1325.266602
1787.937500	1303.750977
1786.880859	1268.047974
1785.824219	1300.952393
1784.765625	1362.225464
1783.708984	1307.613647
1782.652344	1255.384155
1781.593750	1233.901367
1780.535156	1226.606079
1779.478516	1328.011597
1778.419922	1323.065674
1777.361328	1346.467896
1776.302734	1348.605957
1775.244141	1265.731323
1774.185547	1348.157471
1773.126953	1279.474365
1772.066406	1269.820679
1771.007813	1279.048950
1769.949219	1321.306885
1768.888672	1302.214478
1767.828125	1297.280518
1766.769531	1231.032471
1765.708984	1348.723145
1764.648438	1223.550537
1763.587891	1308.203491
1762.527344	1322.126221
1761.464844	1248.859863
1760.404297	1333.466187
1759.343750	1267.288818
1758.281250	1264.722900
1757.220703	1330.446167
1756.158203	1339.642334
1755.095703	1337.065430
1754.033203	1235.638428
1752.970703	1296.616089
1751.908203	1244.638550
1750.845703	1267.955688
1749.783203	1265.392700
1748.720703	1366.302612
1747.656250	1220.297852
1746.593750	1269.462769
1745.529297	1245.746948
1744.466797	1304.291504
1743.402344	1212.436768
1742.337891	1263.919434
1741.273438	1275.453491
1740.208984	1249.407593
1739.144531	1270.332764
1738.080078	1246.644043
1737.013672	1215.921143
1735.949219	1213.371826
1734.884766	1203.783569
1733.818359	1210.621704
1732.751953	1222.149048
1731.687500	1261.817139
1730.621094	1252.227051
1729.554688	1244.984741
1728.488281	1195.548950
1727.421875	1221.131958
1726.353516	1169.373047
1725.287109	1209.010132
1724.220703	1215.836670
1723.152344	1208.607422
1722.085938	1252.901733
1721.017578	1210.546387
1719.949219	1172.887329
1718.880859	1242.913086
1717.814453	1160.795166
1716.744141	1193.360718
1715.675781	1151.050293
1714.607422	1223.372070
1713.539063	1204.458252
1712.468750	1164.505371
1711.400391	1215.746826
1710.330078	1178.142944
1709.261719	1145.225952
1708.191406	1201.118408
1707.121094	1144.844360
1706.050781	1191.374146
1704.980469	1186.504272
1703.910156	1148.942627
1702.839844	1216.462158
1701.769531	1090.197998
1700.697266	1202.052246
1699.626953	1169.180176
1698.554688	1194.651611
1697.482422	1271.438721
1696.412109	1212.913696
1695.339844	1219.707886
1694.267578	1217.172852
1693.195313	1179.668213
1692.123047	1179.471558
1691.048828	1216.564331
1689.976563	1214.031250
1688.904297	1143.934692
1687.830078	1118.120361
1686.757813	1152.869385
1685.683594	1082.817993
1684.609375	1152.484985
1683.535156	1135.997803
1682.460938	1170.720459
1681.386719	1128.637695
1680.312500	1121.469360
1679.238281	1111.977173
1678.164063	1146.680542
1677.087891	1155.791382
1676.013672	1146.298096
1674.937500	1176.328735
1673.863281	1059.913940
1672.787109	1178.260376
1671.710938	1143.209839
1670.634766	1140.695923
1669.558594	1131.214355
1668.482422	1096.189209
1667.404297	1181.921997
1666.328125	1093.501709
1665.251953	1158.314941
1664.173828	1049.040039
1663.097656	1120.800537
1662.019531	1173.975952
1660.941406	1159.861816
1659.863281	1115.600830
1658.785156	1138.604126
1657.707031	1096.680054
1656.628906	1124.315063
1655.550781	1107.902954
1654.470703	1212.001099
1653.392578	1170.092529
1652.312500	1172.213867
1651.234375	1121.060913
1650.154297	1176.454346
1649.074219	1111.424805
1647.994141	1122.814697
1646.914063	1127.256592
1645.833984	1143.268555
1644.753906	1173.158691
1643.673828	1103.556763
1642.593750	1124.190796
1641.511719	1086.998901
1640.431641	1119.190674
1639.349609	1102.819824
1638.267578	1100.324097
1637.185547	1118.630127
1636.103516	1176.214111
1635.021484	1113.635620
1633.939453	1173.511230
1632.857422	1138.670044
1631.775391	1076.129028
1630.693359	1057.478027
1629.609375	1140.408081
1628.527344	1156.374512
1627.443359	1133.103882
1626.359375	1121.377808
1625.275391	1139.646240
1624.191406	1077.177979
1623.107422	1153.102783
1622.023438	1125.240234
1620.939453	1148.106567
1619.855469	1104.118774
1618.769531	1083.192261
1617.685547	1140.618286
1616.599609	1149.643311
1615.515625	1084.952881
1614.429688	1082.468384
1613.343750	1082.287476
1612.257813	1116.641968
1611.171875	1068.114014
1610.085938	1093.252808
1609.000000	1111.479736
1607.912109	1102.090698
1606.826172	1065.099609
1605.738281	1058.027222
1604.652344	1050.954834
1603.564453	1043.882446
1602.476563	1036.810059
1601.388672	1029.737671
1600.300781	1022.665344
1599.212891	1043.174072
1598.125000	1095.838745
1597.037109	1093.358521
1595.949219	1093.175781
1594.859375	1109.066284
1593.771484	1186.938721
1592.681641	1078.854736
1591.591797	1101.624878
1590.501953	1076.199219
1589.412109	1126.493530
1588.322266	1133.186768
1587.232422	1073.365723
1586.142578	1091.531250
1585.052734	1093.641479
1583.962891	1086.581421
1582.871094	1109.319458
1581.779297	1182.464966
1580.689453	1104.365845
1579.597656	1078.981934
1578.505859	1026.121094
1577.414063	1071.750732
1576.322266	1153.999878
1575.230469	1078.259888
1574.138672	1100.968628
1573.046875	1112.227051
1571.953125	1041.108276
1570.861328	1107.279297
1569.767578	1129.967773
1568.673828	1125.204712
1567.582031	1074.710693
1566.488281	1092.820679
1565.394531	1083.494385
1564.300781	1133.593384
1563.207031	1085.416748
1562.111328	1137.783203
1561.017578	1126.171143
1559.923828	1116.846802
1558.828125	1178.315918
1557.732422	1182.684937
1556.638672	1161.941772
1555.542969	1164.029663
1554.447266	1186.655029
1553.351563	1097.472046
1552.255859	1104.132080
1551.160156	1076.576538
1550.062500	1144.811279
1548.966797	1162.860474
1547.871094	1130.749390
1546.773438	1176.147095
1545.675781	1096.186035
1544.580078	1130.181274
1543.482422	1104.931641
1542.384766	1081.968262
1541.287109	1063.567505
1540.189453	1113.484741
1539.089844	1056.381104
1537.992188	1131.322021
1536.894531	1026.440186
1535.794922	1058.125732
1534.697266	1055.673218
1533.597656	1050.946777
1532.498047	1112.179321
1531.398438	1089.252808
1530.298828	1095.891113
1529.199219	1050.242432
1528.099609	972.788818
1527.000000	1140.790039
1525.898438	1129.238281
1524.798828	1022.277771
1523.697266	1033.463135
1522.597656	1069.625366
1521.496094	1044.469604
1520.394531	1112.400635
1519.292969	1057.738403
1518.191406	1003.094360
1517.089844	1066.459961
1515.988281	1075.355835
1514.886719	1072.907227
1513.783203	1056.851929
1512.681641	1022.661560
1511.578125	1049.696045
1510.476563	1040.452881
1509.373047	1006.282349
1508.269531	972.123230
1507.166016	994.616577
1506.062500	1032.959229
1504.958984	998.812744
1503.855469	1003.174194
1502.750000	1000.741821
1501.646484	1027.738892
1500.541016	1025.303101
1499.437500	1063.601807
1498.332031	986.494812
1497.226563	1022.524902
1496.121094	959.021667
1495.015625	988.259827
1493.910156	963.222046
1492.804688	981.146057
1491.699219	1046.530884
1490.591797	1012.456055
1489.486328	998.728760
1488.378906	1016.634644
1487.271484	1011.946411
1486.166016	1014.034973
1485.058594	1009.348694
1483.951172	991.117859
1482.843750	963.864014
1481.736328	974.986755
1480.626953	1028.979980
1479.519531	999.477173
1478.412109	983.518921
1477.302734	1021.695618
1476.195313	1044.074219
1475.085938	998.806091
1473.976563	1016.672485
1472.867188	1036.786743
1471.757813	950.979431
1470.648438	995.882263
1469.539063	968.682068
1468.427734	1027.081055
1467.318359	1020.152527
1466.208984	979.452148
1465.097656	1033.317261
1463.986328	954.363708
1462.876953	983.459656
1461.765625	990.044739
1460.654297	971.880676
1459.542969	1025.701660
1458.431641	991.794861
1457.318359	996.125427
1456.207031	1027.432983
1455.095703	1031.756104
1453.982422	1058.552246
1452.869141	993.209045
1451.757813	993.042114
1450.644531	970.412048
1449.531250	954.527344
1448.417969	1019.488403
1447.304688	956.451721
1446.191406	1001.187256
1445.076172	1001.018982
1443.962891	1009.826965
1442.847656	1002.926208
1441.734375	1009.487488
1440.619141	1002.589050
1439.503906	957.569458
1438.390625	1017.947205
1437.275391	963.972900
1436.158203	952.603760
1435.042969	981.577148
1433.927734	985.893433
1432.812500	983.487366
1431.695313	999.001404
1430.580078	974.198547
1429.462891	1021.057068
1428.345703	994.019958
1427.228516	1058.766602
1426.113281	1065.302612
1424.996094	1015.895020
1423.876953	1102.978027
1422.759766	950.683167
1421.642578	1071.295654
1420.523438	1006.267090
1419.406250	999.390503
1418.287109	936.631287
1417.169922	969.999023
1416.050781	1007.824768
1414.931641	1052.340576
1413.812500	1054.397461
1412.693359	942.544189
1411.574219	1042.876953
1410.453125	935.528687
1409.333984	950.997986
1408.214844	973.158081
1407.093750	1035.480225
1405.972656	1024.149658
1404.853516	1077.518555
1403.732422	956.889526
1402.611328	990.180542
1401.490234	978.865051
1400.369141	985.388428
1399.246094	1034.260742
1398.125000	1018.486267
1397.003906	1002.716980
1395.880859	1027.054932
1394.757813	1066.977173
1393.636719	948.759338
1392.513672	968.640442
1391.390625	966.250977
1390.267578	921.568054
1389.144531	928.089783
1388.021484	981.339722
1386.896484	883.279480
1385.773438	981.009216
1384.648438	945.257813
1383.525391	965.112488
1382.400391	969.396667
1381.275391	984.794495
1380.150391	986.851257
1379.025391	946.684265
1377.900391	1024.290894
1376.775391	919.707153
1375.650391	955.090454
1374.523438	977.137207
1373.398438	1025.821167
1372.271484	934.627625
1371.146484	998.839783
1370.019531	949.847534
1368.892578	985.189819
1367.765625	969.494141
1366.638672	989.294067
1365.511719	1031.265015
1364.384766	971.221436
1363.255859	997.662048
1362.128906	979.760681
1361.000000	968.514160
1359.873047	939.544128
1358.744141	917.230408
1357.615234	963.594116
1356.486328	996.653442
1355.357422	907.908936
1354.228516	929.896240
1353.099609	982.867432
1351.968750	936.222595
1350.839844	947.129333
1349.708984	933.694336
1348.580078	900.354309
1347.449219	951.073853
1346.318359	977.450562
1345.187500	917.587280
1344.056641	935.117981
1342.925781	919.488098
1341.794922	925.962830
1340.664063	967.788330
1339.531250	932.278015
1338.400391	857.020996
1337.267578	929.755066
1336.136719	938.430481
1335.003906	933.856812
1333.871094	940.321228
1332.738281	984.301636
1331.605469	917.938110
1330.472656	906.752197
1329.337891	948.510071
1328.205078	882.186035
1327.072266	897.472839
1325.937500	923.778015
1324.802734	945.665588
1323.669922	956.525879
1322.535156	914.495972
1321.400391	881.293091
1320.265625	953.838745
1319.130859	878.793091
1317.994141	852.219360
1316.859375	966.566223
1315.722656	922.375610
1314.587891	906.812866
1313.451172	856.045227
1312.314453	840.498901
1311.179688	893.154297
1310.042969	853.412170
1308.906250	875.259521
1307.769531	921.285950
1306.630859	896.947937
1305.494141	791.291016
1304.355469	905.435669
1303.218750	854.745117
1302.080078	874.372986
1300.943359	889.601135
1299.804688	887.254700
1298.666016	858.559326
1297.527344	777.183289
1296.388672	838.513733
1295.248047	849.345520
1294.109375	862.367981
1292.970703	864.416199
1291.830078	811.624268
1290.691406	807.100708
1289.550781	879.327942
1288.410156	859.447144
1287.269531	859.301941
1286.128906	810.938721
1284.988281	856.820129
1283.847656	790.945801
1282.705078	819.290100
1281.564453	878.288208
1280.423828	825.582764
1279.281250	832.011719
1278.138672	866.897217
1276.996094	842.674255
1275.855469	842.531799
1274.712891	851.141479
1273.568359	835.683960
1272.425781	846.479126
1271.283203	857.270569
1270.140625	852.752502
1268.996094	865.725342
1267.851563	896.180237
1266.708984	856.690857
1265.564453	871.841431
1264.419922	873.878662
1263.275391	812.569702
1262.130859	786.224792
1260.986328	858.150208
1259.839844	888.570129
1258.695313	905.882629
1257.550781	881.722107
1256.404297	824.838013
1255.257813	859.606384
1254.113281	872.549133
1252.966797	896.392578
1251.820313	872.253906
1250.673828	817.599670
1249.525391	900.297424
1248.378906	908.863159
1247.232422	915.246826
1246.083984	869.337341
1244.937500	869.190247
1243.789063	873.399231
1242.640625	879.784485
1241.492188	894.876770
1240.343750	866.424988
1239.195313	872.808044
1238.046875	850.898193
1236.898438	909.501892
1235.748047	894.119568
1234.599609	889.617981
1233.449219	872.069519
1232.300781	932.804138
1231.150391	913.080200
1230.000000	899.883789
1228.849609	893.211609
1227.699219	869.158508
1226.548828	903.771790
1225.398438	860.175476
1224.246094	940.386169
1223.095703	911.998352
1221.943359	870.593811
1220.791016	970.298035
1219.640625	857.276978
1218.488281	915.720520
1217.335938	898.208679
1216.183594	919.748718
1215.031250	906.579773
1213.876953	973.649170
1212.724609	953.971130
1211.570313	912.622253
1210.417969	899.463379
1209.263672	910.145996
1208.109375	881.825378
1206.957031	974.825928
1205.802734	948.669800
1204.646484	965.833374
1203.492188	954.843811
1202.337891	978.494873
1201.183594	943.697937
1200.027344	954.358337
1198.873047	949.869141
1197.716797	917.257935
1196.560547	919.265442
1195.404297	884.507813
1194.248047	1029.228149
1193.091797	964.197388
1191.935547	970.518433
1190.779297	994.126465
1189.621094	937.777649
1188.464844	978.666443
1187.306641	1028.181519
1186.150391	1002.091003
1184.992188	1027.832764
1183.833984	1023.340576
1182.675781	1044.752808
1181.517578	990.620239
1180.359375	1016.346375
1179.199219	990.284180
1178.041016	1009.530273
1176.882813	1026.613037
1175.722656	1048.002686
1174.562500	1093.101196
1173.404297	1058.425293
1172.244141	1064.711548
1171.083984	1055.911255
1169.923828	1055.732056
1168.761719	1090.020020
1167.601563	1070.450562
1166.441406	1055.194702
1165.279297	1104.536743
1164.119141	1143.098389
1162.957031	1114.923706
1161.794922	1099.670410
1160.632813	1114.545166
1159.470703	1077.784424
1158.308594	1124.921387
1157.146484	1107.526123
1155.984375	1094.437012
1154.820313	1195.292114
1153.658203	1128.456421
1152.494141	1242.165894
1151.330078	1113.032349
1150.167969	1168.700317
1149.003906	1232.941284
1147.839844	1198.369995
1146.675781	1170.252197
1145.509766	1174.347290
1144.345703	1260.008667
1143.181641	1221.163818
1142.015625	1285.330200
1140.849609	1242.203369
1139.685547	1229.121948
1138.519531	1250.360107
1137.353516	1269.446777
1136.187500	1282.094849
1135.021484	1264.728271
1133.855469	1345.956543
1132.687500	1367.156616
1131.521484	1345.499268
1130.353516	1287.432495
1129.187500	1340.758423
1128.019531	1325.540527
1126.851563	1327.456421
1125.683594	1421.421387
1124.515625	1344.127808
1123.347656	1380.278809
1122.179688	1482.745117
1121.009766	1448.265259
1119.841797	1441.602417
1118.671875	1479.850586
1117.503906	1449.664917
1116.333984	1445.142944
1115.164063	1425.660400
1113.994141	1502.352173
1112.824219	1568.334229
1111.654297	1557.385864
1110.484375	1537.897339
1109.312500	1546.178223
1108.142578	1605.702026
1106.970703	1571.270874
1105.800781	1588.079834
1104.628906	1722.261353
1103.457031	1649.419556
1102.285156	1615.004150
1101.113281	1706.451172
1099.941406	1748.814941
1098.769531	1808.222900
1097.595703	1699.184570
1096.423828	1788.423218
1095.250000	1849.925171
1094.076172	1743.066040
1092.904297	1759.813599
1091.730469	1823.419067
1090.556641	1970.064941
1089.382813	1888.811035
1088.207031	1894.876831
1087.033203	1915.998657
1085.859375	1937.120483
1084.683594	1958.242310
1083.509766	1979.364136
1082.333984	2000.485962
1081.158203	2021.607910
1079.982422	2042.729736
1078.806641	2063.851563
1077.630859	2084.973389
1076.455078	2106.095215
1075.279297	2127.217041
1074.101563	2218.218262
1072.925781	2230.586670
1071.748047	2191.974609
1070.570313	2308.401855
1069.392578	2280.406006
1068.214844	2282.140625
1067.037109	2205.339844
1065.859375	2264.385742
1064.681641	2395.553955
1063.503906	2367.566650
1062.324219	2411.706787
1061.146484	2368.880859
1059.966797	2330.310303
1058.787109	2319.313232
1057.607422	2407.944092
1056.427734	2363.028564
1055.248047	2457.978516
1054.068359	2512.642822
1052.888672	2296.155762
1051.707031	2429.189941
1050.527344	2445.716064
1049.345703	2464.353516
1048.166016	2411.013916
1046.984375	2440.232910
1045.802734	2384.799561
1044.621094	2513.450684
1043.439453	2553.213623
1042.257813	2427.994629
1041.074219	2406.434570
1039.892578	2456.766602
1038.708984	2433.094727
1037.527344	2479.177734
1036.343750	2430.152100
1035.160156	2433.963379
1033.976563	2433.548340
1032.792969	2447.917969
1031.609375	2441.165283
1030.425781	2438.637695
1029.242188	2431.888672
1028.056641	2488.461670
1026.873047	2416.287109
1025.687500	2363.126709
1024.501953	2436.558838
1023.316406	2446.689209
1022.130859	2366.135254
1020.945313	2386.816650
1019.759766	2306.300293
1018.574219	2394.433350
1017.386719	2429.851074
1016.201172	2349.368164
1015.013672	2374.247803
1013.828125	2325.396729
1012.640625	2301.834229
1011.453125	2295.124512
1010.265625	2362.101074
1009.078125	2325.914795
1007.890625	2281.322510
1006.701172	2308.287354
1005.513672	2257.401611
1004.324219	2322.223633
1003.136719	2227.187500
1001.947266	2157.416748
1000.757813	2182.277100
999.568359	2213.435059
998.378906	2219.362061
997.189453	2176.957031
996.000000	2111.455811
994.808594	2140.503418
993.619141	2249.350098
992.427734	2154.471680
991.238281	2124.710449
990.046875	2103.355957
988.855469	2170.158447
987.664063	2129.917236
986.472656	2083.395752
985.281250	2038.987671
984.089844	2040.736694
982.896484	1987.962891
981.705078	2086.165771
980.511719	2048.076172
979.318359	1980.656372
978.126953	1959.362183
976.933594	2003.026978
975.740234	2073.909912
974.546875	1989.775513
973.351563	1997.812012
972.158203	2039.346313
970.964844	2041.091187
969.769531	2055.393799
968.574219	1958.777832
967.380859	1895.672363
966.185547	1909.992310
964.990234	1964.048462
963.794922	1921.887085
962.599609	1877.649170
961.402344	1917.048950
960.207031	1960.615479
959.009766	1916.393433
957.814453	1840.843994
956.617188	1844.707520
955.419922	1938.387085
954.222656	1837.811401
953.025391	1971.133179
951.828125	1916.515747
950.630859	1861.916870
949.433594	1903.338257
948.234375	1965.611816
947.037109	1856.789063
945.837891	1877.330688
944.638672	1845.725952
943.441406	1853.751099
942.242188	1836.755127
941.042969	1796.835449
939.841797	1821.537720
938.642578	1792.053101
937.443359	1895.917725
936.242188	1833.101196
935.042969	1895.268921
933.841797	1822.062134
932.640625	1869.636230
931.439453	1856.826416
930.238281	1781.582275
929.037109	1810.410400
927.835938	1760.166626
926.634766	1786.908203
925.431641	1722.126587
924.230469	1732.229248
923.027344	1750.645142
921.824219	1687.981567
920.623047	1741.731934
919.419922	1789.229614
918.216797	1763.990479
917.011719	1711.754150
915.808594	1786.233643
914.605469	1696.631348
913.400391	1704.645996
912.197266	1747.948975
910.992188	1731.044800
909.787109	1705.845459
908.582031	1670.280273
907.376953	1690.739502
906.171875	1659.337280
904.966797	1654.905396
903.761719	1606.932251
902.554688	1633.607300
901.349609	1625.036377
900.142578	1610.251221
898.935547	1612.047363
897.728516	1584.839111
896.521484	1551.426270
895.314453	1569.799194
894.107422	1569.530151
892.900391	1515.434326
891.693359	1533.803711
890.484375	1471.454102
889.275391	1525.001099
888.068359	1549.565918
886.859375	1536.889282
885.650391	1522.148926
884.441406	1505.345703
883.232422	1546.436157
882.023438	1548.238037
880.812500	1533.505615
879.603516	1535.308960
878.392578	1501.989502
877.183594	1435.630981
875.972656	1375.490967
874.761719	1521.866333
873.550781	1465.861328
872.339844	1519.280151
871.128906	1438.528076
869.916016	1460.980103
868.705078	1429.781860
867.494141	1382.091675
866.281250	1484.978027
865.068359	1424.921875
863.855469	1453.542114
862.642578	1436.801392
861.429688	1469.531738
860.216797	1469.279541
859.003906	1479.329224
857.791016	1437.875488
856.576172	1454.105835
855.363281	1412.670532
854.148438	1453.606689
852.933594	1399.834229
851.718750	1411.943237
850.503906	1393.180054
849.289063	1425.861206
848.074219	1419.444946
846.859375	1427.428467
845.642578	1460.086792
844.427734	1367.311279
843.210938	1408.191528
841.994141	1395.617432
840.777344	1397.432739
839.560547	1481.435303
838.343750	1417.496338
837.126953	1400.820923
835.910156	1464.243042
834.691406	1414.712769
833.474609	1365.199463
832.255859	1360.859741
831.039063	1416.036133
829.820313	1471.193481
828.601563	1460.683105
827.382813	1491.199707
826.164063	1406.859985
824.943359	1435.324829
823.724609	1404.326538
822.505859	1436.881348
821.285156	1362.855835
820.064453	1460.976196
818.845703	1432.043335
817.625000	1466.619141
816.404297	1476.607056
815.183594	1382.161499
813.960938	1461.768433
812.740234	1545.441895
811.519531	1524.710327
810.296875	1444.644897
809.074219	1466.901245
807.853516	1487.104370
806.630859	1517.526489
805.408203	1474.324097
804.185547	1517.004639
802.962891	1510.611450
801.738281	1536.920776
800.515625	1522.352539
799.291016	1448.540039
798.068359	1440.119995
796.843750	1527.694336
795.619141	1492.717163
794.394531	1563.918823
793.169922	1575.897705
791.945313	1520.520508
790.720703	1532.502686
789.496094	1524.077881
788.269531	1576.853516
787.042969	1535.790894
785.818359	1513.095337
784.591797	1451.669189
783.365234	1559.460327
782.138672	1520.467041
780.912109	1581.339600
779.685547	1528.093506
778.457031	1562.461304
777.230469	1552.008667
776.001953	1586.360474
774.775391	1547.402344
773.546875	1479.957642
772.318359	1583.505981
771.089844	1581.198364
769.861328	1544.302368
768.632813	1568.448120
767.402344	1582.415771
766.173828	1508.933594
764.943359	1496.474243
763.714844	1618.190674
762.484375	1506.121582
761.253906	1633.890991
760.023438	1556.399170
758.792969	1592.698120
757.562500	1529.458130
756.332031	1584.026367
755.099609	1608.118896
753.869141	1630.172974
752.636719	1617.713623
751.404297	1580.905640
750.173828	1540.052246
748.941406	1689.911011
747.708984	1669.336304
746.474609	1656.880615
745.242188	1717.424805
744.009766	1678.609985
742.775391	1787.776367
741.542969	1755.042603
740.308594	1673.689697
739.074219	1768.619019
737.839844	1703.496216
736.605469	1693.076538
735.371094	1725.182495
734.136719	1710.713501
732.900391	1837.940918
731.666016	1778.933350
730.429688	1794.814331
729.195313	1749.996338
727.958984	1907.470459
726.722656	1834.334473
725.486328	1831.996094
724.250000	1843.810425
723.013672	1871.791748
721.775391	1889.658081
720.539063	1838.815308
719.300781	1824.355835
718.064453	1989.679443
716.826172	1922.688354
715.587891	1995.050903
714.349609	1857.419189
713.111328	1953.990845
711.873047	1939.526001
710.632813	2019.906982
709.394531	1991.312866
708.154297	1942.556641
706.916016	2081.383545
705.675781	2050.777100
704.435547	2024.213135
703.195313	1925.089600
701.955078	2059.792725
700.714844	2075.557861
699.472656	2014.756958
698.232422	2050.668457
696.990234	2094.623779
695.750000	2138.563965
694.507813	2182.488770
693.265625	2131.786621
692.023438	2115.317139
690.781250	2127.025879
689.539063	2060.263184
688.296875	2132.326172
687.052734	2182.239990
685.810547	2226.103516
684.566406	2249.846191
683.322266	2213.273193
682.080078	2130.485352
680.835938	2232.604248
679.589844	2214.135742
678.345703	2294.107178
677.101563	2297.728027
675.857422	2196.923096
674.611328	2357.168457
673.365234	2234.305908
672.121094	2306.176025
670.875000	2396.082031
669.628906	2335.475342
668.382813	2419.326904
667.136719	2360.742676
665.888672	2384.399170
664.642578	2428.097900
663.396484	2393.598633
662.148438	2367.128418
660.900391	2380.747070
659.652344	2410.390381
658.404297	2430.006592
657.156250	2399.542236
655.908203	2431.169189
654.660156	2408.723877
653.412109	2436.334229
652.162109	2339.837402
650.912109	2403.472168
649.664063	2503.100342
648.414063	2420.645752
647.164063	2412.226318
645.914063	2497.802246
644.664063	2427.387939
643.412109	2476.946777
642.162109	2454.531494
640.912109	2404.145264
639.660156	2493.644531
638.408203	2517.186279
637.156250	2426.866699
635.906250	2468.385498
634.652344	2531.853760
633.400391	2519.437256
632.148438	2449.139893
630.896484	2552.492188
629.642578	2492.189941
628.390625	2505.723633
627.136719	2489.332764
625.882813	2520.811035
624.628906	2420.676270
623.375000	2466.110596
622.121094	2441.764160
620.867188	2505.115479
619.611328	2560.474121
618.357422	2480.341064
617.101563	2511.781982
615.845703	2515.330078
614.591797	2532.815430
613.335938	2655.810303
612.080078	2619.521240
610.822266	2617.077393
609.566406	2531.061523
608.310547	2580.360107
607.052734	2697.272461
605.796875	2659.018066
604.539063	2638.672852
603.281250	2707.799561
602.023438	2643.722168
600.765625	2647.239014
599.507813	2710.366455
598.250000	2662.215576
596.990234	2757.100586
595.732422	2722.860107
594.472656	2760.116455
593.212891	2690.150879
591.955078	2667.849609
590.695313	2715.019287
589.435547	2766.140869
588.173828	2690.270264
586.914063	2830.641846
585.654297	2907.499512
584.392578	2827.677734
583.132813	2827.187500
581.871094	2822.732666
580.609375	2887.646484
579.347656	2742.491211
578.085938	2894.570068
576.824219	2937.647461
575.562500	2875.741455
574.298828	2821.777344
573.037109	2944.038818
571.773438	2854.450439
570.509766	2921.246826
569.248047	2928.655518
567.984375	2845.051270
566.718750	3000.830566
565.455078	2962.731934
564.191406	2946.398193
562.927734	2985.429199
561.662109	2903.864014
560.396484	2940.912109
559.132813	3086.631348
557.867188	3014.969482
556.601563	3061.855469
555.335938	2978.372070
554.070313	3092.388184
552.802734	3101.723145
551.537109	3034.068115
550.269531	3023.673096
549.003906	3113.921631
547.736328	3188.354736
546.468750	3231.199707
545.201172	3204.998779
543.933594	3312.900146
542.666016	3270.920898
541.396484	3250.640137
540.128906	3254.017578
538.859375	3298.776367
537.591797	3237.125488
536.322266	3445.374023
535.052734	3364.023193
533.783203	3359.500488
532.513672	3443.579102
531.244141	3470.540527
529.972656	3466.001221
528.703125	3490.112305
527.431641	3514.223389
526.162109	3538.334473
524.890625	3562.445801
523.619141	3586.556885
522.347656	3610.667969
521.076172	3634.779053
519.804688	3699.007813
518.531250	3692.469727
517.259766	3748.806641
515.986328	3840.483887
514.712891	3857.493408
513.441406	3829.330078
512.167969	3936.652588
510.894531	3857.445068
509.621094	3984.352295
508.345703	4064.117676
507.072266	4016.322021
505.796875	3882.227295
504.523438	4085.534668
503.248047	4043.642578
501.972656	4180.187500
500.697266	4220.627930
499.421875	3990.573242
498.146484	4089.822266
496.871094	4104.785645
495.593750	4178.512695
494.318359	4109.233398
493.041016	4026.270020
491.765625	4000.116211
490.488281	4130.581055
489.210938	4071.143799
487.933594	4099.789551
486.654297	3975.810547
485.376953	4115.969238
484.099609	3947.044189
482.820313	3946.357178
481.541016	4090.358154
480.263672	3901.976074
478.984375	3995.115723
477.705078	4121.444336
476.425781	4144.173828
475.146484	4110.242188
473.865234	3937.645264
472.585938	3991.639893
471.304688	4129.573730
470.023438	4048.815430
468.744141	3989.555176
467.462891	3963.491211
466.181641	3742.320313
464.900391	3891.881592
463.617188	3840.491211
462.335938	3767.667480
461.054688	3891.798340
459.771484	3776.102295
458.488281	3814.427002
457.205078	3755.299316
455.921875	3824.788818
454.638672	3812.434082
453.355469	3813.717529
452.072266	3768.262451
450.789063	3759.817627
449.503906	3728.014648
448.218750	3684.544189
446.935547	3740.337891
445.650391	3782.492188
444.365234	3645.655762
443.080078	3711.152100
441.794922	3735.786621
440.507813	3707.914307
439.222656	3738.372314
437.935547	3634.705078
436.650391	3676.825195
435.363281	3569.318359
434.076172	3716.339600
432.789063	3639.940430
431.501953	3701.449707
430.214844	3588.187988
428.925781	3515.733398
427.638672	3617.992432
426.349609	3563.023438
425.062500	3587.626221
423.773438	3495.822021
422.484375	3662.020264
421.195313	3576.052734
419.906250	3594.818604
418.615234	3557.357666
417.326172	3504.403809
416.037109	3556.116699
414.746094	3561.309082
413.455078	3581.997559
412.164063	3577.498779
410.873047	3561.381836
409.582031	3487.182861
408.291016	3600.792969
407.000000	3524.677246
405.707031	3628.564941
404.416016	3536.991455
403.123047	3472.533447
401.832031	3520.282959
400.539063	3446.180908
399.246094	3412.708984
397.953125	3477.842285
396.658203	3324.538330
395.365234	3526.873779
394.072266	3433.512695
392.777344	3535.301758
391.482422	3590.698486
390.187500	3377.641113
388.894531	3467.801025
387.597656	3517.388672
386.302734	3343.058838
385.007813	3400.369873
383.712891	3372.762939
382.416016	3385.677979
381.121094	3412.090088
379.824219	3453.920654
378.527344	3472.598877
377.230469	3506.692871
375.933594	3496.442627
374.636719	3387.911865
373.337891	3377.685791
372.041016	3371.316162
370.742188	3372.653076
369.445313	3412.505371
368.146484	3456.194580
366.847656	3540.295654
365.548828	3483.858154
364.250000	3450.533447
362.951172	3438.385742
361.650391	3462.793701
360.351563	3494.886719
359.050781	3488.506348
357.751953	3489.819336
356.451172	3443.070801
355.150391	3432.858154
353.849609	3441.866699
352.548828	3447.029053
351.246094	3602.033936
349.945313	3516.891113
348.642578	3593.092529
347.341797	3563.662842
346.039063	3497.768311
344.736328	3483.720703
343.433594	3485.030273
342.130859	3486.339355
340.828125	3499.158203
339.523438	3628.974121
338.220703	3540.123779
336.916016	3478.147705
335.613281	3510.128906
334.308594	3618.767822
333.003906	3522.315186
331.699219	3592.592529
330.394531	3563.228027
329.089844	3560.688965
327.783203	3519.849854
326.478516	3540.295410
325.171875	3443.957031
323.865234	3341.910156
322.558594	3410.218262
321.251953	3365.613770
319.945313	3483.632568
318.638672	3368.260742
317.332031	3327.511230
316.023438	3315.456299
314.716797	3320.610840
313.408203	3440.444824
312.099609	3445.575195
310.791016	3282.563232
309.482422	3346.940186
308.173828	3331.073730
306.865234	3256.012451
305.556641	3368.093750
304.246094	3367.503662
302.935547	3303.927246
301.626953	3284.264648
300.316406	3401.986084
299.005859	3243.052734
297.695313	3215.781494
296.384766	3295.312256
295.072266	3374.815186
293.761719	3328.471436
292.449219	3371.726074
291.138672	3348.267090
289.826172	3328.626709
288.513672	3331.853271
287.201172	3333.173828
285.888672	3271.650635
284.574219	3371.989258
283.261719	3308.576904
281.947266	3367.000000
280.634766	3326.446533
279.320313	3308.739258
278.005859	3319.572998
276.691406	3414.090820
275.376953	3364.048584
274.062500	3336.839844
272.748047	3307.739502
271.431641	3337.570068
270.117188	3312.280273
268.800781	3353.499023
267.484375	3259.827148
266.167969	3369.416504
264.851563	3302.360107
263.535156	3267.604736
262.218750	3320.184570
260.900391	3349.969971
259.583984	3216.545410
258.265625	3274.798096
256.947266	3374.764404
255.630859	3338.135498
254.312500	3430.469971
252.994141	3361.611572
251.673828	3404.621826
250.355469	3377.489502
249.035156	3246.141113
247.716797	3272.096680
246.396484	3396.548340
245.076172	3412.998047
243.755859	3476.783691
242.435547	3479.959717
241.115234	3416.879150
239.794922	3353.820801
238.474609	3476.234131
237.152344	3449.135254
235.830078	3306.653564
234.509766	3398.748779
233.187500	3375.459473
231.865234	3397.554688
230.542969	3372.383057
229.218750	3453.061279
227.896484	3512.924561
226.572266	3489.635010
225.250000	3356.790283
223.925781	3422.304443
222.601563	3465.135254
221.277344	3456.974121
219.953125	3469.580322
218.628906	3412.349609
217.304688	3424.958984
215.978516	3482.844482
214.654297	3442.618652
213.328125	3406.178711
212.001953	3416.894043
210.675781	3487.937256
209.349609	3496.749268
208.023438	3420.746094
206.697266	3478.560059
205.371094	3493.020752
204.042969	3547.034180
202.714844	3484.258545
201.388672	3577.798340
200.060547	3501.860107
198.732422	3463.596436
197.404297	3619.197998
196.076172	3569.636230
194.746094	3572.770996
193.417969	3658.671387
192.087891	3620.413086
190.757813	3606.613281
189.429688	3652.980225
188.099609	3642.938721
186.769531	3715.594727
185.437500	3831.443604
184.107422	3718.044434
182.777344	3723.025146
181.445313	3626.587402
180.113281	3753.636475
178.783203	3775.504639
177.451172	3802.996582
176.119141	3747.900635
174.787109	3833.556885
173.453125	3765.342041
172.121094	3832.207031
170.787109	3831.531982
169.455078	3795.230225
168.121094	3828.307861
166.787109	3722.664307
165.453125	3841.952393
164.119141	3743.838379
162.785156	3917.411133
161.451172	3779.982178
160.115234	3771.825195
158.779297	3861.039307
157.445313	3880.952637
156.109375	3859.678955
154.773438	3976.902344
153.437500	3871.416748
152.101563	3923.117676
150.763672	3881.275391
149.427734	3901.163086
148.089844	4016.405273
146.753906	3868.006592
145.416016	4003.774658
144.078125	3982.511475
142.740234	3963.124268
141.402344	4104.407715
140.064453	4146.645020
138.724609	4054.404785
137.386719	4049.955566
136.046875	4144.451660
134.707031	4115.722656
133.367188	4240.033203
132.027344	4257.944336
130.687500	4328.084473
129.347656	4267.633789
128.007813	4421.667480
126.666016	4240.024414
125.326172	4390.279785
123.984375	4413.736328
122.642578	4440.911133
121.300781	4369.324219
119.958984	4370.416016
118.617188	4378.958008
117.273438	4391.221191
115.931641	4630.635742
114.587891	4434.349609
113.246094	4437.290039
111.902344	4460.699219
110.558594	4487.820801
109.214844	4600.506836
107.871094	4601.554688
106.525391	4675.127930
105.181641	4612.945313
103.835938	4420.655762
102.492188	4585.295410
101.146484	4705.276855
99.800781	4667.286133
98.455078	4805.787109
97.109375	4713.928711
95.763672	4932.223633
94.416016	4929.495605
93.070313	4872.934570
91.722656	4953.738770
90.375000	4887.914551
89.027344	4797.993164
87.679688	4789.725098
86.332031	4805.571289
84.984375	5023.540527
83.636719	5128.334473
82.287109	4984.690430
80.937500	4944.888184
79.589844	4934.749023
78.240234	5054.305664
76.890625	5096.018066
75.541016	5243.285156
74.189453	5162.732422
72.839844	5047.030273
71.490234	5142.396484
70.138672	5124.830078
68.787109	5007.345215
67.435547	5026.811523
66.085938	4916.784180
64.732422	4886.322754
63.380859	4996.408203
62.029297	5030.652344
60.675781	5251.582031
59.324219	5137.915039
57.970703	4706.458496
56.617188	4498.704102
55.263672	4451.729004
53.910156	4284.723633
52.556641	4348.594238
51.203125	4299.823730
