#Wave		#Intensity
4002.533203	4106.214844
4001.835938	4102.631836
4001.137695	4091.224609
4000.439453	3979.527100
3999.742188	4204.512695
3999.043945	4200.256348
3998.345703	4077.854004
3997.646484	4037.822510
3996.948242	4180.335449
3996.250000	4047.260010
3995.550781	3989.363037
3994.852539	4135.392090
3994.153320	4263.490723
3993.454102	4155.520020
3992.754883	4169.154297
3992.055664	4200.659668
3991.356445	4178.537598
3990.657227	4113.536133
3989.957031	4066.422119
3989.257813	4108.641113
3988.557617	4111.553223
3987.857422	4007.316406
3987.157227	4081.663574
3986.457031	4163.127441
3985.756836	4191.017090
3985.056641	4115.388672
3984.356445	4046.921875
3983.655273	4171.156250
3982.955078	4002.810303
3982.253906	4109.176758
3981.552734	3997.957520
3980.851563	4136.382813
3980.150391	4199.893066
3979.449219	4192.088867
3978.748047	4113.004395
3978.045898	4033.945313
3977.344727	4175.816406
3976.642578	4253.518555
3975.940430	4049.810059
3975.239258	4027.791748
3974.537109	4002.219727
3973.834961	4222.304199
3973.131836	3943.980713
3972.429688	3982.495850
3971.727539	4049.465576
3971.024414	4063.046387
3970.321289	4169.111328
3969.619141	4221.791992
3968.916016	4075.312744
3968.212891	4071.102295
3967.509766	4052.673340
3966.805664	4094.675049
3966.102539	4118.894043
3965.399414	4256.809570
3964.695313	3996.779053
3963.991211	4045.866699
3963.288086	4134.005371
3962.583984	3920.282471
3961.879883	4086.521973
3961.174805	4167.511719
3960.470703	4152.645020
3959.766602	4144.880859
3959.061523	4133.570313
3958.357422	4033.574707
3957.652344	4121.601563
3956.947266	4092.567871
3956.242188	4184.102539
3955.537109	4116.070313
3954.832031	4062.238281
3954.125977	4022.600342
3953.420898	4075.107666
3952.714844	4124.055176
3952.009766	4134.020020
3951.303711	4076.686035
3950.597656	4270.802246
3949.891602	4156.812988
3949.185547	4117.203613
3948.479492	4201.492676
3947.772461	4161.888672
3947.066406	4277.988770
3946.359375	4135.786621
3945.653320	4142.196777
3944.946289	4173.362305
3944.239258	4133.793945
3943.532227	4094.238281
3942.825195	4033.485107
3942.117188	4156.543945
3941.410156	4071.062500
3940.702148	4172.875488
3939.995117	4126.279297
3939.287109	4093.826904
3938.579102	4011.941650
3937.871094	4166.664551
3937.163086	4060.080322
3936.455078	4239.455078
3935.746094	4157.598633
3935.038086	4107.527832
3934.329102	4258.582520
3933.621094	4123.846680
3932.912109	4098.495117
3932.203125	4154.261230
3931.494141	4241.743652
3930.785156	4085.944580
3930.075195	4131.111328
3929.366211	4010.622803
3928.657227	4150.926758
3927.947266	4100.936523
3927.237305	4012.213623
3926.527344	3993.959229
3925.817383	4176.433105
3925.107422	4101.824219
3924.397461	3977.954346
3923.687500	4220.178223
3922.976563	4071.695068
3922.266602	4130.857910
3921.555664	4031.688965
3920.844727	4055.664063
3920.133789	4012.809814
3919.422852	4075.459961
3918.711914	4036.131836
3918.000977	4060.090576
3917.290039	4154.334473
3916.578125	4051.758545
3915.866211	4019.486328
3915.155273	4173.411621
3914.443359	4077.906738
3913.731445	4073.740234
3913.019531	4059.041016
3912.307617	4051.367920
3911.594727	4036.677002
3910.882813	4053.576904
3910.169922	4158.196777
3909.458008	4178.580078
3908.745117	4125.291016
3908.032227	3977.320313
3907.319336	4173.061035
3906.606445	4116.291992
3905.893555	4020.978760
3905.179688	4069.404297
3904.466797	3960.110840
3903.752930	4057.586182
3903.039063	4176.050293
3902.326172	4129.843262
3901.612305	3908.536865
3900.898438	3935.923096
3900.183594	4215.383301
3899.469727	4067.682129
3898.755859	4140.529785
3898.041016	4097.871582
3897.326172	4069.222412
3896.612305	3963.619141
3895.897461	4218.320801
3895.182617	4018.302246
3894.467773	4188.993652
3893.751953	4195.313477
3893.037109	4142.207031
3892.322266	4162.511719
3891.606445	4189.799316
3890.890625	4150.694336
3890.174805	4153.521484
3889.458984	4103.956543
3888.743164	4113.774414
3888.027344	4148.030273
3887.311523	4210.203125
3886.594727	4101.322266
3885.878906	3908.718262
3885.162109	4187.240234
3884.445313	4134.236328
3883.729492	4060.319580
3883.012695	4115.470703
3882.294922	4121.784668
3881.578125	4072.311279
3880.861328	4082.115723
3880.143555	4029.178955
3879.426758	3972.773926
3878.708984	4108.025391
3877.991211	4110.850098
3877.273438	4054.458740
3876.555664	4186.148926
3875.837891	4101.906738
3875.120117	4139.545410
3874.401367	4131.919434
3873.683594	4054.687012
3872.964844	4147.992676
3872.246094	4126.451172
3871.527344	4073.607910
3870.808594	4031.216064
3870.089844	4065.345459
3869.371094	4116.849121
3868.652344	4178.765625
3867.932617	4178.095215
3867.213867	4114.867676
3866.494141	4169.804688
3865.774414	4099.650391
3865.054688	4109.413574
3864.334961	4195.583496
3863.615234	4066.423584
3862.894531	4208.125000
3862.174805	4019.989258
3861.454102	4151.239746
3860.734375	4240.803711
3860.013672	4139.498535
3859.292969	4204.750488
3858.572266	4051.452393
3857.851563	4192.996582
3857.130859	4157.647949
3856.409180	4115.376465
3855.688477	4201.378418
3854.966797	3951.157471
3854.245117	4096.069336
3853.523438	4102.341797
3852.802734	4067.040771
3852.080078	4194.545410
3851.358398	4231.967285
3850.636719	4227.825684
3849.914063	4064.431641
3849.192383	4333.774902
3848.469727	4142.729004
3847.747070	4197.430176
3847.024414	4203.676270
3846.301758	4085.387207
3845.579102	4150.447266
3844.856445	4225.860840
3844.133789	4270.131348
3843.410156	4127.708008
3842.686523	4071.741943
3841.963867	3984.690430
3841.240234	4236.293945
3840.516602	4104.331055
3839.792969	4155.486328
3839.068359	4134.097656
3838.344727	3991.854736
3837.621094	4181.107910
3836.896484	4045.807129
3836.171875	4200.475586
3835.448242	4134.233887
3834.723633	4230.181641
3833.999023	4126.007813
3833.273438	4039.114014
3832.548828	4348.852051
3831.824219	4172.297363
3831.098633	4147.494629
3830.373047	4139.935059
3829.648438	4111.699219
3828.922852	4341.919434
3828.197266	4100.043945
3827.471680	4044.268311
3826.745117	4115.950195
3826.019531	4204.827637
3825.292969	4049.208984
3824.567383	4117.412598
3823.840820	4154.615234
3823.114258	3964.663818
3822.387695	4032.847900
3821.661133	4138.854980
3820.934570	4141.630859
3820.208008	4037.786377
3819.480469	4040.577637
3818.753906	4143.076660
3818.026367	4111.473145
3817.298828	4066.130859
3816.571289	4226.998047
3815.843750	4136.983398
3815.116211	4146.626465
3814.388672	4125.351563
3813.660156	4148.730957
3812.932617	4237.344727
3812.204102	4082.167725
3811.475586	3954.502197
3810.748047	4173.527344
3810.019531	4073.340820
3809.290039	4038.376953
3808.561523	4130.353516
3807.833008	4232.590332
3807.103516	4077.587402
3806.375000	4138.653320
3805.645508	4134.561035
3804.916016	4199.025879
3804.186523	4023.563965
3803.457031	4173.692383
3802.727539	4316.920410
3801.998047	4206.609863
3801.267578	4137.434570
3800.538086	4088.828369
3799.807617	4129.259766
3799.077148	4108.057617
3798.346680	4220.352051
3797.616211	4137.540527
3796.885742	4171.094238
3796.155273	4173.846680
3795.423828	4077.399658
3794.693359	4179.348145
3793.961914	4240.229980
3793.230469	4106.209473
3792.500000	4026.926758
3791.768555	4238.190430
3791.036133	4093.982178
3790.304688	4106.993164
3789.573242	4137.080566
3788.840820	4197.899902
3788.109375	4145.999512
3787.376953	4162.407715
3786.644531	4113.943359
3785.912109	4167.899902
3785.179688	4109.211426
3784.447266	4204.100098
3783.714844	4240.956543
3782.981445	4124.291504
3782.249023	4188.435059
3781.515625	4085.456543
3780.782227	4105.259766
3780.048828	4240.966797
3779.315430	4100.534668
3778.582031	4055.572754
3777.848633	4092.404785
3777.114258	4081.527832
3776.380859	4169.439941
3775.646484	4131.307129
3774.912109	4096.591309
3774.177734	4194.672852
3773.443359	4040.810547
3772.708984	4196.731445
3771.974609	4117.786621
3771.240234	4181.775879
3770.504883	4252.547852
3769.770508	4221.252930
3769.035156	4050.528564
3768.299805	4247.102539
3767.564453	4236.222168
3766.829102	4252.539551
3766.093750	4258.655273
3765.357422	4203.601074
3764.622070	4141.768555
3763.885742	4331.344238
3763.150391	4255.924805
3762.414063	4207.697754
3761.677734	4281.724121
3760.941406	4233.508301
3760.205078	4236.224121
3759.467773	4272.877441
3758.731445	4180.572754
3757.994141	4227.401367
3757.257813	4148.702637
3756.520508	4256.571289
3755.783203	4188.065918
3755.045898	4295.894043
3754.308594	4295.205078
3753.571289	4182.662598
3752.833008	4226.048828
3752.095703	4269.420898
3751.357422	4146.772461
3750.619141	4329.024414
3749.880859	4338.490723
3749.142578	4209.117676
3748.404297	4242.299805
3747.666016	4231.464355
3746.927734	4298.478516
3746.188477	4291.021484
3745.450195	4286.949707
3744.710938	4279.496582
3743.971680	4400.579102
3743.232422	4315.325684
3742.493164	4277.438965
3741.753906	4198.994141
3741.013672	4198.320801
3740.274414	4332.837891
3739.534180	4362.556152
3738.794922	4223.331543
3738.054688	4280.082520
3737.314453	4238.865723
3736.574219	4298.972656
3735.833984	4335.425293
3735.092773	4327.978516
3734.352539	4340.786133
3733.611328	4441.336914
3732.871094	4278.656738
3732.129883	4277.970703
3731.388672	4405.468750
3730.647461	4492.453125
3729.906250	4208.470703
3729.165039	4406.722168
3728.422852	4395.902832
3727.681641	4412.050781
3726.939453	4488.854004
3726.197266	4306.183105
3725.455078	4369.502441
3724.712891	4422.696289
3723.970703	4421.987305
3723.228516	4333.728516
3722.486328	4359.967773
3721.743164	4352.536621
3721.000977	4462.906738
3720.257813	4509.303711
3719.514648	4357.173340
3718.771484	4390.115723
3718.028320	4342.322266
3717.285156	4267.640625
3716.541016	4377.917480
3715.797852	4394.025391
3715.053711	4322.731934
3714.310547	4510.246094
3713.566406	4381.832031
3712.822266	4471.843262
3712.078125	4501.359375
3711.333008	4527.507324
3710.588867	4499.916504
3709.844727	4479.049805
3709.099609	4525.330566
3708.354492	4581.666504
3707.610352	4540.660156
3706.865234	4516.444336
3706.120117	4525.785156
3705.374023	4602.210449
3704.628906	4450.549805
3703.883789	4513.549316
3703.137695	4512.826172
3702.391602	4491.989258
3701.646484	4464.456055
3700.900391	4503.954102
3700.154297	4456.323730
3699.408203	4549.411621
3698.661133	4528.585449
3697.915039	4695.310059
3697.167969	4734.739258
3696.421875	4536.452148
3695.674805	4575.893555
3694.927734	4622.016602
3694.180664	4671.470703
3693.433594	4684.104980
3692.686523	4666.627930
3691.938477	4729.429688
3691.191406	4732.016113
3690.443359	4724.570313
3689.695313	4666.979980
3688.947266	4759.824219
3688.199219	4785.797852
3687.451172	4627.979980
3686.703125	4817.673340
3685.955078	4940.497559
3685.206055	4735.971680
3684.458008	4725.194824
3683.708984	4851.312988
3682.959961	4860.550293
3682.210938	4923.188477
3681.461914	4912.387695
3680.712891	4811.500000
3679.962891	4767.358887
3679.213867	4819.964844
3678.463867	4852.542969
3677.714844	4748.394531
3676.964844	4814.313965
3676.214844	4970.215820
3675.464844	5066.074707
3674.713867	5058.597656
3673.963867	5034.463867
3673.213867	5110.277832
3672.462891	5036.181152
3671.711914	5128.622070
3670.961914	5174.416504
3670.210938	5170.257813
3669.459961	5132.813965
3668.708008	5135.319336
3667.957031	5167.772461
3667.206055	5156.962891
3666.454102	5315.810547
3665.702148	5271.720703
3664.950195	5254.248535
3664.199219	5270.030762
3663.446289	5395.513672
3662.694336	5364.734375
3661.942383	5400.431152
3661.190430	5399.565918
3660.437500	5269.131836
3659.684570	5474.235352
3658.932617	5533.140137
3658.179688	5552.177246
3657.426758	5428.442383
3656.672852	5640.027832
3655.919922	5503.041504
3655.166992	5495.522461
3654.413086	5468.097656
3653.659180	5775.747559
3652.906250	5751.603516
3652.152344	5750.681641
3651.398438	5729.864746
3650.644531	5781.992188
3649.889648	5850.677246
3649.135742	5879.568359
3648.380859	6014.490723
3647.626953	5814.732422
3646.872070	6052.315430
3646.117188	5918.858398
3645.362305	6030.505859
3644.607422	6059.339844
3643.851563	6260.314453
3643.096680	6113.668457
3642.341797	6165.641113
3641.585938	6356.574707
3640.830078	6239.759766
3640.074219	6347.921875
3639.318359	6155.075195
3638.562500	6375.649414
3637.806641	6272.130859
3637.049805	6499.227051
3636.293945	6412.248047
3635.537109	6510.362793
3634.780273	6585.316895
3634.024414	6521.491211
3633.267578	6546.871582
3632.509766	6301.427246
3631.752930	6647.138672
3630.996094	6586.645020
3630.238281	6545.977051
3629.481445	6693.451660
3628.723633	6698.979004
3627.965820	6694.605957
3627.208008	6637.451172
3626.450195	6794.710938
3625.692383	6783.728516
3624.933594	6838.696289
3624.175781	6943.098633
3623.416992	7014.504395
3622.658203	6901.324219
3621.899414	6778.294434
3621.140625	7011.132324
3620.381836	6792.593262
3619.623047	7157.099609
3618.864258	6925.434570
3618.104492	7072.491211
3617.345703	7094.402344
3616.585938	7280.883301
3615.826172	7036.181641
3615.066406	7258.807129
3614.306641	7205.004395
3613.546875	7276.217285
3612.786133	7222.428711
3612.026367	7109.466797
3611.265625	7259.568359
3610.504883	7327.438965
3609.744141	7454.449707
3608.983398	7354.666992
3608.222656	7264.773438
3607.461914	7280.035156
3606.701172	7354.416504
3605.939453	7507.593750
3605.178711	7440.717773
3604.416992	7288.502441
3603.655273	7582.767090
3602.893555	7394.474609
3602.131836	7517.987793
3601.370117	7602.089355
3600.607422	7413.883789
3599.845703	7458.614746
3599.083008	7388.551758
3598.320313	7485.734863
3597.557617	7674.681152
3596.794922	7457.112793
3596.032227	7570.624512
3595.269531	7533.366211
3594.506836	7430.594727
3593.743164	7776.633301
3592.980469	7650.928711
3592.216797	7528.538574
3591.453125	7763.072754
3590.689453	7683.261230
3589.925781	7452.911133
3589.162109	7782.249512
3588.397461	7637.031250
3587.633789	7701.238281
3586.869141	7556.078613
3586.104492	7600.655273
3585.339844	7779.286133
3584.575195	7676.686035
3583.810547	7672.187012
3583.045898	7765.741699
3582.281250	7656.656738
3581.515625	7534.537598
3580.750977	7615.000977
3579.985352	7705.237305
3579.219727	7939.139648
3578.454102	7650.523926
3577.688477	7877.830078
3576.921875	7703.563965
3576.156250	7790.449219
3575.390625	7776.147949
3574.624023	7804.265625
3573.857422	7796.490723
3573.090820	7788.718262
3572.324219	7575.499512
3571.557617	7932.947266
3570.791016	7739.333496
3570.023438	7891.290527
3569.256836	7749.889160
3568.489258	7657.410156
3567.722656	7806.048828
3566.955078	7746.164063
3566.187500	7836.116211
3565.418945	7896.731445
3564.651367	7807.558105
3563.883789	7916.988281
3563.115234	7941.758301
3562.347656	7836.347656
3561.579102	7906.675293
3560.810547	7775.277832
3560.041992	7790.295410
3559.273438	7805.308105
3558.503906	7768.288574
3557.735352	7942.606934
3556.966797	7986.843262
3556.197266	7654.050293
3555.427734	7740.562988
3554.658203	7716.578613
3553.888672	7650.371094
3553.119141	7697.865723
3552.349609	7680.394043
3551.579102	7601.235352
3550.809570	7820.777832
3550.039063	7787.064941
3549.268555	8068.170410
3548.498047	7690.466797
3547.727539	7760.610840
3546.957031	7733.416016
3546.186523	7907.318359
3545.415039	7773.094727
3544.644531	7823.726074
3543.873047	7806.263184
3543.101563	7950.870117
3542.330078	7709.779297
3541.558594	7857.594727
3540.787109	7927.609375
3540.015625	7906.903809
3539.243164	7905.636719
3538.471680	7881.702637
3537.699219	7906.340332
3536.926758	7833.856445
3536.154297	7716.083008
3535.381836	7989.914551
3534.609375	7813.912598
3533.836914	7935.592773
3533.063477	7986.073242
3532.291016	7997.729492
3531.517578	7986.747559
3530.744141	7810.886230
3529.970703	7793.472168
3529.197266	7714.656250
3528.423828	7674.643066
3527.649414	7831.727539
3526.875977	7630.187988
3526.101563	7819.527832
3525.328125	7815.044922
3524.553711	7684.639160
3523.779297	7760.887207
3523.004883	7846.793945
3522.229492	7845.536621
3521.455078	7653.899414
3520.680664	7749.460449
3519.905273	7728.864258
3519.129883	7792.129883
3518.354492	7587.724609
3517.579102	7709.027344
3516.803711	7620.752930
3516.028320	7616.308594
3515.252930	7660.204590
3514.476563	7687.976074
3513.700195	7728.624512
3512.924805	7746.712402
3512.148438	7645.633301
3511.372070	7769.989746
3510.595703	7620.645996
3509.818359	7551.824707
3509.041992	7692.229004
3508.264648	7591.238281
3507.488281	7593.238770
3506.710938	7656.361328
3505.933594	7732.328613
3505.156250	7686.066406
3504.378906	7681.619141
3503.601563	7628.949219
3502.823242	7688.799805
3502.045898	7652.214844
3501.267578	7625.281738
3500.489258	7453.779297
3499.710938	7478.283203
3498.932617	7647.310059
3498.154297	7687.831055
3497.375977	7561.378906
3496.596680	7483.120605
3495.818359	7619.939941
3495.039063	7750.297363
3494.259766	7473.105469
3493.480469	7494.364746
3492.701172	7634.301758
3491.921875	7613.835449
3491.142578	7593.375000
3490.362305	7338.872070
3489.582031	7446.687500
3488.802734	7538.442383
3488.022461	7630.167480
3487.242188	7507.188965
3486.461914	7323.381348
3485.681641	7456.736328
3484.900391	7705.340332
3484.120117	7454.346191
3483.338867	7446.748047
3482.557617	7535.182617
3481.777344	7450.762207
3480.996094	7449.567871
3480.213867	7451.573242
3479.432617	7344.812988
3478.651367	7276.468262
3477.869141	7342.458496
3477.087891	7347.676270
3476.305664	7420.027344
3475.523438	7431.623535
3474.741211	7312.184570
3473.958984	7483.562500
3473.175781	7539.870605
3472.393555	7391.721680
3471.610352	7390.537109
3470.828125	7437.251953
3470.044922	7244.491211
3469.261719	7240.137695
3468.478516	7251.744141
3467.695313	7314.407227
3466.911133	7396.194336
3466.127930	7487.526367
3465.343750	7361.925781
3464.560547	7255.500977
3463.776367	7279.847656
3462.992188	7262.739746
3462.208008	7213.759766
3461.423828	7266.785645
3460.638672	7268.807617
3459.854492	7299.503906
3459.069336	7190.021484
3458.285156	7179.313477
3457.500000	7152.685547
3456.714844	7167.459473
3455.929688	7163.126465
3455.143555	7123.781250
3454.358398	7240.395020
3453.572266	7385.609863
3452.787109	6942.187500
3452.000977	7112.852051
3451.214844	7114.892090
3450.428711	7132.831543
3449.642578	7118.970215
3448.856445	7108.291992
3448.069336	7030.867676
3447.283203	7169.572754
3446.496094	7174.778320
3445.708984	6992.540039
3444.921875	6873.889648
3444.134766	7123.688477
3443.347656	6963.773926
3442.560547	7121.404785
3441.772461	7012.332031
3440.985352	7093.729980
3440.197266	6892.666992
3439.409180	7050.207520
3438.621094	6884.112305
3437.833008	7133.588379
3437.044922	7100.730469
3436.256836	7131.300781
3435.467773	7028.706055
3434.679688	6881.765137
3433.890625	6912.355469
3433.101563	7082.364746
3432.312500	6865.782227
3431.523438	6975.555664
3430.734375	6901.588867
3429.944336	6865.647461
3429.155273	6988.032227
3428.365234	6983.746094
3427.575195	6950.973633
3426.785156	6937.199707
3425.995117	7002.537109
3425.205078	6865.372559
3424.415039	7012.944824
3423.624023	6815.729980
3422.833984	6972.749023
3422.042969	6819.867676
3421.251953	6739.743652
3420.460938	6631.198242
3419.669922	6942.996582
3418.878906	6824.973633
3418.087891	6833.356934
3417.295898	6746.976563
3416.504883	6894.329590
3415.712891	6814.282227
3414.920898	6633.230469
3414.128906	6783.687012
3413.336914	6687.914063
3412.544922	6677.374512
3411.752930	6638.441895
3410.959961	6782.491211
3410.166992	6658.392090
3409.375000	6739.318848
3408.582031	6684.635254
3407.789063	6708.784180
3406.996094	6622.601074
3406.202148	6775.968262
3405.409180	6743.370605
3404.615234	6723.385742
3403.822266	6561.652344
3403.028320	6610.993652
3402.234375	6814.624023
3401.440430	6530.159180
3400.646484	6434.669434
3399.851563	6669.705566
3399.057617	6479.812012
3398.262695	6614.074707
3397.468750	6521.778320
3396.673828	6530.169434
3395.878906	6472.511230
3395.083984	6634.989746
3394.288086	6470.435547
3393.493164	6469.397461
3392.698242	6484.075195
3391.902344	6505.033203
3391.106445	6422.297363
3390.310547	6166.804199
3389.514648	6373.122070
3388.718750	6394.083496
3387.922852	6367.937988
3387.125977	6429.707031
3386.330078	6321.949707
3385.533203	6553.184570
3384.736328	6363.854004
3383.939453	6397.345703
3383.142578	6289.662109
3382.345703	6382.748047
3381.548828	6422.491699
3380.750977	6299.178223
3379.954102	6558.370605
3379.156250	6341.040039
3378.358398	6380.764648
3377.560547	6301.404785
3376.762695	6344.255371
3375.964844	6396.489746
3375.166016	6354.748535
3374.368164	6403.832520
3373.569336	6346.448242
3372.771484	6295.342773
3371.972656	6385.101563
3371.173828	6215.087402
3370.374023	6451.890625
3369.575195	6238.121094
3368.776367	6277.783691
3367.976563	6295.541504
3367.176758	6119.422852
3366.377930	6259.131348
3365.578125	6176.853027
3364.778320	6203.990723
3363.977539	6234.245117
3363.177734	6205.125000
3362.377930	6254.112793
3361.577148	6012.605469
3360.776367	6195.893555
3359.975586	6457.184082
3359.174805	6140.833496
3358.374023	6177.305176
3357.573242	6263.700195
3356.772461	6169.083008
3355.970703	6083.854980
3355.168945	6416.657715
3354.368164	6175.471191
3353.566406	5953.072266
3352.764648	6220.258789
3351.961914	5929.340332
3351.160156	5987.610840
3350.358398	6064.561035
3349.555664	6238.079590
3348.752930	6205.924805
3347.950195	6164.435059
3347.147461	5985.923828
3346.344727	6143.773926
3345.541992	6155.241699
3344.739258	6250.754883
3343.935547	6119.030273
3343.132813	5925.108887
3342.329102	6017.501465
3341.525391	6050.756348
3340.721680	6161.760742
3339.917969	6148.332520
3339.113281	6007.421875
3338.309570	6118.379395
3337.504883	6049.012207
3336.701172	6110.200195
3335.896484	5944.525879
3335.091797	6092.705078
3334.287109	6091.727539
3333.482422	6025.525391
3332.676758	5859.970215
3331.872070	6029.801758
3331.066406	5929.492188
3330.260742	5909.916992
3329.455078	5977.244629
3328.649414	5929.741211
3327.843750	6031.170898
3327.038086	6048.814941
3326.232422	6023.032715
3325.425781	5814.301758
3324.619141	5906.382813
3323.812500	5911.634766
3323.006836	6047.062988
3322.199219	5940.727539
3321.392578	5942.872559
3320.585938	6044.152344
3319.778320	5823.261230
3318.971680	5909.042480
3318.164063	5970.023926
3317.356445	5919.530273
3316.548828	5751.423828
3315.741211	5803.115723
3314.933594	5950.720215
3314.125000	5900.261230
3313.317383	6004.493652
3312.508789	5848.879395
3311.700195	5838.663574
3310.891602	5911.935059
3310.083008	5744.043945
3309.274414	5832.761719
3308.465820	5745.291016
3307.656250	5976.121582
3306.847656	5681.656250
3306.038086	5829.018555
3305.228516	5794.108887
3304.418945	5771.562988
3303.609375	5999.115234
3302.799805	5778.971680
3301.989258	5679.273926
3301.179688	5715.395508
3300.369141	5936.639160
3299.558594	5843.134277
3298.748047	5974.833496
3297.937500	5634.625000
3297.126953	5744.729980
3296.316406	5805.469727
3295.504883	5770.629395
3294.694336	5859.083984
3293.882813	5694.818359
3293.071289	5780.175293
3292.259766	5723.796387
3291.448242	5661.275391
3290.636719	5777.392578
3289.824219	5764.148926
3289.012695	5750.908691
3288.200195	5642.250488
3287.387695	5693.665039
3286.575195	5701.982422
3285.762695	5608.767090
3284.950195	5755.523438
3284.137695	5600.815430
3283.324219	5701.397461
3282.511719	5798.872559
3281.698242	5714.937988
3280.884766	5689.431152
3280.071289	5688.518066
3279.257813	5779.786133
3278.444336	5496.213379
3277.629883	5602.841797
3276.816406	5589.657715
3276.001953	5662.458008
3275.187500	5658.479004
3274.373047	5731.244629
3273.558594	5874.580078
3272.744141	5640.410156
3271.929688	5743.826172
3271.114258	5663.141602
3270.299805	5545.675293
3269.484375	5691.991699
3268.668945	5596.021973
3267.853516	5567.531250
3267.038086	5572.768066
3266.221680	5602.521484
3265.406250	5531.142090
3264.590820	5591.531250
3263.774414	5514.049316
3262.958008	5574.421387
3262.141602	5686.834473
3261.325195	5713.478516
3260.508789	5629.903320
3259.691406	5567.781250
3258.875000	5637.276855
3258.057617	5474.195801
3257.241211	5604.872559
3256.423828	5423.495117
3255.606445	5584.721680
3254.788086	5596.057129
3253.970703	5613.502930
3253.153320	5527.006348
3252.334961	5593.361816
3251.516602	5619.967285
3250.699219	5735.173828
3249.880859	5581.502441
3249.062500	5708.895996
3248.243164	5766.005859
3247.424805	5520.796875
3246.605469	5675.615723
3245.787109	5564.812500
3244.967773	5743.990723
3244.148438	5547.767090
3243.329102	5586.540527
3242.509766	5643.604492
3241.690430	5557.295410
3240.870117	5553.353516
3240.050781	5457.938477
3239.230469	5563.764160
3238.410156	5416.559570
3237.589844	5574.167969
3236.769531	5536.706543
3235.949219	5615.031250
3235.127930	5589.759766
3234.307617	5540.130859
3233.486328	5466.156250
3232.665039	5681.453613
3231.843750	5610.523438
3231.022461	5637.016113
3230.201172	5471.774902
3229.379883	5550.007813
3228.557617	5695.145996
3227.736328	5599.935547
3226.914063	5495.631836
3226.091797	5531.239258
3225.269531	5493.866699
3224.447266	5480.825195
3223.625000	5540.731445
3222.801758	5506.414063
3221.979492	5511.606445
3221.156250	5535.023926
3220.333008	5564.508789
3219.509766	5490.729492
3218.686523	5693.287598
3217.863281	5570.935547
3217.039063	5393.984863
3216.215820	5638.950195
3215.391602	5401.355469
3214.567383	5573.424805
3213.744141	5557.361816
3212.918945	5601.964355
3212.094727	5300.844727
3211.270508	5524.363770
3210.446289	5699.306152
3209.621094	5440.750488
3208.795898	5476.243164
3207.970703	5629.897461
3207.145508	5571.430664
3206.320313	5455.429688
3205.495117	5551.469238
3204.669922	5514.239258
3203.843750	5688.957520
3203.017578	5424.679688
3202.192383	5460.128418
3201.366211	5462.277344
3200.539063	5570.325195
3199.712891	5472.623047
3198.886719	5432.422363
3198.059570	5395.258301
3197.233398	5439.748047
3196.406250	5460.037109
3195.579102	5510.546875
3194.751953	5301.122559
3193.924805	5396.969238
3193.097656	5417.250977
3192.269531	5476.797852
3191.442383	5509.141602
3190.614258	5456.918457
3189.786133	5655.321289
3188.958008	5307.238281
3188.129883	5409.011719
3187.301758	5549.985840
3186.472656	5419.343262
3185.644531	5608.541504
3184.815430	5354.255859
3183.986328	5570.546875
3183.157227	5253.022949
3182.328125	5445.140625
3181.499023	5438.236328
3180.669922	5431.334473
3179.839844	5424.434570
3179.010742	5297.012695
3178.180664	5467.879883
3177.350586	5530.255859
3176.520508	5390.831543
3175.690430	5269.519043
3174.859375	5355.981445
3174.029297	5394.253418
3173.198242	5387.366699
3172.368164	5431.639160
3171.537109	5385.635254
3170.706055	5351.678711
3169.875000	5338.787598
3169.042969	5416.118652
3168.211914	5445.316406
3167.379883	5330.201172
3166.548828	5305.297363
3165.716797	5286.412598
3164.884766	5246.499512
3164.052734	5380.853516
3163.220703	5464.098145
3162.387695	5334.072754
3161.555664	5393.273926
3160.722656	5254.293945
3159.889648	5262.455078
3159.056641	5357.656738
3158.223633	5290.773438
3157.390625	5235.913574
3156.557617	5301.072754
3155.723633	5249.228027
3154.890625	5374.345215
3154.056641	5367.484375
3153.222656	5168.746094
3152.388672	5257.843750
3151.554688	5265.990234
3150.720703	5331.069824
3149.885742	5237.331055
3149.051758	5230.498047
3148.216797	5244.632813
3147.381836	5171.916016
3146.546875	5171.084473
3145.711914	5266.053711
3144.876953	5214.321289
3144.041992	5219.468262
3143.206055	5311.391602
3142.370117	5355.415527
3141.535156	5124.218750
3140.699219	5237.048340
3139.863281	5182.378906
3139.026367	5181.545898
3138.190430	5094.018555
3137.354492	5371.173340
3136.517578	5241.804688
3135.680664	5243.949707
3134.843750	5269.994629
3134.006836	5236.289551
3133.169922	5265.312988
3132.333008	5231.619629
3131.495117	5200.344727
3130.658203	5169.070313
3129.820313	5137.795410
3128.982422	5106.520996
3128.144531	5075.246094
3127.306641	5205.690918
3126.468750	5118.354980
3125.629883	5162.265137
3124.791992	5071.981934
3123.953125	5160.604980
3123.114258	4921.310547
3122.275391	5185.768066
3121.436523	5131.296875
3120.597656	5094.719238
3119.758789	5162.414063
3118.918945	5203.281738
3118.079102	5035.680664
3117.240234	5025.937988
3116.400391	5227.563965
3115.560547	5191.005371
3114.719727	4975.896973
3113.879883	5013.778809
3113.040039	5024.872559
3112.199219	4946.725098
3111.358398	5177.909180
3110.517578	5025.421387
3109.676758	5042.452148
3108.835938	5154.602051
3107.995117	5245.910645
3107.153320	5245.066895
3106.312500	5071.891602
3105.470703	5139.403320
3104.628906	5085.111328
3103.787109	4959.562012
3102.945313	5270.542480
3102.103516	5281.569824
3101.260742	5066.998047
3100.418945	5021.664551
3099.576172	5231.542480
3098.733398	5212.899414
3097.890625	5203.161621
3097.047852	5110.378906
3096.205078	5023.557129
3095.361328	5064.259277
3094.518555	5134.593750
3093.674805	5237.509766
3092.831055	5109.232422
3091.987305	5061.000488
3091.143555	5154.990723
3090.299805	4997.166992
3089.456055	5043.749512
3088.611328	5042.937988
3087.766602	5051.008789
3086.922852	4881.461426
3086.078125	4942.831543
3085.233398	4992.344238
3084.387695	5059.593750
3083.542969	4987.779297
3082.698242	4898.240234
3081.852539	5048.279297
3081.006836	5032.682129
3080.161133	5085.088379
3079.315430	5146.345215
3078.469727	4971.143066
3077.624023	4982.163086
3076.777344	5081.815918
3075.931641	4983.513672
3075.084961	4994.525879
3074.238281	4996.675293
3073.391602	4981.107910
3072.544922	5060.014648
3071.698242	5097.572266
3070.850586	4910.825195
3070.003906	4915.936035
3069.156250	5145.265625
3068.308594	4946.801270
3067.460938	4987.295410
3066.613281	4906.874023
3065.765625	5018.122070
3064.916992	4828.649414
3064.069336	4910.399902
3063.220703	4962.654297
3062.372070	4947.123047
3061.523438	4896.244629
3060.674805	5010.332031
3059.826172	4876.998535
3058.976563	4840.878418
3058.127930	4928.421875
3057.278320	4862.868652
3056.428711	5000.414063
3055.579102	5020.208008
3054.729492	4901.711426
3053.879883	4924.456055
3053.030273	4823.660645
3052.179688	4837.587891
3051.330078	5051.451660
3050.479492	4980.082520
3049.628906	4926.372070
3048.778320	4943.211914
3047.926758	4960.046875
3047.076172	5041.510742
3046.225586	4940.824707
3045.374023	4978.209961
3044.522461	4948.043457
3043.670898	4891.461426
3042.819336	4990.483887
3041.967773	4928.042969
3041.116211	4991.811523
3040.263672	4988.073242
3039.412109	5019.540527
3038.559570	4960.067871
3037.707031	4865.421387
3036.854492	5087.490723
3036.001953	4951.808594
3035.148438	4860.140137
3034.295898	4941.421387
3033.442383	4782.384766
3032.589844	5027.727051
3031.736328	4968.328613
3030.882813	4856.227539
3030.028320	4805.661133
3029.174805	5018.632813
3028.321289	4921.215332
3027.466797	4929.204102
3026.612305	4758.666504
3025.758789	4737.417480
3024.904297	5017.518066
3024.048828	4917.253418
3023.194336	4922.311035
3022.339844	4865.957031
3021.484375	4914.877930
3020.628906	4949.166016
3019.773438	4775.920898
3018.917969	4900.813477
3018.062500	4783.147949
3017.207031	4834.963379
3016.351563	4799.132813
3015.495117	4894.735840
3014.638672	4864.747070
3013.782227	4916.515625
3012.925781	4737.659668
3012.069336	4932.442871
3011.212891	4925.812012
3010.356445	4714.946777
3009.499023	4816.289063
3008.641602	4914.681641
3007.785156	4788.490723
3006.927734	4843.119141
3006.069336	4868.576660
3005.211914	4856.132813
3004.354492	4954.439453
3003.496094	4714.700684
3002.638672	4850.872559
3001.780273	4850.090820
3000.921875	4782.322266
3000.063477	4903.856934
2999.204102	4789.515625
2998.345703	4794.565918
2997.486328	4689.011230
2996.627930	4868.685059
2995.768555	4972.648926
2994.909180	4843.842285
2994.049805	4927.415527
2993.190430	4917.896484
2992.330078	4920.011719
2991.470703	4852.350098
2990.610352	4752.734375
2989.750000	4772.313477
2988.889648	4864.534180
2988.029297	4855.033691
2987.168945	4781.626465
2986.308594	4757.619629
2985.447266	4835.262207
2984.585938	4918.687012
2983.725586	4766.931641
2982.864258	4905.491211
2982.002930	4835.047852
2981.140625	4903.909668
2980.279297	4801.575684
2979.416992	4754.389160
2978.555664	4782.625977
2977.693359	4932.646973
2976.831055	4876.763672
2975.968750	4919.461426
2975.106445	4791.136719
2974.243164	4854.119629
2973.380859	4775.104492
2972.517578	4745.364258
2971.654297	4692.460938
2970.791016	4952.354492
2969.927734	4864.686523
2969.064453	4910.225098
2968.201172	4860.223633
2967.336914	4865.228516
2966.473633	4803.674805
2965.609375	4846.299805
2964.745117	4912.054199
2963.880859	4836.060059
2963.016602	4647.306152
2962.151367	4785.346191
2961.287109	4868.413086
2960.421875	4740.445313
2959.556641	4748.351074
2958.691406	4903.623047
2957.826172	4914.388672
2956.960938	4800.938965
2956.095703	4837.711426
2955.229492	4816.717285
2954.363281	4772.631348
2953.498047	4809.390137
2952.631836	4851.909668
2951.765625	4810.725098
2950.898438	4876.312988
2950.032227	4878.411621
2949.165039	4851.665039
2948.298828	4871.070313
2947.431641	4786.662598
2946.564453	4829.136230
2945.697266	4837.005371
2944.830078	4922.689453
2943.961914	4901.723633
2943.094727	4756.872559
2942.226563	4851.169922
2941.358398	4913.753418
2940.490234	5013.754395
2939.622070	4868.978516
2938.753906	4888.345215
2937.885742	4870.286133
2937.016602	4731.358398
2936.148438	4934.897461
2935.279297	4787.373047
2934.410156	4821.119141
2933.541016	4872.111328
2932.670898	4894.330566
2931.801758	4856.163574
2930.932617	4838.131836
2930.062500	4906.333496
2929.192383	4822.202148
2928.322266	4812.804199
2927.452148	4921.196289
2926.582031	4848.592773
2925.710938	4695.598145
2924.840820	4927.429199
2923.969727	4785.955078
2923.098633	4727.771973
2922.227539	4692.568359
2921.356445	4731.985840
2920.485352	4739.829590
2919.614258	4827.994141
2918.742188	4855.897461
2917.870117	4789.155273
2916.999023	4845.728516
2916.126953	4996.888672
2915.253906	4832.699219
2914.381836	4955.153320
2913.509766	4796.754395
2912.636719	4884.794434
2911.764648	4901.193359
2910.891602	4734.287109
2910.018555	4865.248535
2909.145508	4795.748047
2908.271484	4946.695801
2907.398438	4819.959961
2906.524414	4962.269531
2905.651367	4832.710938
2904.777344	4731.801758
2903.903320	4828.290527
2903.029297	4976.226074
2902.154297	4838.169922
2901.280273	4751.619629
2900.405273	4910.929199
2899.531250	4770.092285
2898.656250	4812.186035
2897.781250	4774.266602
2896.906250	4753.499023
2896.030273	4695.607422
2895.155273	4657.725098
2894.279297	4714.078613
2893.404297	4750.430664
2892.528320	4769.644043
2891.652344	4697.526367
2890.776367	4822.319824
2889.899414	4747.363281
2889.023438	4780.827148
2888.146484	4697.345703
2887.270508	4782.135254
2886.393555	4684.424316
2885.516602	4703.623047
2884.638672	4654.409668
2883.761719	4756.249512
2882.884766	4786.823730
2882.006836	4663.550781
2881.128906	4691.281738
2880.250977	4830.072266
2879.373047	4723.936035
2878.495117	4785.807129
2877.617188	4631.321289
2876.738281	4693.187012
2875.860352	4584.295898
2874.981445	4606.316895
2874.102539	4719.360840
2873.223633	4596.296387
2872.344727	4749.118164
2871.464844	4475.392090
2870.585938	4653.770020
2869.706055	4661.545410
2868.826172	4669.318359
2867.947266	4682.771973
2867.066406	4539.963867
2866.186523	4570.477051
2865.306641	4691.863281
2864.425781	4520.726563
2863.545898	4528.513672
2862.665039	4615.783203
2861.784180	4569.625000
2860.903320	4563.211426
2860.022461	4596.522461
2859.140625	4578.758789
2858.259766	4382.304199
2857.377930	4679.375000
2856.496094	4675.783203
2855.614258	4606.986328
2854.732422	4594.903809
2853.850586	4769.878906
2852.967773	4638.758301
2852.085938	4550.178711
2851.203125	4773.232910
2850.320313	4650.671875
2849.437500	4488.504395
2848.554688	4643.506348
2847.671875	4656.910645
2846.788086	4613.701172
2845.905273	4627.105469
2845.021484	4600.891602
2844.137695	4532.249512
2843.253906	4531.517090
2842.370117	4542.097656
2841.486328	4711.028809
2840.601563	4735.712891
2839.717773	4729.293945
2838.833008	4663.522949
2837.948242	4561.036133
2837.063477	4597.030273
2836.178711	4655.612305
2835.292969	4668.982910
2834.408203	4560.912598
2833.522461	4636.413574
2832.636719	4607.432617
2831.750977	4643.383301
2830.865234	4809.146484
2829.979492	4591.089844
2829.093750	4680.630859
2828.207031	4685.516113
2827.321289	4566.300293
2826.434570	4543.002441
2825.547852	4618.395508
2824.661133	4589.458008
2823.774414	4563.348633
2822.886719	4571.065430
2822.000000	4471.706543
2821.112305	4603.394531
2820.224609	4529.413574
2819.336914	4593.457520
2818.449219	4496.974609
2817.561523	4608.864746
2816.672852	4712.273926
2815.785156	4632.705566
2814.896484	4584.117188
2814.007813	4628.393555
2813.119141	4571.382324
2812.230469	4615.646484
2811.341797	4553.030762
2810.452148	4746.308105
2809.563477	4571.237793
2808.673828	4488.982910
2807.784180	4645.641113
2806.894531	4644.889648
2806.004883	4503.662598
2805.114258	4424.280762
2804.224609	4527.483887
2803.333984	4714.897949
2802.444336	4621.481445
2801.553711	4573.010742
2800.663086	4552.623535
2799.771484	4644.496582
2798.880859	4548.345215
2797.989258	4469.057617
2797.098633	4597.363770
2796.207031	4562.965820
2795.315430	4534.187012
2794.423828	4513.828613
2793.532227	4541.129883
2792.639648	4588.041504
2791.748047	4609.717285
2790.855469	4788.287598
2789.962891	4599.822266
2789.070313	4604.680176
2788.177734	4536.724121
2787.285156	4580.790527
2786.391602	4535.256836
2785.499023	4612.897461
2784.605469	4659.728027
2783.711914	4614.203125
2782.818359	4702.983887
2781.924805	4576.345703
2781.031250	4729.430664
2780.136719	4566.476074
2779.243164	4655.206543
2778.348633	4671.226074
2777.454102	4522.334473
2776.559570	4697.660156
2775.665039	4557.194336
2774.769531	4796.711914
2773.875000	4603.204102
2772.979492	4596.874023
2772.083984	4587.752930
2771.188477	4698.684570
2770.292969	4661.636230
2769.397461	4697.164063
2768.501953	4609.898438
2767.605469	4531.031250
2766.708984	4675.356934
2765.812500	4688.545898
2764.916016	4470.269531
2764.019531	4561.557617
2763.123047	4599.848145
2762.226563	4638.126465
2761.329102	4581.638184
2760.431641	4656.130371
2759.534180	4510.505371
2758.636719	4571.057129
2757.739258	4656.654785
2756.841797	4533.377441
2755.943359	4543.780273
2755.045898	4676.663574
2754.147461	4483.860352
2753.249023	4694.629395
2752.350586	4663.263184
2751.452148	4626.343262
2750.552734	4617.250000
2749.654297	4658.217773
2748.754883	4626.877441
2747.855469	4509.362793
2746.956055	4605.921387
2746.056641	4713.565430
2745.157227	4548.854492
2744.257813	4600.906250
2743.357422	4564.048828
2742.457031	4616.081055
2741.556641	4545.909180
2740.656250	4486.865723
2739.755859	4413.961426
2738.855469	4563.130371
2737.954102	4537.415039
2737.053711	4614.372559
2736.152344	4638.593750
2735.250977	4579.592285
2734.349609	4639.864746
2733.448242	4503.239746
2732.545898	4519.145508
2731.644531	4554.449707
2730.742188	4683.976563
2729.840820	4575.143555
2728.938477	4521.759766
2728.035156	4465.622559
2727.132813	4500.906738
2726.230469	4444.790527
2725.327148	4682.195313
2724.424805	4551.320313
2723.521484	4489.687012
2722.618164	4655.012695
2721.713867	4402.452637
2720.810547	4504.105469
2719.907227	4586.361816
2719.002930	4436.268066
2718.098633	4573.814453
2717.194336	4609.016602
2716.290039	4500.458008
2715.385742	4449.977539
2714.481445	4521.107910
2713.576172	4481.692383
2712.671875	4293.108398
2711.766602	4507.862305
2710.861328	4529.225586
2709.956055	4580.956055
2709.050781	4566.409668
2708.144531	4527.023926
2707.239258	4504.210938
2706.333008	4564.189941
2705.426758	4453.088867
2704.520508	4601.331055
2703.614258	4504.050293
2702.708008	4456.439453
2701.800781	4447.445801
2700.893555	4405.372559
2699.987305	4531.451172
2699.080078	4541.740234
2698.172852	4480.384277
2697.264648	4501.698242
2696.357422	4523.004883
2695.450195	4472.697754
2694.541992	4455.450684
2693.633789	4482.260742
2692.725586	4566.870605
2691.817383	4378.971191
2690.909180	4617.675781
2690.000000	4506.869629
2689.091797	4547.403809
2688.182617	4530.163574
2687.273438	4419.424805
2686.364258	4531.444336
2685.455078	4593.941895
2684.545898	4447.512207
2683.635742	4457.784180
2682.726563	4413.095703
2681.816406	4439.854492
2680.906250	4458.363281
2679.996094	4432.921875
2679.085938	4478.886719
2678.174805	4601.714844
2677.264648	4425.275391
2676.353516	4501.411133
2675.442383	4294.857422
2674.531250	4409.403320
2673.620117	4499.221680
2672.708984	4608.211426
2671.796875	4530.672852
2670.885742	4527.196289
2669.973633	4378.412598
2669.061523	4627.152344
2668.149414	4450.993164
2667.237305	4398.205566
2666.324219	4468.728516
2665.412109	4522.792480
2664.499023	4546.709473
2663.585938	4354.274414
2662.672852	4386.425293
2661.759766	4607.463379
2660.846680	4483.541992
2659.933594	4545.760254
2659.019531	4413.679688
2658.105469	4437.586426
2657.192383	4423.189453
2656.278320	4403.326660
2655.363281	4408.081543
2654.449219	4593.285156
2653.535156	4461.324707
2652.620117	4477.000000
2651.705078	4585.584473
2650.790039	4478.279785
2649.875000	4603.219727
2648.959961	4635.250000
2648.044922	4435.135254
2647.128906	4368.882324
2646.212891	4553.820801
2645.296875	4523.055664
2644.380859	4478.654297
2643.464844	4486.113770
2642.548828	4433.547363
2641.632813	4536.487793
2640.715820	4377.559570
2639.798828	4469.567383
2638.881836	4389.771484
2637.964844	4566.257324
2637.047852	4516.453613
2636.130859	4461.215820
2635.212891	4416.895020
2634.294922	4582.363770
2633.377930	4557.104980
2632.459961	4548.194824
2631.541992	4539.287598
2630.623047	4530.382813
2629.705078	4526.925293
2628.786133	4496.251953
2627.867188	4430.211426
2626.949219	4647.157715
2626.030273	4477.740234
2625.110352	4588.530762
2624.191406	4530.676270
2623.271484	4480.998047
2622.352539	4556.391602
2621.432617	4563.806152
2620.512695	4459.791504
2619.592773	4491.674805
2618.672852	4572.451172
2617.751953	4620.604004
2616.832031	4489.487305
2615.911133	4643.542969
2614.990234	4547.761230
2614.069336	4614.888672
2613.148438	4576.140625
2612.226563	4502.125977
2611.305664	4558.374512
2610.383789	4579.337402
2609.462891	4546.044434
2608.541016	4472.082031
2607.618164	4615.068359
2606.696289	4665.830078
2605.774414	4662.361328
2604.851563	4482.729004
2603.929688	4595.812012
2603.006836	4508.366211
2602.083984	4583.483398
2601.160156	4580.030762
2600.237305	4630.739258
2599.314453	4481.069336
2598.390625	4531.777344
2597.466797	4490.440430
2596.542969	4817.170410
2595.619141	4562.039063
2594.695313	4658.692383
2593.770508	4676.870117
2592.846680	4667.997070
2591.921875	4640.197754
2590.997070	4612.407227
2590.072266	4595.438965
2589.147461	4673.072266
2588.222656	4642.587402
2587.296875	4574.286133
2586.372070	4659.988770
2585.446289	4583.603516
2584.520508	4647.672363
2583.594727	4506.510742
2582.668945	4538.174316
2581.742188	4534.737793
2580.816406	4650.049805
2579.889648	4495.486816
2578.962891	4554.110840
2578.036133	4645.085449
2577.109375	4504.083496
2576.181641	4589.643066
2575.254883	4623.947754
2574.327148	4658.240723
2573.399414	4657.483398
2572.472656	4559.711426
2571.543945	4542.803711
2570.616211	4436.999512
2569.688477	4511.697754
2568.759766	4624.075195
2567.831055	4612.552734
2566.903320	4514.882324
2565.974609	4479.155273
2565.044922	4470.353027
2564.116211	4431.953125
2563.186523	4315.541504
2562.257813	4487.003418
2561.328125	4472.825684
2560.398438	4542.017090
2559.468750	4449.861328
2558.539063	4451.826172
2557.608398	4558.616699
2556.678711	4428.878906
2555.748047	4538.325684
2554.817383	4494.602539
2553.886719	4512.674805
2552.956055	4444.798828
2552.024414	4460.187500
2551.093750	4523.897461
2550.162109	4574.164551
2549.230469	4487.535156
2548.298828	4427.768066
2547.367188	4518.271973
2546.435547	4528.267578
2545.503906	4540.942383
2544.571289	4518.749512
2543.638672	4367.860840
2542.706055	4517.279785
2541.773438	4253.861816
2540.840820	4580.130371
2539.908203	4415.931641
2538.974609	4401.817383
2538.041016	4543.072754
2537.108398	4419.133301
2536.174805	4431.803711
2535.240234	4340.051270
2534.306641	4355.406738
2533.373047	4571.496582
2532.438477	4501.174316
2531.503906	4487.063965
2530.569336	4379.325195
2529.634766	4458.855957
2528.700195	4458.130371
2527.765625	4537.622559
2526.830078	4464.700195
2525.894531	4488.031250
2524.958984	4452.557129
2524.023438	4371.667480
2523.087891	4360.269043
2522.152344	4474.425293
2521.215820	4465.684570
2520.280273	4424.901367
2519.343750	4456.221191
2518.407227	4519.565430
2517.470703	4305.299805
2516.534180	4389.997070
2515.596680	4439.979492
2514.660156	4476.605957
2513.722656	4470.542480
2512.785156	4541.822754
2511.847656	4274.431641
2510.910156	4516.349609
2509.971680	4462.301270
2509.034180	4418.931152
2508.095703	4378.240234
2507.157227	4350.883789
2506.218750	4414.109375
2505.280273	4378.765625
2504.341797	4372.726563
2503.402344	4406.628906
2502.463867	4387.275879
2501.524414	4423.826172
2500.584961	4550.849121
2499.645508	4294.663086
2498.706055	4339.191406
2497.765625	4420.945313
2496.826172	4462.778809
2495.885742	4443.437988
2494.945313	4283.191406
2494.004883	4468.573730
2493.064453	4252.560059
2492.124023	4352.849609
2491.182617	4442.478027
2490.241211	4484.259277
2489.300781	4345.410645
2488.359375	4339.391602
2487.417969	4498.000000
2486.475586	4422.932617
2485.534180	4562.894531
2484.591797	4320.641113
2483.649414	4518.951660
2482.708008	4481.072266
2481.764648	4307.919434
2480.822266	4466.351563
2479.879883	4391.373535
2478.936523	4398.612305
2477.994141	4387.291992
2477.050781	4368.023438
2476.107422	4483.915039
2475.164063	4419.593262
2474.219727	4402.978027
2473.276367	4314.851074
2472.332031	4361.817871
2471.387695	4350.515625
2470.443359	4384.224121
2469.499023	4394.097656
2468.554688	4382.795410
2467.610352	4358.265137
2466.665039	4365.492188
2465.719727	4348.909180
2464.774414	4422.257324
2463.829102	4339.558105
2462.883789	4465.764160
2461.938477	4266.766602
2460.992188	4453.736328
2460.045898	4394.870117
2459.100586	4391.511230
2458.154297	4269.269531
2457.207031	4371.589844
2456.260742	4320.697754
2455.314453	4349.040039
2454.367188	4327.209961
2453.419922	4352.901855
2452.472656	4375.945801
2451.525391	4475.508789
2450.578125	4195.105469
2449.629883	4495.153809
2448.682617	4349.354492
2447.734375	4327.548340
2446.786133	4329.479492
2445.837891	4373.590332
2444.889648	4349.154297
2443.940430	4277.289063
2442.992188	4461.041016
2442.042969	4410.256836
2441.093750	4304.172363
2440.144531	4458.858887
2439.195313	4355.434082
2438.246094	4252.042969
2437.295898	4475.104492
2436.346680	4463.847168
2435.396484	4452.592773
2434.446289	4399.244141
2433.496094	4464.293945
2432.545898	4468.826172
2431.594727	4418.130371
2430.643555	4349.044922
2429.693359	4416.689453
2428.742188	4452.768555
2427.791016	4446.786133
2426.838867	4464.454590
2425.887695	4395.416992
2424.936523	4284.373047
2423.984375	4323.070313
2423.032227	4322.364746
2422.080078	4311.157227
2421.127930	4294.703125
2420.174805	4233.634766
2419.222656	4314.295898
2418.269531	4352.949707
2417.316406	4383.720703
2416.363281	4241.364258
2415.410156	4442.608887
2414.457031	4313.399414
2413.502930	4312.695801
2412.549805	4246.459961
2411.595703	4169.762695
2410.641602	4313.205078
2409.687500	4330.840820
2408.733398	4324.895020
2407.778320	4421.097168
2406.824219	4278.965332
2405.869141	4375.143555
2404.914063	4282.804688
2403.958984	4287.340332
2403.003906	4223.832520
2402.048828	4176.044922
2401.091797	4143.969238
2400.136719	4213.917480
2399.181641	4291.687988
2398.224609	4332.825195
2397.269531	4232.769531
2396.312500	4143.202148
2395.355469	4291.499512
2394.398438	4277.733398
2393.441406	4410.284180
2392.484375	4171.844727
2391.527344	4280.862305
2390.570313	4240.991211
2389.613281	4180.245605
2388.656250	4226.553711
2387.697266	4147.558105
2386.740234	4350.440918
2385.781250	4169.687500
2384.824219	4129.873535
2383.865234	4197.019043
2382.906250	4141.564941
2381.947266	4200.863281
2380.988281	4218.427734
2380.029297	4136.929199
2379.070313	4214.443359
2378.111328	4263.267578
2377.152344	4246.937988
2376.191406	4194.143066
2375.232422	4112.714355
2374.271484	4221.419434
2373.312500	4280.616699
2372.351563	4071.648926
2371.390625	4315.659180
2370.431641	4169.213867
2369.470703	4197.155762
2368.509766	4108.013672
2367.548828	4099.539063
2366.585938	4078.062744
2365.625000	4103.400391
2364.664063	4152.128906
2363.701172	4154.049805
2362.740234	4129.979004
2361.777344	4173.481934
2360.816406	4120.834961
2359.853516	4114.965820
2358.890625	4129.877930
2357.927734	4087.651123
2356.964844	4149.300293
2356.001953	3995.450439
2355.039063	4106.413086
2354.076172	4108.336914
2353.113281	4156.967773
2352.148438	4125.155273
2351.185547	4114.104980
2350.220703	4040.812012
2349.257813	4159.437012
2348.292969	4055.047607
2347.328125	4088.084717
2346.365234	4012.251709
2345.400391	4086.748291
2344.435547	4158.629395
2343.470703	4059.506104
2342.503906	4126.187500
2341.539063	3996.024170
2340.574219	4202.519043
2339.607422	3950.705811
2338.642578	4027.714844
2337.675781	4055.525146
2336.710938	4052.274414
2335.744141	4056.786377
2334.777344	4115.619629
2333.810547	4065.805176
2332.843750	4184.094727
2331.876953	4248.049316
2330.910156	4358.514648
2329.943359	4647.288086
2328.974609	4646.527832
2328.007813	4276.277344
2327.041016	4319.496094
2326.072266	4047.573730
2325.103516	4147.632324
2324.136719	3930.052246
2323.167969	4001.698242
2322.199219	3975.230469
2321.230469	3881.667969
2320.261719	4017.798096
2319.292969	4019.720703
2318.324219	3980.368652
2317.355469	3979.717529
2316.384766	3888.809082
2315.416016	3885.594482
2314.445313	3913.315918
2313.476563	4062.171875
2312.505859	3893.995850
2311.535156	4063.419434
2310.564453	3848.925293
2309.593750	3935.873779
2308.623047	3930.078857
2307.652344	3983.510498
2306.681641	4067.819580
2305.710938	3879.240967
2304.740234	3894.048584
2303.767578	3919.144287
2302.796875	3990.543701
2301.824219	3863.839844
2300.851563	4063.826660
2299.880859	3914.007568
2298.908203	3918.509277
2297.935547	3992.420410
2296.962891	4063.737061
2295.990234	3898.595703
2295.017578	3931.361328
2294.042969	3874.197510
2293.070313	3960.898438
2292.097656	3870.360840
2291.123047	3846.616699
2290.150391	3964.088135
2289.175781	3950.604004
2288.201172	3952.523926
2287.228516	3890.289063
2286.253906	3787.022705
2285.279297	3919.798828
2284.304688	3939.676270
2283.330078	3859.532471
2282.353516	3910.181396
2281.378906	3922.359375
2280.404297	4034.498291
2279.427734	3990.270020
2278.453125	3935.806641
2277.476563	4001.772949
2276.500000	3901.217773
2275.525391	3923.628662
2274.548828	3866.650879
2273.572266	3868.577637
2272.595703	3837.225830
2271.619141	3913.380371
2270.640625	3971.596680
2269.664063	4034.911133
2268.687500	3988.202881
2267.708984	3846.872803
2266.732422	3997.125732
2265.753906	3953.003174
2264.777344	3883.329834
2263.798828	3892.917969
2262.820313	3851.389404
2261.841797	3901.863525
2260.863281	3857.791992
2259.884766	3887.812744
2258.906250	3968.903564
2257.925781	3853.342285
2256.947266	3967.602783
2255.968750	3854.632324
2254.988281	4002.034912
2254.009766	3940.133545
2253.029297	3824.671143
2252.048828	3908.229492
2251.068359	3973.905762
2250.087891	3932.450684
2249.107422	3829.813721
2248.126953	3750.154785
2247.146484	3800.519775
2246.166016	3899.290283
2245.185547	3786.533203
2244.203125	3854.700928
2243.222656	3892.278564
2242.240234	3901.827881
2241.259766	3829.887207
2240.277344	3872.542236
2239.294922	3775.173096
2238.312500	3797.461182
2237.330078	3929.167969
2236.347656	3859.825439
2235.365234	3859.192627
2234.382813	3942.496826
2233.398438	3954.565918
2232.416016	3824.239258
2231.431641	3805.816162
2230.449219	3820.443115
2229.464844	3837.606934
2228.480469	3877.634277
2227.498047	3813.482666
2226.513672	3911.925293
2225.529297	3893.505127
2224.544922	3885.248535
2223.560547	3828.754150
2222.574219	3873.819824
2221.589844	3731.049316
2220.605469	3842.096680
2219.619141	3942.958252
2218.634766	3795.172363
2217.648438	4035.513672
2216.662109	3763.494629
2215.675781	3856.695557
2214.691406	3861.133301
2213.705078	3870.638916
2212.718750	3839.591309
2211.730469	3730.000732
2210.744141	3820.596436
2209.757813	3662.915283
2208.771484	3895.324463
2207.783203	3737.682373
2206.794922	3838.344482
2205.808594	3794.679688
2204.820313	3801.650146
2203.832031	3707.392334
2202.843750	3873.779053
2201.855469	3774.480469
2200.867188	3776.390381
2199.878906	3780.828613
2198.890625	3724.579590
2197.902344	3655.708008
2196.912109	3763.800781
2195.923828	3785.928711
2194.933594	3732.242188
2193.945313	3875.639648
2192.955078	3773.960205
2191.964844	3765.763672
2190.974609	3717.165771
2189.984375	3857.946289
2188.994141	3700.798828
2188.003906	3957.639648
2187.013672	3785.385742
2186.023438	3762.055664
2185.031250	3723.596436
2184.041016	3672.538086
2183.048828	3740.027100
2182.058594	3666.289063
2181.066406	3680.813477
2180.074219	3781.036621
2179.082031	3709.847900
2178.089844	3716.798340
2177.097656	3738.862793
2176.105469	3634.968262
2175.113281	3629.333984
2174.121094	3681.620361
2173.126953	3681.015625
2172.134766	3632.580811
2171.140625	3679.806396
2170.148438	3757.215088
2169.154297	3633.306885
2168.160156	3715.729004
2167.166016	3757.878906
2166.171875	3737.142334
2165.177734	3847.165771
2164.183594	3713.287842
2163.189453	3830.819824
2162.195313	3629.130615
2161.199219	3701.406494
2160.205078	3738.484619
2159.208984	3695.166016
2158.214844	3568.979004
2157.218750	3686.418213
2156.222656	3633.086182
2155.226563	3622.447754
2154.230469	3692.130859
2153.234375	3759.281494
2152.238281	3552.915771
2151.242188	3667.732422
2150.244141	3687.195801
2149.248047	3651.479492
2148.251953	3660.909180
2147.253906	3622.701416
2146.255859	3632.132568
2145.259766	3654.091553
2144.261719	3706.113281
2143.263672	3708.009277
2142.265625	3662.309814
2141.267578	3626.643311
2140.269531	3653.593018
2139.269531	3632.962158
2138.271484	3674.921875
2137.273438	3689.335449
2136.273438	3553.592041
2135.275391	3593.041748
2134.275391	3557.427002
2133.275391	3689.410645
2132.277344	3603.773926
2131.277344	3708.200928
2130.277344	3797.593262
2129.277344	3679.485352
2128.275391	3678.880127
2127.275391	3648.289063
2126.275391	3712.647949
2125.273438	3582.140869
2124.273438	3691.445801
2123.271484	3715.810547
2122.271484	3732.676758
2121.269531	3559.813721
2120.267578	3616.635010
2119.265625	3606.057861
2118.263672	3777.628662
2117.261719	3624.829102
2116.259766	3556.886230
2115.257813	3633.612061
2114.253906	3660.442627
2113.251953	3580.061768
2112.248047	3644.281982
2111.246094	3576.391357
2110.242188	3588.262207
2109.238281	3649.957520
2108.236328	3626.937744
2107.232422	3626.340820
2106.228516	3680.528564
2105.224609	3625.147217
2104.218750	3589.699219
2103.214844	3474.615479
2102.210938	3563.632080
2101.205078	3600.367920
2100.201172	3530.118164
2099.195313	3609.132080
2098.189453	3668.224365
2097.185547	3510.969482
2096.179688	3485.530518
2095.173828	3472.528076
2094.167969	3635.985840
2093.162109	3560.840576
2092.156250	3547.832031
2091.148438	3514.955078
2090.142578	3449.801025
2089.134766	3506.347900
2088.128906	3597.635498
2087.121094	3589.595947
2086.115234	3554.256348
2085.107422	3444.480225
2084.099609	3592.785156
2083.091797	3577.308838
2082.083984	3517.190430
2081.076172	3536.450928
2080.068359	3600.337402
2079.058594	3641.890137
2078.050781	3450.426025
2077.041016	3598.558594
2076.033203	3483.980713
2075.023438	3602.328125
2074.013672	3562.100830
2073.005859	3549.130371
2071.996094	3461.875000
2070.986328	3612.334473
2069.976563	3559.754150
2068.966797	3551.742432
2067.955078	3437.322266
2066.945313	3506.035400
2065.935547	3460.928223
2064.923828	3472.725098
2063.912109	3496.883301
2062.902344	3503.725098
2061.890625	3404.258545
2060.878906	3374.035645
2059.867188	3519.293213
2058.855469	3494.002930
2057.843750	3414.367920
2056.832031	3562.016846
2055.820313	3502.155029
2054.806641	3513.924561
2053.794922	3436.807373
2052.781250	3537.451904
2051.769531	3494.910156
2050.755859	3398.091797
2049.742188	3488.823242
2048.730469	3461.111816
2047.716797	3514.804932
2046.703125	3553.683350
2045.687500	3486.523193
2044.673828	3535.254639
2043.660156	3524.812012
2042.646484	3514.373047
2041.630859	3479.296143
2040.617188	3471.331543
2039.601563	3384.544189
2038.585938	3462.798096
2037.570313	3376.040771
2036.556641	3466.580078
2035.541016	3355.234131
2034.523438	3285.765869
2033.507813	3462.404541
2032.492188	3304.365479
2031.476563	3402.221680
2030.458984	3404.120117
2029.443359	3398.640137
2028.425781	3427.585449
2027.410156	3454.062500
2026.392578	3460.866699
2025.375000	3475.041260
2024.357422	3467.096436
2023.339844	3471.437988
2022.322266	3497.885498
2021.304688	3443.276855
2020.287109	3518.831543
2019.267578	3434.775391
2018.250000	3336.018066
2017.230469	3396.826660
2016.212891	3467.430664
2015.193359	3420.240967
2014.173828	3503.083496
2013.154297	3404.395996
2012.134766	3482.308594
2011.115234	3425.339600
2010.095703	3522.835205
2009.076172	3323.713379
2008.056641	3347.671875
2007.035156	3258.908203
2006.015625	3331.867432
2004.994141	3395.004395
2003.974609	3426.282227
2002.953125	3330.217529
2001.931641	3398.219971
2000.910156	3302.191406
1999.888672	3416.677734
1998.867188	3315.783691
1997.845703	3378.849609
1996.824219	3280.441162
1995.800781	3380.179688
1994.779297	3455.430908
1993.755859	3371.728516
1992.734375	3290.498291
1991.710938	3309.508789
1990.687500	3304.074707
1989.666016	3389.049316
1988.642578	3354.287109
1987.619141	3363.503662
1986.595703	3275.028076
1985.570313	3315.998047
1984.546875	3320.333252
1983.523438	3383.251221
1982.498047	3248.458496
1981.474609	3350.410889
1980.449219	3320.579834
1979.423828	3180.985107
1978.400391	3246.312744
1977.375000	3375.022217
1976.349609	3415.913818
1975.324219	3449.478516
1974.296875	3356.287842
1973.271484	3333.800293
1972.246094	3279.644531
1971.218750	3386.294678
1970.193359	3151.900391
1969.166016	3290.196045
1968.140625	3209.298096
1967.113281	3408.402832
1966.085938	3407.839355
1965.058594	3241.780029
1964.031250	3197.443604
1963.003906	3352.624756
1961.976563	3291.256592
1960.949219	3312.602051
1959.919922	3260.987549
1958.892578	3299.350342
1957.863281	3223.445313
1956.835938	3329.856689
1955.806641	3253.971680
1954.777344	3282.590576
1953.748047	3265.042480
1952.718750	3305.794922
1951.689453	3229.963379
1950.660156	3440.677734
1949.630859	3313.866211
1948.599609	3267.198975
1947.570313	3205.985107
1946.539063	3280.677734
1945.509766	3338.362549
1944.478516	3255.335449
1943.447266	3351.810303
1942.417969	3312.457031
1941.386719	3190.682861
1940.355469	3291.968506
1939.324219	3339.898682
1938.291016	3259.376221
1937.259766	3309.718750
1936.228516	3304.326172
1935.195313	3294.091064
1934.164063	3240.268066
1933.130859	3237.310791
1932.097656	3166.568359
1931.064453	3103.111084
1930.033203	3347.030029
1929.000000	3283.563477
1927.966797	3312.052002
1926.931641	3231.679688
1925.898438	3231.144775
1924.865234	3177.411621
1923.830078	3239.746582
1922.796875	3265.801025
1921.761719	3224.172852
1920.728516	3235.721924
1919.693359	3331.831299
1918.658203	3203.246582
1917.623047	3357.296875
1916.587891	3356.741211
1915.552734	3264.433838
1914.517578	3220.439209
1913.480469	3205.423828
1912.445313	3262.812988
1911.408203	3216.427246
1910.373047	3273.795410
1909.335938	3244.308105
1908.298828	3185.889404
1907.263672	3180.539307
1906.226563	3312.613770
1905.189453	3362.686279
1904.152344	3195.830811
1903.113281	3253.135010
1902.076172	3247.777588
1901.039063	3259.284668
1900.000000	3263.561768
1898.962891	3238.940186
1897.923828	3293.781494
1896.886719	3266.755371
1895.847656	3213.261719
1894.808594	3277.706055
1893.769531	3238.665039
1892.730469	3185.202148
1891.691406	3326.589844
1890.650391	3191.361816
1889.611328	3282.206055
1888.572266	3288.874756
1887.531250	3146.508545
1886.492188	3155.600830
1885.451172	3248.793213
1884.410156	3118.516846
1883.369141	3173.249756
1882.328125	3184.732910
1881.287109	3217.824219
1880.246094	3150.064209
1879.205078	3267.169922
1878.164063	3163.421143
1877.121094	3186.894775
1876.080078	3246.350830
1875.037109	3205.030273
1873.996094	3197.303467
1872.953125	3213.560791
1871.910156	3241.801514
1870.867188	3260.443115
1869.824219	3166.420410
1868.781250	3105.980713
1867.738281	3208.502197
1866.695313	3239.115479
1865.650391	3202.647705
1864.607422	3166.191650
1863.562500	3194.402100
1862.519531	3205.843506
1861.474609	3202.918213
1860.429688	3149.731934
1859.384766	3189.891113
1858.339844	3127.154053
1857.294922	3102.713135
1856.250000	3121.333252
1855.205078	3080.161377
1854.158203	3058.131348
1853.113281	3088.702393
1852.068359	3035.604980
1851.021484	3104.406982
1849.974609	3189.912109
1848.927734	3151.158203
1847.882813	3057.478027
1846.835938	3009.205566
1845.789063	2970.500732
1844.740234	3017.757324
1843.693359	2981.450684
1842.646484	3112.223145
1841.599609	3063.981201
1840.550781	3173.223389
1839.501953	3067.735596
1838.455078	3014.754639
1837.406250	3121.565674
1836.357422	3094.820313
1835.308594	2991.799072
1834.259766	3055.657227
1833.210938	3102.812500
1832.162109	2985.544434
1831.113281	3016.019043
1830.062500	3053.629395
1829.013672	2884.033936
1827.962891	2962.132813
1826.914063	3021.159668
1825.863281	2999.235107
1824.812500	3103.455078
1823.761719	3150.531006
1822.710938	2978.708496
1821.660156	2994.865234
1820.609375	3025.286865
1819.558594	3012.894775
1818.505859	2971.975830
1817.455078	3057.061035
1816.402344	2961.481689
1815.351563	2963.366455
1814.298828	2946.242432
1813.246094	2933.875244
1812.193359	2802.751221
1811.140625	2975.647705
1810.087891	2870.678711
1809.035156	3007.895752
1807.982422	3043.000732
1806.927734	2990.284180
1805.875000	2951.821777
1804.820313	2953.704102
1803.767578	3045.723633
1802.712891	2952.722900
1801.658203	3058.939697
1800.603516	3022.868408
1799.548828	3043.700439
1798.494141	3064.525635
1797.439453	2950.271240
1796.384766	3141.694580
1795.330078	3084.318604
1794.273438	2993.802734
1793.218750	2981.464600
1792.162109	3044.897949
1791.105469	3020.718506
1790.050781	2991.813232
1788.994141	2929.785889
1787.937500	3137.520752
1786.880859	3049.466064
1785.824219	2970.902100
1784.765625	2953.853516
1783.708984	3050.310547
1782.652344	3101.815674
1781.593750	2999.656738
1780.535156	3025.155762
1779.478516	3012.837646
1778.419922	3050.138672
1777.361328	2995.300537
1776.302734	3044.401123
1775.244141	3074.593750
1774.185547	3144.913818
1773.126953	2993.309082
1772.066406	3011.693604
1771.007813	3124.466553
1769.949219	3046.084229
1768.888672	2963.009766
1767.828125	3012.049561
1766.769531	3013.906982
1765.708984	3088.858887
1764.648438	2977.541992
1763.587891	2998.260742
1762.527344	3049.610352
1761.464844	3025.539551
1760.404297	2966.137695
1759.343750	3057.510986
1758.281250	2979.281982
1757.220703	2997.624512
1756.158203	2950.038330
1755.095703	3013.105225
1754.033203	2941.996094
1752.970703	2920.327881
1751.908203	2952.781250
1750.845703	2985.223877
1749.783203	2942.390625
1748.720703	3078.296143
1747.656250	2981.382813
1746.593750	2971.483398
1745.529297	2947.484131
1744.466797	3071.547607
1743.402344	2951.202637
1742.337891	2938.965088
1741.273438	2983.104980
1740.208984	2992.002441
1739.144531	2956.282715
1738.080078	2932.313477
1737.013672	2974.077393
1735.949219	2936.031250
1734.884766	2956.661377
1733.818359	3000.746338
1732.751953	2929.873535
1731.687500	2896.550293
1730.621094	2928.897949
1729.554688	2724.429932
1728.488281	3040.445068
1727.421875	2927.435303
1726.353516	2962.099365
1725.287109	2888.971924
1724.220703	2996.252686
1723.152344	2873.956055
1722.085938	2955.443115
1721.017578	2784.022705
1719.949219	2935.729980
1718.880859	2855.657227
1717.814453	2855.181641
1716.744141	2803.227539
1715.675781	2791.062988
1714.607422	2844.398438
1713.539063	2811.182129
1712.468750	2918.278564
1711.400391	2831.287354
1710.330078	2886.917725
1709.261719	2905.134277
1708.191406	2904.650146
1707.121094	2850.428711
1706.050781	2814.913330
1704.980469	2856.485840
1703.910156	2827.986816
1702.839844	2916.240234
1701.769531	2754.675781
1700.697266	2840.577637
1699.626953	2889.111816
1698.554688	2911.963379
1697.482422	2752.839844
1696.412109	2827.021973
1695.339844	2744.925781
1694.267578	2884.373291
1693.195313	2741.679443
1692.123047	2827.468506
1691.048828	2822.335938
1689.976563	2768.270996
1688.904297	2823.724854
1687.830078	2809.277588
1686.757813	2678.383545
1685.683594	2829.298584
1684.609375	2768.292236
1683.535156	2767.830566
1682.460938	2830.210938
1681.386719	2771.561768
1680.312500	2840.900635
1679.238281	2749.700684
1678.164063	2809.716309
1677.087891	2839.479492
1676.013672	2806.453857
1674.937500	2715.320068
1673.863281	2747.408447
1672.787109	2821.317627
1671.710938	2709.314453
1670.634766	2748.357178
1669.558594	2775.772461
1668.482422	2786.921631
1667.404297	2726.083496
1666.328125	2737.236816
1665.251953	2848.201172
1664.173828	2708.472900
1663.097656	2731.226074
1662.019531	2691.328369
1660.941406	2700.158203
1659.863281	2718.262207
1658.785156	2750.273926
1657.707031	2770.682129
1656.628906	2665.901855
1655.550781	2767.439453
1654.470703	2785.516846
1653.392578	2720.175537
1652.312500	2726.671387
1651.234375	2756.327393
1650.154297	2695.655029
1649.074219	2658.157715
1647.994141	2750.317139
1646.914063	2752.172607
1645.833984	2751.713135
1644.753906	2728.114502
1643.673828	2669.820801
1642.593750	2835.921631
1641.511719	2807.695068
1640.431641	2705.481689
1639.349609	2836.813232
1638.267578	2769.302979
1637.185547	2699.504150
1636.103516	2761.445801
1635.021484	2733.259277
1633.939453	2769.763672
1632.857422	2808.565430
1631.775391	2694.941162
1630.693359	2712.962402
1629.609375	2724.051758
1628.527344	2737.445557
1627.443359	2690.833252
1626.359375	2819.595947
1625.275391	2717.617920
1624.191406	2777.135254
1623.107422	2679.810791
1622.023438	2794.654053
1620.939453	2697.358887
1619.855469	2733.788818
1618.769531	2717.199463
1617.685547	2742.092529
1616.599609	2748.545898
1615.515625	2731.961914
1614.429688	2754.536621
1613.343750	2724.140625
1612.257813	2689.150146
1611.171875	2585.112061
1610.085938	2605.394287
1609.000000	2646.380371
1607.912109	2609.125000
1606.826172	2652.396973
1605.738281	2649.653564
1604.652344	2699.803223
1603.564453	2667.161865
1602.476563	2583.955811
1601.388672	2657.076172
1600.300781	2647.439209
1599.212891	2610.232910
1598.125000	2667.230225
1597.037109	2611.656982
1595.949219	2650.262207
1594.859375	2590.117676
1593.771484	2529.993164
1592.681641	2600.728516
1591.591797	2607.178711
1590.501953	2661.814697
1589.412109	2709.549561
1588.322266	2562.286621
1587.232422	2649.011719
1586.142578	2712.776367
1585.052734	2655.003662
1583.962891	2615.589355
1582.871094	2628.903809
1581.779297	2672.004395
1580.689453	2621.150391
1579.597656	2641.329346
1578.505859	2551.560059
1577.414063	2681.666748
1576.322266	2562.154541
1575.230469	2552.568604
1574.138672	2675.742920
1573.046875	2583.753906
1571.953125	2622.219971
1570.861328	2614.917725
1569.767578	2635.066650
1568.673828	2620.903564
1567.582031	2682.203613
1566.488281	2645.174805
1565.394531	2571.584717
1564.300781	2573.439697
1563.207031	2632.421143
1562.111328	2593.140625
1561.017578	2624.687012
1559.923828	2663.074463
1558.828125	2728.851807
1557.732422	2771.775146
1556.638672	2725.655273
1555.542969	2848.448975
1554.447266	2768.101074
1553.351563	2703.751465
1552.255859	2607.485352
1551.160156	2666.351807
1550.062500	2693.271240
1548.966797	2690.540039
1547.871094	2642.214844
1546.773438	2712.432373
1545.675781	2670.956543
1544.580078	2661.394531
1543.482422	2601.715332
1542.384766	2737.949219
1541.287109	2605.398682
1540.189453	2495.663086
1539.089844	2611.355713
1537.992188	2781.640869
1536.894531	2617.308594
1535.794922	2557.706055
1534.697266	2523.149902
1533.597656	2656.938965
1532.498047	2540.499512
1531.398438	2583.280029
1530.298828	2471.439209
1529.199219	2591.507324
1528.099609	2445.609375
1527.000000	2517.918945
1525.898438	2458.422119
1524.798828	2496.629395
1523.697266	2457.598145
1522.597656	2552.566650
1521.496094	2561.221191
1520.394531	2529.008789
1519.292969	2544.473633
1518.191406	2462.346924
1517.089844	2464.203369
1515.988281	2413.879150
1514.886719	2415.742676
1513.783203	2510.590332
1512.681641	2528.309570
1511.578125	2464.405029
1510.476563	2479.859375
1509.373047	2469.630859
1508.269531	2459.402100
1507.166016	2449.173584
1506.062500	2438.945068
1504.958984	2428.716309
1503.855469	2418.487793
1502.750000	2495.062256
1501.646484	2467.478760
1500.541016	2460.274658
1499.437500	2403.287354
1498.332031	2443.611084
1497.226563	2468.085449
1496.121094	2449.576660
1495.015625	2324.785156
1493.910156	2464.582275
1492.804688	2430.258057
1491.699219	2386.904053
1490.591797	2422.662598
1489.486328	2392.881836
1488.378906	2410.553711
1487.271484	2599.889160
1486.166016	2351.025391
1485.058594	2355.146973
1483.951172	2426.997070
1482.843750	2476.250244
1481.736328	2414.897705
1480.626953	2407.722900
1479.519531	2339.634033
1478.412109	2395.635498
1477.302734	2469.661621
1476.195313	2485.031982
1475.085938	2435.012695
1473.976563	2301.602295
1472.867188	2353.055176
1471.757813	2458.574707
1470.648438	2331.986816
1469.539063	2369.891846
1468.427734	2346.970215
1467.318359	2382.607910
1466.208984	2409.227051
1465.097656	2321.024170
1463.986328	2496.201416
1462.876953	2401.261963
1461.765625	2418.859375
1460.654297	2539.938232
1459.542969	2460.784424
1458.431641	2491.856445
1457.318359	2495.935059
1456.207031	2515.749512
1455.095703	2454.635254
1453.982422	2514.904297
1452.869141	2408.868896
1451.757813	2433.177979
1450.644531	2419.291016
1449.531250	2389.687256
1448.417969	2440.933838
1447.304688	2458.485107
1446.191406	2395.217041
1445.076172	2419.503174
1443.962891	2448.269287
1442.847656	2405.227783
1441.734375	2393.607178
1440.619141	2361.803711
1439.503906	2381.589600
1438.390625	2378.947021
1437.275391	2394.239746
1436.158203	2452.114258
1435.042969	2474.112305
1433.927734	2323.571533
1432.812500	2423.993896
1431.695313	2434.785889
1430.580078	2371.669434
1429.462891	2346.639893
1428.345703	2455.945801
1427.228516	2437.625488
1426.113281	2363.360352
1424.996094	2394.290039
1423.876953	2337.955322
1422.759766	2326.377686
1421.642578	2415.447266
1420.523438	2361.373535
1419.406250	2383.333984
1418.287109	2365.049805
1417.169922	2407.117432
1416.050781	2429.058838
1414.931641	2442.055908
1413.812500	2354.523193
1412.693359	2414.431885
1411.574219	2355.963867
1410.453125	2377.895264
1409.333984	2344.009277
1408.214844	2392.718994
1407.093750	2383.389893
1405.972656	2382.988770
1404.853516	2404.896484
1403.732422	2339.806885
1402.611328	2377.325439
1401.490234	2356.857422
1400.369141	2294.037842
1399.246094	2336.002930
1398.125000	2402.468750
1397.003906	2373.096924
1395.880859	2345.962646
1394.757813	2419.075439
1393.636719	2380.806885
1392.513672	2269.068115
1391.390625	2199.667969
1390.267578	2279.434082
1389.144531	2383.655029
1388.021484	2289.792725
1386.896484	2389.526855
1385.773438	2320.164551
1384.648438	2317.549805
1383.525391	2266.012939
1382.400391	2234.503906
1381.275391	2291.925781
1380.150391	2224.860596
1379.025391	2275.597900
1377.900391	2186.338867
1376.775391	2325.926025
1375.650391	2294.438232
1374.523438	2194.117188
1373.398438	2300.326172
1372.271484	2264.418457
1371.146484	2312.869141
1370.019531	2256.997559
1368.892578	2216.677002
1367.765625	2234.051758
1366.638672	2326.837402
1365.511719	2262.129883
1364.384766	2323.835693
1363.255859	2188.205566
1362.128906	2367.385498
1361.000000	2318.228271
1359.873047	2258.008057
1358.744141	2313.015869
1357.615234	2237.310547
1356.486328	2316.665527
1355.357422	2307.417480
1354.228516	2273.817871
1353.099609	2397.399658
1351.968750	2323.956787
1350.839844	2312.500244
1349.708984	2278.922119
1348.580078	2243.143066
1347.449219	2289.212646
1346.318359	2242.386719
1345.187500	2279.596436
1344.056641	2241.630371
1342.925781	2234.621338
1341.794922	2291.702637
1340.664063	2350.974365
1339.531250	2299.766357
1338.400391	2264.037354
1337.267578	2230.528809
1336.136719	2157.286133
1335.003906	2267.307129
1333.871094	2273.546631
1332.738281	2189.298828
1331.605469	2129.351563
1330.472656	2256.952393
1329.337891	2192.602295
1328.205078	2203.259766
1327.072266	2211.708252
1325.937500	2235.586914
1324.802734	2239.618408
1323.669922	2188.548828
1322.535156	2100.035156
1321.400391	2112.900146
1320.265625	2257.932373
1319.130859	2202.489014
1317.994141	2138.255859
1316.859375	2181.929688
1315.722656	2150.742188
1314.587891	2123.967041
1313.451172	2224.837402
1312.314453	2184.857178
1311.179688	2193.287842
1310.042969	2184.119385
1308.906250	2166.157471
1307.769531	2194.375732
1306.630859	2119.259277
1305.494141	2145.277832
1304.355469	2129.531982
1303.218750	2133.566895
1302.080078	2161.766357
1300.943359	2139.435791
1299.804688	2145.662842
1298.666016	2138.713135
1297.527344	2127.374512
1296.388672	2144.575684
1295.248047	2137.629395
1294.109375	2067.049805
1292.970703	2022.821655
1291.830078	2090.480713
1290.691406	2081.354736
1289.550781	1995.482422
1288.410156	2111.345947
1287.269531	2141.678467
1286.128906	2071.181396
1284.988281	2110.275635
1283.847656	2112.110107
1282.705078	2002.222290
1281.564453	2023.786377
1280.423828	2054.102539
1279.281250	2073.460693
1278.138672	2075.299316
1276.996094	2099.024902
1275.855469	2057.090576
1274.712891	2091.751221
1273.568359	2067.333496
1272.425781	2091.043945
1271.283203	2014.148438
1270.140625	2085.963867
1268.996094	2094.355713
1267.851563	2109.302246
1266.708984	2119.872803
1265.564453	2112.958984
1264.419922	2084.200684
1263.275391	2096.954102
1262.130859	2079.127686
1260.986328	2078.776123
1259.839844	2087.157227
1258.695313	2163.204102
1257.550781	2086.451172
1256.404297	2212.660645
1255.257813	2057.382813
1254.113281	2220.637695
1252.966797	2126.478760
1251.820313	2045.435425
1250.673828	2121.398682
1249.525391	2055.642822
1248.378906	2122.860352
1247.232422	2028.797241
1246.083984	2074.208496
1244.937500	2123.961182
1243.789063	2184.587158
1242.640625	2079.688477
1241.492188	2142.478760
1240.343750	2118.169678
1239.195313	2183.108398
1238.046875	2202.324707
1236.898438	2106.214844
1235.748047	2164.596191
1234.599609	2146.828857
1233.449219	2159.513672
1232.300781	2130.881348
1231.150391	2169.652588
1230.000000	2206.236816
1228.849609	2131.972168
1227.699219	2105.536377
1226.548828	2120.387695
1225.398438	2165.643799
1224.246094	2110.982178
1223.095703	2180.110352
1221.943359	2145.004150
1220.791016	2142.470215
1219.640625	2233.260742
1218.488281	2176.463623
1217.335938	2217.317139
1216.183594	2180.064697
1215.031250	2171.020020
1213.876953	2196.673828
1212.724609	2202.806152
1211.570313	2208.936035
1210.417969	2171.716309
1209.263672	2303.536133
1208.109375	2144.980713
1206.957031	2205.272949
1205.802734	2267.710693
1204.646484	2228.346436
1203.492188	2258.281250
1202.337891	2160.482178
1201.183594	2289.982422
1200.027344	2194.375000
1198.873047	2291.369873
1197.716797	2247.714600
1196.560547	2262.474365
1195.404297	2318.318848
1194.248047	2248.733887
1193.091797	2248.352539
1191.935547	2226.356201
1190.779297	2234.623291
1189.621094	2288.263916
1188.464844	2264.111328
1187.306641	2360.929443
1186.150391	2306.537109
1184.992188	2301.827148
1183.833984	2303.595703
1182.675781	2324.790771
1181.517578	2423.674316
1180.359375	2332.633545
1179.199219	2297.718262
1178.041016	2390.084473
1176.882813	2460.851807
1175.722656	2434.557617
1174.562500	2464.328857
1173.404297	2526.424561
1172.244141	2390.212891
1171.083984	2447.990234
1169.923828	2346.310791
1168.761719	2513.939209
1167.601563	2455.359375
1166.441406	2388.185547
1165.279297	2609.548828
1164.119141	2434.734863
1162.957031	2483.826172
1161.794922	2481.252441
1160.632813	2556.138428
1159.470703	2473.956299
1158.308594	2593.986816
1157.146484	2621.503418
1155.984375	2580.205078
1154.820313	2644.261230
1153.658203	2695.398926
1152.494141	2675.599609
1151.330078	2567.709717
1150.167969	2640.317383
1149.003906	2592.613525
1147.839844	2652.306396
1146.675781	2742.040527
1145.509766	2698.637207
1144.345703	2764.720947
1143.181641	2755.666748
1142.015625	2834.593018
1140.849609	2763.312500
1139.685547	2814.324463
1138.519531	2981.133057
1137.353516	2877.698486
1136.187500	2793.594727
1135.021484	2855.284668
1133.855469	2901.950928
1132.687500	2935.743896
1131.521484	2941.672607
1130.353516	2870.481689
1129.187500	2925.680420
1128.019531	2995.850098
1126.851563	2918.262939
1125.683594	2969.143555
1124.515625	3120.602539
1123.347656	3102.952393
1122.179688	3076.749756
1121.009766	3163.935547
1119.841797	3163.397705
1118.671875	3102.981689
1117.503906	3074.658203
1116.333984	3157.509033
1115.164063	3272.393066
1113.994141	3323.125977
1112.824219	3224.272949
1111.654297	3302.769043
1110.484375	3417.549561
1109.312500	3391.341309
1108.142578	3412.116943
1106.970703	3426.480713
1105.800781	3494.202637
1104.628906	3514.949707
1103.457031	3546.358643
1102.285156	3432.683838
1101.113281	3583.547607
1099.941406	3574.407227
1098.769531	3678.283691
1097.595703	3654.206055
1096.423828	3743.112061
1095.250000	3776.575195
1094.076172	3752.492920
1092.904297	3847.728027
1091.730469	3985.533936
1090.556641	3910.312744
1089.382813	3858.540771
1088.207031	3911.111084
1087.033203	4072.227539
1085.859375	4060.892822
1084.683594	4153.833008
1083.509766	4153.125977
1082.333984	4190.709961
1081.158203	4315.483398
1079.982422	4361.532715
1078.806641	4354.411621
1077.630859	4349.418945
1076.455078	4361.431152
1075.279297	4415.940918
1074.101563	4464.057617
1072.925781	4433.556641
1071.748047	4596.350098
1070.570313	4483.014160
1069.392578	4601.154785
1068.214844	4560.035645
1067.037109	4555.013672
1065.859375	4726.136230
1064.681641	4763.523926
1063.503906	4722.404785
1062.324219	4696.146973
1061.146484	4828.954102
1059.966797	4811.168457
1058.787109	4795.508789
1057.607422	4837.084961
1056.427734	4823.544922
1055.248047	4733.727539
1054.068359	4788.003906
1052.888672	4884.626465
1051.707031	4841.437012
1050.527344	4781.321777
1049.345703	4966.815430
1048.166016	4915.166504
1046.984375	4954.540527
1045.802734	4902.910645
1044.621094	4923.231934
1043.439453	4892.777832
1042.257813	4828.494629
1041.074219	5026.445801
1039.892578	4962.161133
1038.708984	4883.101074
1037.527344	4913.971191
1036.343750	4862.417480
1035.160156	4882.716309
1033.976563	4896.670898
1032.792969	4910.620605
1031.609375	4825.313965
1030.425781	4968.064453
1029.242188	4794.113770
1028.056641	4841.841309
1026.873047	4929.647949
1025.687500	4852.849609
1024.501953	4818.268555
1023.316406	4764.716309
1022.130859	4770.229980
1020.945313	4733.571777
1019.759766	4680.061035
1018.574219	4767.789063
1017.386719	4703.752930
1016.201172	4681.879883
1015.013672	4594.706543
1013.828125	4606.560547
1012.640625	4601.562500
1011.453125	4535.502930
1010.265625	4427.360840
1009.078125	4601.312012
1007.890625	4528.972168
1006.701172	4704.950195
1005.513672	4514.803223
1004.324219	4511.929199
1003.136719	4454.375000
1001.947266	4504.080566
1000.757813	4446.547363
999.568359	4346.992676
998.378906	4243.269043
997.189453	4368.623047
996.000000	4225.012207
994.808594	4352.427246
993.619141	4177.364258
992.427734	4260.645996
991.238281	4264.117676
990.046875	4261.290039
988.855469	4157.721191
987.664063	4075.171875
986.472656	4254.910645
985.281250	4111.539063
984.089844	4169.562500
982.896484	3917.209473
981.705078	4092.658936
980.511719	4003.915527
979.318359	3965.504639
978.126953	3889.386475
976.933594	3918.054932
975.740234	3917.385254
974.546875	3964.889404
973.351563	3932.799805
972.158203	3814.875732
970.964844	3858.185791
969.769531	3884.736328
968.574219	3978.244385
967.380859	3845.746094
966.185547	3937.136475
964.990234	3846.522949
963.794922	3921.151611
962.599609	3836.844238
961.402344	3909.358154
960.207031	3852.254150
959.009766	3839.056396
957.814453	3880.189941
956.617188	3795.960938
955.419922	3753.536133
954.222656	3771.690186
953.025391	3810.718506
951.828125	3810.066650
950.630859	3863.686279
949.433594	3848.416504
948.234375	3691.260498
947.037109	3809.546875
945.837891	3844.355957
944.638672	3749.847900
943.441406	3732.524658
942.242188	3811.110596
941.042969	3708.318115
939.841797	3638.907227
938.642578	3727.887207
937.443359	3677.247070
936.242188	3647.454834
935.042969	3613.507324
933.841797	3664.947754
932.640625	3651.828613
931.439453	3740.714355
930.238281	3677.635254
929.037109	3523.017090
927.835938	3624.362061
926.634766	3617.500977
925.431641	3618.961670
924.230469	3597.547119
923.027344	3678.018066
921.824219	3606.709229
920.623047	3639.346924
919.419922	3595.083984
918.216797	3584.079590
917.011719	3537.763916
915.808594	3406.305908
914.605469	3515.785645
913.400391	3517.259766
912.197266	3535.341064
910.992188	3468.316406
909.787109	3417.916748
908.582031	3498.251709
907.376953	3310.945068
906.171875	3449.347412
904.966797	3355.434570
903.761719	3500.001953
902.554688	3337.700195
901.349609	3393.092529
900.142578	3436.031494
898.935547	3315.264404
897.728516	3414.137207
896.521484	3260.273682
895.314453	3330.128174
894.107422	3255.015137
892.900391	3287.581543
891.693359	3264.249023
890.484375	3209.881104
889.275391	3180.362061
888.068359	3274.983643
886.859375	3199.956543
885.650391	3197.339844
884.441406	3314.655273
883.232422	3264.468750
882.023438	3261.842041
880.812500	3186.880859
879.603516	3260.723389
878.392578	3235.372314
877.183594	3259.605225
875.972656	3259.046143
874.761719	3182.084229
873.550781	3284.768066
872.339844	3302.782959
871.128906	3254.747070
869.916016	3179.901611
868.705078	3175.229736
867.494141	3220.067139
866.281250	3194.765137
865.068359	3163.285400
863.855469	3063.778076
862.642578	3197.243896
861.429688	3136.924805
860.216797	3144.629150
859.003906	3121.425781
857.791016	3172.389893
856.576172	3105.937012
855.363281	3070.396240
854.148438	3139.872803
852.933594	3199.032715
851.718750	3134.678711
850.503906	3185.587402
849.289063	3125.372559
848.074219	3106.321533
846.859375	3076.992920
845.642578	3018.883545
844.427734	3063.599609
843.210938	3091.854248
841.994141	3198.204102
840.777344	3111.343018
839.560547	3001.909912
838.343750	3104.111328
837.126953	3060.444580
835.910156	3035.275391
834.691406	3024.487549
833.474609	3050.656250
832.255859	3095.288818
831.039063	3053.712646
829.820313	3055.239990
828.601563	3032.148438
827.382813	3136.237061
826.164063	3010.598389
824.943359	3104.402588
823.724609	3052.616211
822.505859	3056.191406
821.285156	3041.320313
820.064453	3098.171143
818.845703	3126.320557
817.625000	3103.251465
816.404297	3043.326172
815.183594	3075.565430
813.960938	3040.232666
812.740234	3080.648926
811.519531	3086.259277
810.296875	3159.393311
809.074219	3109.748779
807.853516	3135.806152
806.630859	3180.260986
805.408203	2995.679443
804.185547	3222.101563
802.962891	3147.958984
801.738281	3196.468262
800.515625	3142.789551
799.291016	3252.574951
798.068359	3133.537598
796.843750	3202.439453
795.619141	3128.375732
794.394531	3197.254395
793.169922	3241.613525
791.945313	3179.826904
790.720703	3199.686035
789.496094	3154.249756
788.269531	3257.742676
787.042969	3206.192871
785.818359	3270.895996
784.591797	3205.089844
783.365234	3277.924561
782.138672	3203.986816
780.912109	3236.040283
779.685547	3253.820557
778.457031	3275.668701
777.230469	3116.237793
776.001953	3203.266846
774.775391	3273.977539
773.546875	3273.413818
772.318359	3311.522217
771.089844	3341.477051
769.861328	3241.203857
768.632813	3169.445068
767.402344	3120.084473
766.173828	3237.496338
764.943359	3267.437500
763.714844	3220.118164
762.484375	3329.321533
761.253906	3282.007324
760.023438	3324.111084
758.792969	3329.633057
757.562500	3274.218506
756.332031	3261.469727
755.099609	3350.247803
753.869141	3459.296143
752.636719	3296.319824
751.404297	3395.192871
750.173828	3376.346436
748.941406	3347.362793
747.708984	3405.608398
746.474609	3445.581543
745.242188	3461.209229
744.009766	3466.694580
742.775391	3597.849365
741.542969	3542.510986
740.308594	3598.635498
739.074219	3474.434814
737.839844	3488.014893
736.605469	3702.085938
735.371094	3614.378662
734.136719	3650.196777
732.900391	3724.461670
731.666016	3683.343262
730.429688	3666.520508
729.195313	3740.743652
727.958984	3778.531250
726.722656	3848.664307
725.486328	3789.360596
724.250000	3817.011230
723.013672	3790.074951
721.775391	3876.325439
720.539063	3956.483887
719.300781	3935.598145
718.064453	3906.639648
716.826172	3950.397461
715.587891	3996.159668
714.349609	3850.106934
713.111328	3817.145264
711.873047	4074.821045
710.632813	4084.207520
709.394531	4099.643066
708.154297	4056.574463
706.916016	4049.823975
705.675781	4115.669434
704.435547	4060.523193
703.195313	4063.854004
701.955078	4222.373535
700.714844	4179.327148
699.472656	4079.882813
698.232422	4157.740723
696.990234	4094.586914
695.750000	4281.155273
694.507813	4226.055176
693.265625	4394.419434
692.023438	4252.773438
690.781250	4243.989746
689.539063	4380.071289
688.296875	4425.582520
687.052734	4404.705566
685.810547	4478.349121
684.566406	4298.633789
683.322266	4410.464844
682.080078	4411.712891
680.835938	4549.609375
679.589844	4613.117676
678.345703	4441.568359
677.101563	4452.852051
675.857422	4598.678223
674.611328	4537.649414
673.365234	4591.066895
672.121094	4696.650879
670.875000	4601.520996
669.628906	4672.957031
668.382813	4619.991699
667.136719	4737.531250
665.888672	4746.739258
664.642578	4669.727539
663.396484	4709.014160
662.148438	4738.265625
660.900391	4721.414551
659.652344	4854.842773
658.404297	4817.943848
657.156250	4851.161133
655.908203	4846.317383
654.660156	4817.447754
653.412109	4832.629883
652.162109	4881.833496
650.912109	4864.979492
649.664063	4834.125000
648.414063	4861.296875
647.164063	4854.455078
645.914063	4917.610840
644.664063	5002.738281
643.412109	4777.968262
642.162109	5026.992188
640.912109	4792.303223
639.660156	4951.322754
638.408203	4848.580078
637.156250	5031.503906
635.906250	4928.782715
634.652344	4935.916992
633.400391	4871.178223
632.148438	4988.101563
630.896484	4829.578613
629.642578	4922.524414
628.390625	4895.737305
627.136719	4954.729492
625.882813	5013.701660
624.628906	5024.797363
623.375000	4978.074219
622.121094	5040.997559
620.867188	5008.237793
619.611328	4949.585938
618.357422	4960.682129
617.101563	4953.847656
615.845703	4998.795410
614.591797	5035.762695
613.335938	5040.863281
612.080078	5219.137207
610.822266	5100.812988
609.566406	5121.817871
608.310547	5172.657227
607.052734	5157.837402
605.796875	5244.450684
604.539063	5171.958008
603.281250	5192.931152
602.023438	5197.995117
600.765625	5260.691895
599.507813	5369.069336
598.250000	5366.152344
596.990234	5224.188965
595.732422	5338.474121
594.472656	5355.420410
593.212891	5300.887695
591.955078	5432.964844
590.695313	5430.038574
589.435547	5441.002930
588.173828	5438.076172
586.914063	5613.676758
585.654297	5463.957031
584.392578	5484.822266
583.132813	5507.662598
581.871094	5494.813965
580.609375	5620.703613
579.347656	5673.231445
578.085938	5731.684570
576.824219	5522.698242
575.562500	5721.774902
574.298828	5685.139160
573.037109	5830.662109
571.773438	5647.536133
570.509766	5684.160645
569.248047	5736.602539
567.984375	5725.715332
566.718750	5720.765625
565.455078	5757.351563
564.191406	5625.840820
562.927734	5786.987793
561.662109	5778.076660
560.396484	5818.578613
559.132813	5801.760254
557.867188	5832.365234
556.601563	5945.925781
555.335938	5931.068848
554.070313	6001.128906
552.802734	6067.215332
551.537109	6111.564941
550.269531	6106.556641
549.003906	6123.256836
547.736328	6175.464355
546.468750	6071.814453
545.201172	6212.766602
543.933594	6227.463867
542.666016	6226.382324
541.396484	6099.139648
540.128906	6381.895508
538.859375	6313.787109
537.591797	6308.750000
536.322266	6532.224121
535.052734	6438.520020
533.783203	6435.432617
532.513672	6585.918457
531.244141	6523.750000
529.972656	6597.408203
528.703125	6700.558594
527.431641	6785.965332
526.162109	6796.589355
524.890625	6846.546387
523.619141	6902.384766
522.347656	6970.000977
521.076172	7023.832031
519.804688	6993.129883
518.531250	7052.833496
517.259766	7041.783691
515.986328	7295.937012
514.712891	7243.602539
513.441406	7324.821289
512.167969	7382.450684
510.894531	7369.388672
509.621094	7448.579590
508.345703	7602.313965
507.072266	7518.585938
505.796875	7589.862305
504.523438	7637.576660
503.248047	7718.611816
501.972656	7776.090332
500.697266	7735.531250
499.421875	7802.786133
498.146484	7717.163574
496.871094	7811.828125
495.593750	7863.361816
494.318359	7818.903809
493.041016	8017.290527
491.765625	7818.141602
490.488281	7959.687988
489.210938	7858.481934
487.933594	7800.363281
486.654297	7959.447266
485.376953	7697.879883
484.099609	8001.663574
482.820313	7785.157715
481.541016	7772.071289
480.263672	7719.891602
478.984375	7974.594727
477.705078	7896.992676
476.425781	8001.127441
475.146484	7716.471680
473.865234	7492.463867
472.585938	7487.253906
471.304688	7497.665527
470.023438	7687.673340
468.744141	7456.018066
467.462891	7528.876953
466.181641	7621.221680
464.900391	7473.583008
463.617188	7271.382324
462.335938	7430.027344
461.054688	7186.958008
459.771484	7273.432129
458.488281	7200.047852
457.205078	7417.057129
455.921875	7275.477051
454.638672	7270.313477
453.355469	7214.509766
452.072266	7174.332031
450.789063	7134.153809
449.503906	7093.976074
448.218750	7053.797852
446.935547	7013.620117
445.650391	7138.870117
444.365234	7277.693848
443.080078	7099.426270
441.794922	7152.640625
440.507813	7147.505371
439.222656	7105.434570
437.935547	7191.662598
436.650391	7141.824707
435.363281	7018.169922
434.076172	7034.430664
432.789063	7130.320801
431.501953	6962.065918
430.214844	6949.201660
428.925781	7019.818848
427.638672	7069.060547
426.349609	6968.854980
425.062500	7016.146973
423.773438	7071.182617
422.484375	6967.148926
421.195313	6973.690918
419.906250	6949.207031
418.615234	6955.749023
417.326172	7024.313477
416.037109	6968.825684
414.746094	6880.417969
413.455078	6931.523438
412.164063	6928.377441
410.873047	6915.548828
409.582031	6792.358398
408.291016	6806.660156
407.000000	6824.828125
405.707031	6906.852051
404.416016	6909.516602
403.123047	6875.422852
401.832031	6835.538574
400.539063	6799.535156
399.246094	6867.956055
397.953125	6775.895996
396.658203	6795.974609
395.365234	6711.689453
394.072266	6810.991699
392.777344	6709.345703
391.482422	6708.174316
390.187500	6780.387695
388.894531	6742.517578
387.597656	6737.479004
386.302734	6666.815918
385.007813	6764.073242
383.712891	6774.468750
382.416016	6522.494141
381.121094	6631.297852
379.824219	6768.990234
378.527344	6715.747559
377.230469	6633.606445
375.933594	6615.100098
374.636719	6484.825684
373.337891	6462.497559
372.041016	6627.044434
370.742188	6739.527832
369.445313	6655.541016
368.146484	6652.452148
366.847656	6583.910645
365.548828	6750.215820
364.250000	6633.568848
362.951172	6695.905273
361.650391	6694.734375
360.351563	6783.965820
359.050781	6761.625488
357.751953	6689.300781
356.451172	6597.776855
355.150391	6512.051270
353.849609	6841.454590
352.548828	6675.016113
351.246094	6731.481445
349.945313	6759.115234
348.642578	6779.057617
347.341797	6906.517090
346.039063	6763.248047
344.736328	6858.035156
343.433594	6814.615723
342.130859	6834.529785
340.828125	6752.761230
339.523438	6866.663574
338.220703	6970.937012
336.916016	6841.251953
335.613281	6958.912109
334.308594	6936.610352
333.003906	6893.236328
331.699219	6861.373047
330.394531	7049.827637
329.089844	6931.755371
327.783203	6978.418457
326.478516	6952.305664
325.171875	6811.339355
323.865234	6641.711426
322.558594	6535.294922
321.251953	6658.519531
319.945313	6586.571289
318.638672	6684.878418
317.332031	6591.914551
316.023438	6556.343750
314.716797	6685.190430
313.408203	6448.922363
312.099609	6621.696289
310.791016	6546.019531
309.482422	6445.534180
308.173828	6368.004395
306.865234	6458.553711
305.556641	6468.878418
304.246094	6544.105957
302.935547	6575.406738
301.626953	6467.387207
300.316406	6443.357910
299.005859	6482.290039
297.695313	6496.412598
296.384766	6581.089355
295.072266	6591.375977
293.761719	6422.462891
292.449219	6604.313965
291.138672	6523.117676
289.826172	6464.814453
288.513672	6484.636230
287.201172	6449.214844
285.888672	6451.893066
284.574219	6528.826172
283.261719	6510.548340
281.947266	6477.049805
280.634766	6477.816895
279.320313	6594.646484
278.005859	6351.893555
276.691406	6472.507324
275.376953	6469.470703
274.062500	6479.743652
272.748047	6467.201172
271.431641	6452.762207
270.117188	6421.224609
268.800781	6541.698242
267.484375	6588.041992
266.167969	6541.302246
264.851563	6420.517578
263.535156	6406.100098
262.218750	6393.585938
260.900391	6565.182129
259.583984	6474.839355
258.265625	6568.569824
256.947266	6512.403809
255.630859	6535.917480
254.312500	6557.526367
252.994141	6497.599121
251.673828	6640.529297
250.355469	6410.027832
249.035156	6509.337402
247.716797	6582.086914
246.396484	6588.508301
245.076172	6680.157715
243.755859	6605.131348
242.435547	6596.397949
241.115234	6619.848633
239.794922	6569.476563
238.474609	6757.556641
237.152344	6569.061035
235.830078	6675.732422
234.509766	6657.537598
233.187500	6773.610840
231.865234	6564.445801
230.542969	6740.985352
229.218750	6743.581055
227.896484	6844.439453
226.572266	6614.625000
225.250000	6626.685547
223.925781	6708.623535
222.601563	6686.672363
221.277344	6698.713379
219.953125	6727.738770
218.628906	6773.740234
217.304688	6668.763184
215.978516	6594.009766
214.654297	6602.282227
213.328125	6708.625488
212.001953	6639.560547
210.675781	6764.712891
209.349609	6739.018066
208.023438	6781.181152
206.697266	6749.838867
205.371094	6724.159180
204.042969	6835.999512
202.714844	6812.196289
201.388672	6835.478027
200.060547	6693.071777
198.732422	7013.782715
197.404297	6873.276367
196.076172	6975.562500
194.746094	6947.995605
193.417969	6973.107910
192.087891	7052.752930
190.757813	6925.524902
189.429688	7149.914551
188.099609	7144.896973
186.769531	7158.674805
185.437500	7279.555176
184.107422	7236.941406
182.777344	7273.235840
181.445313	7358.347656
180.113281	7415.262695
178.783203	7380.163574
177.451172	7399.512695
176.119141	7313.755371
174.787109	7269.309570
173.453125	7515.675293
172.121094	7420.562988
170.787109	7447.388184
169.455078	7256.689941
168.121094	7309.780762
166.787109	7280.376465
165.453125	7387.793457
164.119141	7360.258789
162.785156	7535.067871
161.451172	7496.277832
160.115234	7489.338867
158.779297	7517.979004
157.445313	7475.467285
156.109375	7558.381836
154.773438	7558.921387
153.437500	7492.099121
152.101563	7644.186523
150.763672	7601.688477
149.427734	7686.375977
148.089844	7613.967773
146.753906	7711.709473
145.416016	7839.323242
144.078125	7828.597168
142.740234	7840.296875
141.402344	7982.765137
140.064453	7988.829102
138.724609	7953.804688
137.386719	8118.583008
136.046875	8010.740234
134.707031	8177.315918
133.367188	8114.289063
132.027344	8297.580078
130.687500	8325.965820
129.347656	8268.541016
128.007813	8375.246094
126.666016	8424.112305
125.326172	8474.824219
123.984375	8657.856445
122.642578	8589.240234
121.300781	8509.467773
119.958984	8444.626953
118.617188	8573.518555
117.273438	8752.645508
115.931641	8779.030273
114.587891	8732.802734
113.246094	8396.230469
111.902344	8783.687500
110.558594	8735.622070
109.214844	8907.086914
107.871094	9093.371094
106.525391	9199.625000
105.181641	8885.636719
103.835938	8921.248047
102.492188	8860.196289
101.146484	9009.155273
99.800781	9282.547852
98.455078	9258.617188
97.109375	9190.118164
95.763672	9407.622070
94.416016	9498.794922
93.070313	9536.100586
91.722656	9608.657227
90.375000	9503.041016
89.027344	9339.944336
87.679688	9549.769531
86.332031	9659.365234
84.984375	9895.020508
83.636719	10032.327148
82.287109	9987.918945
80.937500	9574.697266
79.589844	9665.659180
78.240234	9712.123047
76.890625	10214.265625
75.541016	10088.370117
74.189453	10008.812500
72.839844	10038.517578
71.490234	10040.445313
70.138672	10060.879883
68.787109	9883.307617
67.435547	9894.510742
66.085938	9633.789063
64.732422	9630.236328
63.380859	9706.197266
62.029297	9791.375977
60.675781	10068.767578
59.324219	9797.154297
57.970703	9169.001953
56.617188	8746.146484
55.263672	8667.017578
53.910156	8586.069336
52.556641	8420.208008
51.203125	8315.331055
