#Wave		#Intensity
4002.533203	3239.108398
4001.835938	3289.271484
4001.137695	3213.510010
4000.439453	3119.863281
3999.742188	3248.290527
3999.043945	3498.423096
3998.345703	3322.430664
3997.646484	3397.068848
3996.948242	3357.153076
3996.250000	3220.631348
3995.550781	3259.470459
3994.852539	3205.286621
3994.153320	3294.190186
3993.454102	3390.217529
3992.754883	3225.194824
3992.055664	3292.602051
3991.356445	3374.285400
3990.657227	3302.265381
3989.957031	3223.121826
3989.257813	3176.158447
3988.557617	3318.534180
3987.857422	3239.426025
3987.157227	3385.316650
3986.457031	3277.659668
3985.756836	3377.088867
3985.056641	3194.512451
3984.356445	3347.453857
3983.655273	3271.984863
3982.955078	3339.242920
3982.253906	3338.706299
3981.552734	3184.813477
3980.851563	3280.579590
3980.150391	3240.834473
3979.449219	3236.749023
3978.748047	3311.075439
3978.045898	3257.090088
3977.344727	3349.204346
3976.642578	3206.169678
3975.940430	3316.071533
3975.239258	3297.732178
3974.537109	3347.052002
3973.834961	3285.992188
3973.131836	3249.868652
3972.429688	3437.972168
3971.727539	3234.590820
3971.024414	3276.765137
3970.321289	3439.872559
3969.619141	3318.392334
3968.916016	3282.298096
3968.212891	3370.659424
3967.509766	3423.442383
3966.805664	3334.032227
3966.102539	3393.911865
3965.399414	3244.129395
3964.695313	3254.266357
3963.991211	3164.940430
3963.288086	3310.045654
3962.583984	3234.943115
3961.879883	3284.129150
3961.174805	3336.849365
3960.470703	3332.763916
3959.766602	3119.306641
3959.061523	3402.655762
3958.357422	3331.157959
3957.652344	3263.229980
3956.947266	3358.459229
3956.242188	3382.740479
3955.537109	3272.293457
3954.832031	3275.312500
3954.125977	3331.492676
3953.420898	3291.978271
3952.714844	3280.820557
3952.009766	3298.005615
3951.303711	3279.766602
3950.597656	3424.432861
3949.891602	3200.816895
3949.185547	3398.551758
3948.479492	3429.862061
3947.772461	3340.835693
3947.066406	3347.375977
3946.359375	3258.391357
3945.653320	3201.270752
3944.946289	3257.344727
3944.239258	3278.038574
3943.532227	3136.087646
3942.825195	3347.686523
3942.117188	3279.993896
3941.410156	3290.068848
3940.702148	3353.140625
3939.995117	3394.995361
3939.287109	3337.934814
3938.579102	3132.563721
3937.871094	3266.241211
3937.163086	3283.369141
3936.455078	3314.611328
3935.746094	3299.961670
3935.038086	3260.614746
3934.329102	3408.277100
3933.621094	3372.453125
3932.912109	3220.246094
3932.203125	3385.476074
3931.494141	3423.718262
3930.785156	3197.542480
3930.075195	3295.724609
3929.366211	3228.234131
3928.657227	3270.000244
3927.947266	3237.766846
3927.237305	3205.543701
3926.527344	3271.947266
3925.817383	3320.722168
3925.107422	3344.834961
3924.397461	3266.851074
3923.687500	3354.320313
3922.976563	3385.454346
3922.266602	3335.649902
3921.555664	3321.042236
3920.844727	3362.718750
3920.133789	3291.840576
3919.422852	3358.122803
3918.711914	3283.751953
3918.000977	3297.285645
3917.290039	3286.212158
3916.578125	3152.148682
3915.866211	3281.643555
3915.155273	3351.376221
3914.443359	3340.300781
3913.731445	3262.503906
3913.019531	3304.115479
3912.307617	3415.927979
3911.594727	3341.666504
3910.882813	3344.639648
3910.169922	3361.647705
3909.458008	3350.582764
3908.745117	3336.013184
3908.032227	3454.727051
3907.319336	3296.367676
3906.606445	3302.850830
3905.893555	3361.916748
3905.179688	3224.678711
3904.466797	3171.593262
3903.752930	3307.738525
3903.039063	3328.228027
3902.326172	3359.219238
3901.612305	3330.661865
3900.898438	3274.099854
3900.183594	3308.585693
3899.469727	3357.062988
3898.755859	3272.523438
3898.041016	3383.980957
3897.326172	3344.949951
3896.612305	3323.422852
3895.897461	3305.400635
3895.182617	3304.870117
3894.467773	3360.286133
3893.751953	3359.746582
3893.037109	3208.899414
3892.322266	3257.313965
3891.606445	3228.835938
3890.890625	3273.737793
3890.174805	3500.276123
3889.458984	3433.352539
3888.743164	3247.716553
3888.027344	3317.027588
3887.311523	3396.789307
3886.594727	3350.867676
3885.878906	3462.007568
3885.162109	3321.877197
3884.445313	3415.541992
3883.729492	3306.858154
3883.012695	3330.741211
3882.294922	3284.874023
3881.578125	3368.024414
3880.861328	3283.819824
3880.143555	3248.438232
3879.426758	3244.432129
3878.708984	3344.957031
3877.991211	3271.260986
3877.273438	3263.769775
3876.555664	3301.555176
3875.837891	3363.702881
3875.120117	3404.941650
3874.401367	3400.914307
3873.683594	3302.916748
3872.964844	3410.262451
3872.246094	3423.632324
3871.527344	3346.550781
3870.808594	3398.186523
3870.089844	3362.864990
3869.371094	3348.416992
3868.652344	3316.591064
3867.932617	3364.722168
3867.213867	3339.854492
3866.494141	3377.541992
3865.774414	3345.731445
3865.054688	3293.088867
3864.334961	3209.204346
3863.615234	3118.401611
3862.894531	3263.727539
3862.174805	3270.146729
3861.454102	3398.046631
3860.734375	3380.149658
3860.013672	3313.680664
3859.292969	3257.640625
3858.572266	3323.023438
3857.851563	3232.318359
3857.130859	3276.878662
3856.409180	3293.687988
3855.688477	3296.625977
3854.966797	3368.881592
3854.245117	3233.191650
3853.523438	3305.434082
3852.802734	3280.653809
3852.080078	3484.486084
3851.358398	3335.011719
3850.636719	3331.014160
3849.914063	3295.859375
3849.192383	3361.098633
3848.469727	3315.567383
3847.747070	3187.001709
3847.024414	3169.191406
3846.301758	3279.379395
3845.579102	3420.660156
3844.856445	3371.697266
3844.133789	3191.361572
3843.410156	3329.131104
3842.686523	3380.444336
3841.963867	3252.032715
3841.240234	3292.975586
3840.516602	3392.637207
3839.792969	3243.559326
3839.068359	3395.002441
3838.344727	3283.956787
3837.621094	3407.723877
3836.896484	3362.300537
3836.171875	3268.570557
3835.448242	3340.516113
3834.723633	3250.270020
3833.999023	3208.350586
3833.273438	3238.879639
3832.548828	3310.783447
3831.824219	3182.669678
3831.098633	3478.655029
3830.373047	3191.989990
3829.648438	3367.250488
3828.922852	3328.804932
3828.197266	3242.135498
3827.471680	3313.957520
3826.745117	3382.312256
3826.019531	3371.438477
3825.292969	3364.011230
3824.567383	3384.127686
3823.840820	3232.132324
3823.114258	3355.509766
3822.387695	3324.002686
3821.661133	3285.624512
3820.934570	3240.378906
3820.208008	3332.721436
3819.480469	3266.849854
3818.753906	3438.237793
3818.026367	3286.428223
3817.298828	3378.703857
3816.571289	3347.232666
3815.843750	3168.022217
3815.116211	3335.852783
3814.388672	3273.489014
3813.660156	3321.045166
3812.932617	3396.056885
3812.204102	3237.581299
3811.475586	3319.447510
3810.748047	3466.498779
3810.019531	3345.835938
3809.290039	3403.627686
3808.561523	3310.457764
3807.833008	3303.066895
3807.103516	3227.089844
3806.375000	3449.449219
3805.645508	3284.336426
3804.916016	3379.787354
3804.186523	3290.137451
3803.457031	3351.290039
3802.727539	3347.326416
3801.998047	3288.554932
3801.267578	3284.602539
3800.538086	3308.047119
3799.807617	3338.332031
3799.077148	3330.949951
3798.346680	3340.684326
3797.616211	3353.837646
3796.885742	3401.204102
3796.155273	3321.971436
3795.423828	3290.653076
3794.693359	3375.627441
3793.961914	3426.379395
3793.230469	3343.774170
3792.500000	3408.188232
3791.768555	3356.373291
3791.036133	3372.921875
3790.304688	3454.384277
3789.573242	3501.657959
3788.840820	3490.849365
3788.109375	3473.213867
3787.376953	3284.853271
3786.644531	3362.850098
3785.912109	3362.310791
3785.179688	3464.160645
3784.447266	3378.294678
3783.714844	3312.927490
3782.981445	3278.282959
3782.249023	3444.885498
3781.515625	3423.871826
3780.782227	3327.851563
3780.048828	3381.864258
3779.315430	3517.665771
3778.582031	3448.940674
3777.848633	3291.642822
3777.114258	3362.661133
3776.380859	3491.565430
3775.646484	3375.206299
3774.912109	3388.286377
3774.177734	3520.529053
3773.443359	3468.901367
3772.708984	3260.720947
3771.974609	3355.485840
3771.240234	3433.207275
3770.504883	3432.656738
3769.770508	3381.083984
3769.035156	3404.348633
3768.299805	3328.993896
3767.564453	3365.858643
3766.829102	3429.906006
3766.093750	3412.362305
3765.357422	3530.752930
3764.622070	3401.075195
3763.885742	3420.912598
3763.150391	3512.072021
3762.414063	3433.399902
3761.677734	3364.939453
3760.941406	3374.584961
3760.205078	3394.410400
3759.467773	3475.319092
3758.731445	3420.468750
3757.994141	3402.956543
3757.257813	3510.962402
3756.520508	3384.906982
3755.783203	3499.663330
3755.045898	3390.603027
3754.308594	3329.038330
3753.571289	3504.759521
3752.833008	3433.029297
3752.095703	3429.090332
3751.357422	3455.643799
3750.619141	3519.449463
3749.880859	3468.083252
3749.142578	3349.008301
3748.404297	3575.314209
3747.666016	3432.563721
3746.927734	3350.782471
3746.188477	3560.058594
3745.450195	3366.625977
3744.710938	3423.597412
3743.971680	3456.873047
3743.232422	3503.665771
3742.493164	3526.773682
3741.753906	3451.830078
3741.013672	3495.220459
3740.274414	3487.900635
3739.534180	3548.167236
3738.794922	3446.238525
3738.054688	3506.492432
3737.314453	3418.113281
3736.574219	3451.335693
3735.833984	3420.393799
3735.092773	3402.965820
3734.352539	3500.307373
3733.611328	3418.749268
3732.871094	3462.067627
3732.129883	3501.998291
3731.388672	3545.289307
3730.647461	3514.366455
3729.906250	3426.126709
3729.165039	3557.071045
3728.422852	3566.614258
3727.681641	3505.372559
3726.939453	3535.140869
3726.197266	3541.313232
3725.455078	3520.531982
3724.712891	3432.389404
3723.970703	3549.714111
3723.228516	3532.308594
3722.486328	3518.275146
3721.743164	3494.147705
3721.000977	3426.273926
3720.257813	3422.359375
3719.514648	3613.593750
3718.771484	3599.558350
3718.028320	3662.888428
3717.285156	3571.500488
3716.541016	3678.526611
3715.797852	3469.498291
3715.053711	3532.808350
3714.310547	3565.850342
3713.566406	3645.926025
3712.822266	3621.823486
3712.078125	3564.136230
3711.333008	3543.412842
3710.588867	3586.500732
3709.844727	3559.064941
3709.099609	3558.494629
3708.354492	3541.141602
3707.610352	3782.205566
3706.865234	3677.580322
3706.120117	3415.307129
3705.374023	3777.032959
3704.628906	3843.504395
3703.883789	3698.696289
3703.137695	3667.928467
3702.391602	3761.203125
3701.646484	3666.752686
3700.900391	3652.760498
3700.154297	3638.772461
3699.408203	3782.242920
3698.661133	3815.132080
3697.915039	3807.822754
3697.167969	3726.849121
3696.421875	3726.251709
3695.674805	3665.401367
3694.927734	3768.566650
3694.180664	3801.425781
3693.433594	3784.087646
3692.686523	3783.481201
3691.938477	3802.943115
3691.191406	3748.826660
3690.443359	3932.126465
3689.695313	3747.625244
3688.947266	3757.052246
3688.199219	3843.343018
3687.451172	3876.142090
3686.703125	3815.383545
3685.955078	3764.665527
3685.206055	3877.618652
3684.458008	3810.209961
3683.708984	3829.632324
3682.959961	3962.550293
3682.210938	3868.458008
3681.461914	3841.140381
3680.712891	3933.951904
3679.962891	4026.733643
3679.213867	3959.375977
3678.463867	3908.715088
3677.714844	4011.459717
3676.964844	3947.470703
3676.214844	4060.176270
3675.464844	3966.203125
3674.713867	3982.229492
3673.963867	4058.224365
3673.213867	4200.821777
3672.462891	4213.471680
3671.711914	4039.622314
3670.961914	4062.282959
3670.210938	4224.763184
3669.459961	4224.085938
3668.708008	4250.034180
3667.957031	4119.576660
3667.206055	4082.318604
3666.454102	4178.133789
3665.702148	4234.006348
3664.950195	4236.653320
3664.199219	4136.226074
3663.446289	4128.914551
3662.694336	4277.827148
3661.942383	4410.075195
3661.190430	4210.000000
3660.437500	4418.628906
3659.684570	4384.703125
3658.932617	4350.788574
3658.179688	4446.391113
3657.426758	4435.717773
3656.672852	4435.006836
3655.919922	4590.293457
3655.166992	4509.912598
3654.413086	4545.687988
3653.659180	4544.959473
3652.906250	4610.570313
3652.152344	4530.237305
3651.398438	4529.511230
3650.644531	4595.092285
3649.889648	4541.318848
3649.135742	4663.220215
3648.380859	4649.217773
3647.626953	4843.953613
3646.872070	4783.548828
3646.117188	4789.406738
3645.362305	4762.145996
3644.607422	4758.071777
3643.851563	4879.800781
3643.096680	4849.228027
3642.341797	4788.879883
3641.585938	5032.977539
3640.830078	4959.385254
3640.074219	4879.199707
3639.318359	4967.717773
3638.562500	4900.784180
3637.806641	5058.703613
3637.049805	5097.562500
3636.293945	5126.493164
3635.537109	5125.671387
3634.780273	5240.498047
3634.024414	5342.072754
3633.267578	5149.633301
3632.509766	5244.584473
3631.752930	5088.544922
3630.996094	5315.538086
3630.238281	5179.343262
3629.481445	5261.026367
3628.723633	5299.783203
3627.965820	5302.233398
3627.208008	5222.209473
3626.450195	5409.381348
3625.692383	5438.195313
3624.933594	5417.540039
3624.175781	5555.138184
3623.416992	5597.099609
3622.658203	5461.076660
3621.899414	5305.325195
3621.140625	5703.134766
3620.381836	5593.512695
3619.623047	5569.561035
3618.864258	5598.306641
3618.104492	5534.850098
3617.345703	5530.670898
3616.585938	5710.819336
3615.826172	5584.845703
3615.066406	5778.089355
3614.306641	5872.572266
3613.546875	5779.526855
3612.786133	5732.556152
3612.026367	5652.716797
3611.265625	5872.096680
3610.504883	5844.856934
3609.744141	5794.618652
3608.983398	5760.827148
3608.222656	5809.190430
3607.461914	5903.530273
3606.701172	5922.292480
3605.939453	6046.141602
3605.178711	5874.423828
3604.416992	5804.537109
3603.655273	5862.693359
3602.893555	6065.241211
3602.131836	5923.163574
3601.370117	5899.247559
3600.607422	5842.534180
3599.845703	5959.675781
3599.083008	5929.206055
3598.320313	6039.738770
3597.557617	5953.533203
3596.794922	6070.581543
3596.032227	6000.785156
3595.269531	6107.957520
3594.506836	6182.333496
3593.743164	6001.176270
3592.980469	6101.746582
3592.216797	6126.966309
3591.453125	6256.951660
3590.689453	6082.445313
3589.925781	6035.646973
3589.162109	6188.492188
3588.397461	6046.800781
3587.633789	6225.767578
3586.869141	6021.965820
3586.104492	6096.222656
3585.339844	6304.524414
3584.575195	6081.190918
3583.810547	6129.250488
3583.045898	6053.094727
3582.281250	6228.590820
3581.515625	6132.838867
3580.750977	6177.591797
3579.985352	6078.612305
3579.219727	6136.422852
3578.454102	6207.275391
3577.688477	6238.927734
3576.921875	6061.660156
3576.156250	6116.171387
3575.390625	6017.296387
3574.624023	6244.717773
3573.857422	6145.853027
3573.090820	6206.838379
3572.324219	6199.321777
3571.557617	6283.103027
3570.791016	6203.854980
3570.023438	6147.449219
3569.256836	6270.305664
3568.489258	6259.525391
3567.722656	6219.426758
3566.955078	6247.747070
3566.187500	6285.828613
3565.418945	6307.616211
3564.651367	6176.370605
3563.883789	6142.827637
3563.115234	6109.294922
3562.347656	6176.656250
3561.579102	6286.294922
3560.810547	6373.125000
3560.041992	6372.104004
3559.273438	6374.334961
3558.503906	6298.524414
3557.735352	6229.240723
3556.966797	6254.247559
3556.197266	6298.747070
3555.427734	6167.753418
3554.658203	6478.677246
3553.888672	6191.765137
3553.119141	6197.269043
3552.349609	6180.038086
3551.579102	6347.892090
3550.809570	6242.987305
3550.039063	6407.530762
3549.268555	6279.931641
3548.498047	6301.639648
3547.727539	6060.543945
3546.957031	6312.595703
3546.186523	6418.614746
3545.415039	6235.986816
3544.644531	6341.984375
3543.873047	6389.595215
3543.101563	6362.640625
3542.330078	6306.527832
3541.558594	6263.394043
3540.787109	6327.185059
3540.015625	6348.845215
3539.243164	6221.519043
3538.471680	6388.906738
3537.699219	6365.219238
3536.926758	6195.868164
3536.154297	6175.455566
3535.381836	6210.062988
3534.609375	6222.010254
3533.836914	6331.004883
3533.063477	6135.917969
3532.291016	6212.550781
3531.517578	6415.266113
3530.744141	6178.229980
3529.970703	6526.346191
3529.197266	6360.470703
3528.423828	6230.194336
3527.649414	6306.737793
3526.875977	6270.192383
3526.101563	5984.958496
3525.328125	6197.137207
3524.553711	6144.482422
3523.779297	6295.229004
3523.004883	6219.980469
3522.229492	6283.529297
3521.455078	6259.934570
3520.680664	6310.551270
3519.905273	6135.350586
3519.129883	6185.970703
3518.354492	6072.114746
3517.579102	6151.746094
3516.803711	6128.194336
3516.028320	6227.129883
3515.252930	6235.799805
3514.476563	6267.021484
3513.700195	6063.056152
3512.924805	6181.264648
3512.148438	6115.862305
3511.372070	6166.402832
3510.595703	6043.072266
3509.818359	6174.083496
3509.041992	6070.102051
3508.264648	6114.180664
3507.488281	6077.808594
3506.710938	6092.919434
3505.933594	6017.964355
3505.156250	6287.137695
3504.378906	6302.207031
3503.601563	6037.575684
3502.823242	6071.966309
3502.045898	6042.067871
3501.267578	5983.259277
3500.489258	6258.604004
3499.710938	6180.505371
3498.932617	6047.830566
3498.154297	6046.861328
3497.375977	6100.475586
3496.596680	5919.722656
3495.818359	6098.520020
3495.039063	6110.379395
3494.259766	5900.833008
3493.480469	5941.594238
3492.701172	5882.903320
3491.921875	5965.346680
3491.142578	6079.830566
3490.362305	6040.382324
3489.582031	5956.067383
3488.802734	6032.035645
3488.022461	6120.797852
3487.242188	5930.775391
3486.461914	5750.424316
3485.681641	6018.560059
3484.900391	5991.975098
3484.120117	5936.579590
3483.338867	5868.395996
3482.557617	6193.958496
3481.777344	5988.133789
3480.996094	5932.774414
3480.213867	6027.807617
3479.432617	5850.898438
3478.651367	5760.403809
3477.869141	5893.793945
3477.087891	5736.175293
3476.305664	5914.282715
3475.523438	5779.086426
3474.741211	5813.314453
3473.958984	5988.128418
3473.175781	5888.127441
3472.393555	5705.105957
3471.610352	5879.852539
3470.828125	5792.689941
3470.044922	5932.245117
3469.261719	5806.794434
3468.478516	5840.973633
3467.695313	5750.681152
3466.911133	5791.239258
3466.127930	6023.199707
3465.343750	5897.833984
3464.560547	5801.211914
3463.776367	5892.754395
3462.992188	5843.986816
3462.208008	5632.662109
3461.423828	5762.433594
3460.638672	5790.189941
3459.854492	5833.868164
3459.069336	5890.274414
3458.285156	5870.219238
3457.500000	5996.663574
3456.714844	5820.575684
3455.929688	5864.212891
3455.143555	5735.948730
3454.358398	5789.133301
3453.572266	5559.095703
3452.787109	5526.388672
3452.000977	5710.003906
3451.214844	5613.672363
3450.428711	5609.592285
3449.642578	5688.181152
3448.856445	5795.355957
3448.069336	5689.536133
3447.283203	5685.445801
3446.496094	5856.119141
3445.708984	5715.392578
3444.921875	5536.593750
3444.134766	5605.577637
3443.347656	5703.118164
3442.560547	5591.080566
3441.772461	5637.800781
3440.985352	5646.418457
3440.197266	5521.750000
3439.409180	5612.878906
3438.621094	5605.634277
3437.833008	5677.688965
3437.044922	5581.637207
3436.256836	5707.577637
3435.467773	5719.343750
3434.679688	5636.010742
3433.890625	5543.195801
3433.101563	5393.371094
3432.312500	5585.774902
3431.523438	5689.417480
3430.734375	5580.816406
3429.944336	5510.251953
3429.155273	5512.534668
3428.365234	5587.629883
3427.575195	5656.370605
3426.785156	5614.321289
3425.995117	5471.028809
3425.205078	5406.876465
3424.415039	5516.723633
3423.624023	5525.327148
3422.833984	5420.086914
3422.042969	5574.143066
3421.251953	5551.120605
3420.460938	5584.998535
3419.669922	5454.534180
3418.878906	5453.659668
3418.087891	5471.740234
3417.295898	5546.671875
3416.504883	5346.816406
3415.712891	5497.527832
3414.920898	5414.559570
3414.128906	5325.304688
3413.336914	5466.478027
3412.544922	5282.573242
3411.752930	5354.294922
3410.959961	5337.663086
3410.166992	5425.123047
3409.375000	5417.945801
3408.582031	5360.320801
3407.789063	5498.176758
3406.996094	5219.908691
3406.202148	5105.613281
3405.409180	5252.896484
3404.615234	5324.518066
3403.822266	5213.411133
3403.028320	5329.109863
3402.234375	5183.396973
3401.440430	5258.131836
3400.646484	5361.175293
3399.851563	5319.396973
3399.057617	5205.249512
3398.262695	5191.828613
3397.468750	5124.928711
3396.673828	5180.727051
3395.878906	5208.201660
3395.083984	5248.245117
3394.288086	5187.666992
3393.493164	5208.839844
3392.698242	5255.149902
3391.902344	5097.180664
3391.106445	5174.913574
3390.310547	5117.536621
3389.514648	5129.279785
3388.718750	5144.159668
3387.922852	5045.994141
3387.125977	5139.370117
3386.330078	5160.519043
3385.533203	4968.243164
3384.736328	5039.620117
3383.939453	5060.774414
3383.142578	5169.757324
3382.345703	5203.429199
3381.548828	4998.755859
3380.750977	5264.469727
3379.954102	5119.416504
3379.156250	5084.116211
3378.358398	5073.898926
3377.560547	5120.087402
3376.762695	5141.196777
3375.964844	4949.291992
3375.166016	5076.908203
3374.368164	5173.169434
3373.569336	5094.065430
3372.771484	4955.508789
3371.972656	5011.052734
3371.173828	5110.391602
3370.374023	4959.382324
3369.575195	4961.715332
3368.776367	4854.569336
3367.976563	5075.838867
3367.176758	5006.231934
3366.377930	4961.659180
3365.578125	4929.603516
3364.778320	4894.433105
3363.977539	4928.022461
3363.177734	5089.702637
3362.377930	4867.086914
3361.577148	5009.983887
3360.776367	4962.336426
3359.975586	5164.498047
3359.174805	4926.403320
3358.374023	5062.955566
3357.573242	4971.636719
3356.772461	4808.577148
3355.970703	4995.000977
3355.168945	4966.125000
3354.368164	4753.241211
3353.566406	4948.939453
3352.764648	4966.853027
3351.961914	4869.416504
3351.160156	4737.724121
3350.358398	4908.367676
3349.555664	4926.275879
3348.752930	4884.984863
3347.950195	4877.971191
3347.147461	5004.880371
3346.344727	4779.874512
3345.541992	4881.851074
3344.739258	4728.534180
3343.935547	4926.971191
3343.132813	4891.949219
3342.329102	4822.712891
3341.525391	4809.495605
3340.721680	4945.583008
3339.917969	4910.580078
3339.113281	4832.056641
3338.309570	4877.915039
3337.504883	4902.000000
3336.701172	4926.077148
3335.896484	4856.923340
3335.091797	4924.496582
3334.287109	4939.238770
3333.482422	4721.030273
3332.676758	4754.432617
3331.872070	4716.410645
3331.066406	4625.624512
3330.260742	4792.495605
3329.455078	4791.726563
3328.649414	4812.678711
3327.843750	4709.525391
3327.038086	4910.396973
3326.232422	4680.101074
3325.425781	4701.056641
3324.619141	4644.494141
3323.812500	4773.947266
3323.006836	4695.694824
3322.199219	4704.238281
3321.392578	4827.422363
3320.585938	4702.728516
3319.778320	4801.093262
3318.971680	4704.316406
3318.164063	4554.930176
3317.356445	4789.494141
3316.548828	4674.192383
3315.741211	4784.862305
3314.933594	4799.566895
3314.125000	4538.900391
3313.317383	4736.156250
3312.508789	4704.466309
3311.700195	4530.530762
3310.891602	4634.932129
3310.083008	4696.018555
3309.274414	4655.082031
3308.465820	4604.886230
3307.656250	4591.787109
3306.847656	4665.199219
3306.038086	4500.731445
3305.228516	4679.144531
3304.418945	4733.978516
3303.609375	4659.117188
3302.799805	4618.237793
3301.989258	4744.045898
3301.179688	4715.509766
3300.369141	4677.726074
3299.558594	4528.891602
3298.748047	4565.179688
3297.937500	4715.567383
3297.126953	4653.138672
3296.316406	4655.475098
3295.504883	4602.323242
3294.694336	4558.435059
3293.882813	4573.111816
3293.071289	4600.107910
3292.259766	4537.756836
3291.448242	4496.986816
3290.636719	4557.857910
3289.824219	4587.917480
3289.012695	4670.304688
3288.200195	4601.835449
3287.387695	4579.553223
3286.575195	4514.197754
3285.762695	4608.850098
3284.950195	4552.738770
3284.137695	4385.921387
3283.324219	4661.984375
3282.511719	4667.385254
3281.698242	4626.671387
3280.884766	4573.675781
3280.071289	4416.207520
3279.257813	4480.025879
3278.444336	4553.040039
3277.629883	4466.300293
3276.816406	4576.148438
3276.001953	4431.088379
3275.187500	4565.468262
3274.373047	4595.433105
3273.558594	4524.102051
3272.744141	4643.058105
3271.929688	4719.019531
3271.114258	4472.838867
3270.299805	4383.168945
3269.484375	4495.937012
3268.668945	4630.133301
3267.853516	4479.164551
3267.038086	4533.621582
3266.221680	4658.551758
3265.406250	4409.591797
3264.590820	4562.076660
3263.774414	4463.316406
3262.958008	4609.617676
3262.141602	4385.324219
3261.325195	4491.786133
3260.508789	4448.205078
3259.691406	4352.603027
3258.875000	4446.776855
3258.057617	4559.279785
3257.241211	4430.051758
3256.423828	4548.639160
3255.606445	4404.161621
3254.788086	4424.860352
3253.970703	4564.792969
3253.153320	4554.889160
3252.334961	4447.181152
3251.516602	4541.202637
3250.699219	4497.696289
3249.880859	4420.599121
3249.062500	4560.396973
3248.243164	4544.394531
3247.424805	4390.987793
3246.605469	4500.192383
3245.787109	4462.838867
3244.967773	4486.539063
3244.148438	4552.953125
3243.329102	4421.025391
3242.509766	4557.592285
3241.690430	4459.256836
3240.870117	4638.468262
3240.050781	4405.989258
3239.230469	4481.498047
3238.410156	4569.174316
3237.589844	4388.628906
3236.769531	4342.216309
3235.949219	4493.853027
3235.127930	4447.438477
3234.307617	4422.358398
3233.486328	4360.744141
3232.665039	4490.966797
3231.843750	4468.935547
3231.022461	4446.911621
3230.201172	4400.548828
3229.379883	4433.312500
3228.557617	4563.418457
3227.736328	4425.804688
3226.914063	4403.804688
3226.091797	4491.280762
3225.269531	4365.906250
3224.447266	4416.882324
3223.625000	4349.307129
3222.801758	4527.901367
3221.979492	4393.485352
3221.156250	4471.764648
3220.333008	4434.597656
3219.509766	4452.106934
3218.686523	4515.156738
3217.863281	4487.107910
3217.039063	4398.359375
3216.215820	4355.163086
3215.391602	4409.083984
3214.567383	4247.574707
3213.744141	4519.906738
3212.918945	4437.289551
3212.094727	4445.674316
3211.270508	4360.062988
3210.446289	4277.511230
3209.621094	4401.097168
3208.795898	4318.564941
3207.970703	4405.743164
3207.145508	4477.746094
3206.320313	4261.959473
3205.495117	4349.104980
3204.669922	4309.040527
3203.843750	4477.896484
3203.017578	4359.117676
3202.192383	4367.497559
3201.366211	4493.895996
3200.539063	4547.636719
3199.712891	4341.190918
3198.886719	4425.186035
3198.059570	4424.475098
3197.233398	4432.835449
3196.406250	4486.541992
3195.579102	4298.408203
3194.751953	4270.516602
3193.924805	4436.030762
3193.097656	4356.763184
3192.269531	4325.854492
3191.442383	4358.383301
3190.614258	4375.802246
3189.786133	4381.138184
3188.958008	4558.549316
3188.129883	4376.711426
3187.301758	4270.380371
3186.472656	4354.183105
3185.644531	4284.092773
3184.815430	4334.684570
3183.986328	4358.116211
3183.157227	4420.741699
3182.328125	4371.790527
3181.499023	4283.666504
3180.669922	4282.978027
3179.839844	4378.724121
3179.010742	4420.203613
3178.180664	4416.480469
3177.350586	4292.273926
3176.520508	4445.177246
3175.690430	4399.295898
3174.859375	4395.578125
3174.029297	4262.423340
3173.198242	4243.680176
3172.368164	4336.283691
3171.537109	4374.700195
3170.706055	4331.881836
3169.875000	4150.719238
3169.042969	4348.532715
3168.211914	4308.745605
3167.379883	4271.977051
3166.548828	4283.313965
3165.716797	4396.828613
3164.884766	4137.703125
3164.052734	4347.345215
3163.220703	4310.599609
3162.387695	4312.910156
3161.555664	4375.278320
3160.722656	4221.449707
3159.889648	4223.773438
3159.056641	4205.085449
3158.223633	4339.454590
3157.390625	4194.731934
3156.557617	4296.059082
3155.723633	4232.377441
3154.890625	4372.653809
3154.056641	4243.011230
3153.222656	4248.325195
3152.388672	4214.668457
3151.554688	4121.079102
3150.720703	4183.346680
3149.885742	4296.529297
3149.051758	4107.108887
3148.216797	4393.990234
3147.381836	4315.420410
3146.546875	4359.640625
3145.711914	4236.194824
3144.876953	4253.473145
3144.041992	4282.717285
3143.206055	4123.435059
3142.370117	4221.503418
3141.535156	4247.747070
3140.699219	4327.817871
3139.863281	4198.534668
3139.026367	4305.496582
3138.190430	4265.941895
3137.354492	4316.068359
3136.517578	4228.708008
3135.680664	4192.171875
3134.843750	3970.420898
3134.006836	4169.914551
3133.169922	4127.432129
3132.333008	4329.821777
3131.495117	4170.888672
3130.658203	4116.485840
3129.820313	4217.301758
3128.982422	4195.734375
3128.144531	4168.206543
3127.306641	4188.418457
3126.468750	4059.487793
3125.629883	4026.030273
3124.791992	4219.197266
3123.953125	4158.893066
3123.114258	4164.186035
3122.275391	4121.791504
3121.436523	4207.543945
3120.597656	4215.805664
3119.758789	4092.993164
3118.918945	4131.054199
3118.079102	4079.764893
3117.240234	4141.635254
3116.400391	4075.475586
3115.560547	4089.702393
3114.719727	4115.828613
3113.879883	4195.506348
3113.040039	4301.933594
3112.199219	4122.766602
3111.358398	4110.207031
3110.517578	4073.862549
3109.676758	4028.609863
3108.835938	4194.431152
3107.995117	4080.813232
3107.153320	4148.506348
3106.312500	4269.659180
3105.470703	4176.878906
3104.628906	3995.020264
3103.787109	4083.471680
3102.945313	4171.894043
3102.103516	4138.565918
3101.260742	3983.544922
3100.418945	4131.298340
3099.576172	3946.654541
3098.733398	4159.638672
3097.890625	4150.069824
3097.047852	4155.334473
3096.205078	3970.804688
3095.361328	3982.025879
3094.518555	4073.286133
3093.674805	3986.672852
3092.831055	4080.866211
3091.987305	4029.836670
3091.143555	4174.357422
3090.299805	3951.523682
3089.456055	4096.010254
3088.611328	4027.243652
3087.766602	4130.221191
3086.922852	3898.656494
3086.078125	4179.208496
3085.233398	4051.285645
3084.387695	4044.716064
3083.542969	4079.565430
3082.698242	4114.403320
3081.852539	4013.189697
3081.006836	4225.442383
3080.161133	3949.812744
3079.315430	4005.340576
3078.469727	4004.696045
3077.624023	4086.791992
3076.777344	4062.498047
3075.931641	4126.833496
3075.084961	3966.675537
3074.238281	4057.583740
3073.391602	4036.262207
3072.544922	4017.899658
3071.698242	4046.769775
3070.850586	4010.703857
3070.003906	3998.255371
3069.156250	3971.059326
3068.308594	4038.265381
3067.460938	3981.578369
3066.613281	4004.528320
3065.765625	3933.122803
3064.916992	4147.686035
3064.069336	3955.436035
3063.220703	4137.509766
3062.372070	4139.790527
3061.523438	4044.852051
3060.674805	3997.072510
3059.826172	4102.450684
3058.976563	4025.231445
3058.127930	4074.633301
3057.278320	3973.894043
3056.428711	4067.435059
3055.579102	3981.442627
3054.729492	3974.917236
3053.879883	3912.500977
3053.030273	3844.222168
3052.179688	3908.300537
3051.330078	4025.283691
3050.479492	4256.882813
3049.628906	3976.957764
3048.778320	4032.156494
3047.926758	4055.014404
3047.076172	4136.624023
3046.225586	4036.083984
3045.374023	3909.143311
3044.522461	3923.196289
3043.670898	3869.715820
3042.819336	4010.000488
3041.967773	4029.900391
3041.116211	4049.793945
3040.263672	4040.339355
3039.412109	3981.014893
3038.559570	4018.505615
3037.707031	3973.867432
3036.854492	3987.888916
3036.001953	3984.314941
3035.148438	3857.626221
3034.295898	3877.520996
3033.442383	4079.092773
3032.589844	3975.889160
3031.736328	4004.543213
3030.882813	3998.040283
3030.028320	3903.684570
3029.174805	3809.359131
3028.321289	3960.978271
3027.466797	3898.871582
3026.612305	3933.363037
3025.758789	3964.916992
3024.904297	3952.575684
3024.048828	3946.088623
3023.194336	3945.452881
3022.339844	4009.151123
3021.484375	3952.953369
3020.628906	3955.239990
3019.773438	3881.531982
3018.917969	3857.527588
3018.062500	3932.875732
3017.207031	3777.406494
3016.351563	3817.691406
3015.495117	3954.339111
3014.638672	3831.061523
3013.782227	3920.950195
3012.925781	3888.208740
3012.069336	3835.047363
3011.212891	3793.575684
3010.356445	3854.235596
3009.499023	3742.761230
3008.641602	4065.914795
3007.785156	3983.604492
3006.927734	3875.078613
3006.069336	3842.385742
3005.211914	3882.574463
3004.354492	3975.208984
3003.496094	3942.515625
3002.638672	3936.053467
3001.780273	4016.982422
3000.921875	3771.685303
3000.063477	3823.493896
2999.204102	3927.694092
2998.345703	4049.326904
2997.486328	3879.858398
2996.627930	3826.850342
2995.768555	3744.762695
2994.909180	3843.072510
2994.049805	3871.540527
2993.190430	3958.165039
2992.330078	3974.974121
2991.470703	3916.186523
2990.610352	3883.579834
2989.750000	3862.609131
2988.889648	3745.749268
2988.029297	3922.379150
2987.168945	3959.511963
2986.308594	3822.360840
2985.447266	3839.169189
2984.585938	3882.104248
2983.725586	3852.447266
2982.864258	3985.348633
2982.002930	3920.858154
2981.140625	3931.833008
2980.279297	3725.210205
2979.416992	3901.557861
2978.555664	3805.218262
2977.693359	4019.194092
2976.831055	3734.406494
2975.968750	3957.020996
2975.106445	3930.297119
2974.243164	3877.500000
2973.380859	3772.564209
2972.517578	3942.882080
2971.654297	3890.107910
2970.791016	3825.766357
2969.927734	3909.123291
2969.064453	3931.654541
2968.201172	3939.704834
2967.336914	3910.127197
2966.473633	3932.646973
2965.609375	3755.520752
2964.745117	3867.736328
2963.880859	3881.574707
2963.016602	3831.786133
2962.151367	3880.322998
2961.287109	3801.640869
2960.421875	3957.115723
2959.556641	3904.456787
2958.691406	3846.035645
2957.826172	3845.415283
2956.960938	3769.690430
2956.095703	3904.827148
2955.229492	3872.432617
2954.363281	3949.764160
2953.498047	3787.467041
2952.631836	3934.058594
2951.765625	3794.903076
2950.898438	3794.291016
2950.032227	3874.457031
2949.165039	3945.943848
2948.298828	3809.759521
2947.431641	3846.631104
2946.564453	3791.232422
2945.697266	3928.985840
2944.830078	3833.241699
2943.961914	3875.848389
2943.094727	3834.886475
2942.226563	3874.598389
2941.358398	3810.607178
2940.490234	3905.026367
2939.622070	3826.654053
2938.753906	3751.186035
2937.885742	3917.529297
2937.016602	3778.755371
2936.148438	3835.695557
2935.279297	3875.355225
2934.410156	3791.309814
2933.541016	3839.591797
2932.670898	3870.604492
2931.801758	3861.354492
2930.932617	3803.237549
2930.062500	3931.964844
2929.192383	3839.369629
2928.322266	3939.316162
2927.452148	3875.478027
2926.582031	3880.597412
2925.710938	3836.892578
2924.840820	3885.088379
2923.969727	3821.299561
2923.098633	3791.977539
2922.227539	3880.337891
2921.356445	3873.972656
2920.485352	3795.880615
2919.614258	3732.157227
2918.742188	3786.051025
2917.870117	3779.704590
2916.999023	3870.848145
2916.126953	3804.286377
2915.253906	3803.672607
2914.381836	3957.817627
2913.509766	3894.139160
2912.636719	3830.481201
2911.764648	3890.017822
2910.891602	3737.595215
2910.018555	3931.716309
2909.145508	3953.986816
2908.271484	3904.683350
2907.398438	3924.088623
2906.524414	3963.519775
2905.651367	3845.567383
2904.777344	3859.250732
2903.903320	3990.204590
2903.029297	3912.343262
2902.154297	3911.711670
2901.280273	3896.785400
2900.405273	3838.986084
2899.531250	3741.192627
2898.656250	3780.594971
2897.781250	3814.270264
2896.906250	3876.501465
2896.030273	3815.895264
2895.155273	3880.961426
2894.279297	3926.019531
2893.404297	3768.370361
2892.528320	3747.781494
2891.652344	3829.939453
2890.776367	3760.838623
2889.899414	3851.526855
2889.023438	3882.282715
2888.146484	3744.757080
2887.270508	3738.449219
2886.393555	3851.891357
2885.516602	3720.138184
2884.638672	3750.889893
2883.761719	3850.025879
2882.884766	3826.609863
2882.006836	3817.445313
2881.128906	3768.406494
2880.250977	3799.125000
2879.373047	3750.104736
2878.495117	3846.297363
2877.617188	3683.423340
2876.738281	3739.750244
2875.860352	3739.146240
2874.981445	3701.555176
2874.102539	3811.900879
2873.223633	3765.777344
2872.344727	3634.355225
2871.464844	3801.524414
2870.585938	3658.767090
2869.706055	3683.757813
2868.826172	3819.576416
2867.947266	3844.532959
2867.066406	3735.952881
2866.186523	3726.827637
2865.306641	3783.028076
2864.425781	3648.953369
2863.545898	3693.791016
2862.665039	3755.646484
2861.784180	3703.950928
2860.903320	3709.028076
2860.022461	3756.664063
2859.140625	3506.409912
2858.259766	3746.941162
2857.377930	3723.647949
2856.496094	3774.085938
2855.614258	3713.939697
2854.732422	3676.489990
2853.850586	3718.408203
2852.967773	3706.472656
2852.085938	3677.541504
2851.203125	3790.258545
2850.320313	3633.868408
2849.437500	3616.290039
2848.554688	3666.671143
2847.671875	3722.697754
2846.788086	3716.435303
2845.905273	3746.965088
2845.021484	3735.041260
2844.137695	3748.583496
2843.253906	3671.603760
2842.370117	3614.446289
2841.486328	3676.072754
2840.601563	3579.350830
2839.717773	3624.001709
2838.833008	3711.033691
2837.948242	3738.693359
2837.063477	3704.183594
2836.178711	3757.260010
2835.292969	3626.723389
2834.408203	3617.665039
2833.522461	3783.675049
2832.636719	3636.258057
2831.750977	3768.338379
2830.865234	3694.350342
2829.979492	3645.782471
2829.093750	3549.267090
2828.207031	3543.051514
2827.321289	3722.987305
2826.434570	3694.185547
2825.547852	3823.286865
2824.661133	3678.895996
2823.774414	3740.311035
2822.886719	3863.705566
2822.000000	3668.658936
2821.112305	3710.324707
2820.224609	3656.205811
2819.336914	3695.043457
2818.449219	3691.630371
2817.561523	3750.157471
2816.672852	3634.137207
2815.785156	3611.033447
2814.896484	3616.077637
2814.007813	3615.492920
2813.119141	3747.126953
2812.230469	3749.333740
2811.341797	3720.604980
2810.452148	3809.980713
2809.563477	3699.722412
2808.673828	3642.906494
2807.784180	3659.180176
2806.894531	3605.198975
2806.004883	3584.949219
2805.114258	3702.350342
2804.224609	3727.029053
2803.333984	3608.483643
2802.444336	3534.899902
2801.553711	3598.895020
2800.663086	3603.926514
2799.771484	3555.635742
2798.880859	3737.443604
2797.989258	3677.924805
2797.098633	3828.799072
2796.207031	3665.517090
2795.315430	3636.883545
2794.423828	3655.920654
2793.532227	3711.392578
2792.639648	3542.629639
2791.748047	3704.587646
2790.855469	3661.961182
2789.962891	3630.553955
2789.070313	3798.020752
2788.177734	3643.381592
2787.285156	3620.392334
2786.391602	3586.212158
2785.499023	3719.988281
2784.605469	3724.983643
2783.711914	3648.830078
2782.818359	3704.194336
2781.924805	3630.865967
2781.031250	3725.370605
2780.136719	3707.989502
2779.243164	3657.062988
2778.348633	3622.925781
2777.454102	3725.755127
2776.559570	3646.904541
2775.665039	3623.961426
2774.769531	3771.438965
2773.875000	3589.270264
2772.979492	3750.669189
2772.083984	3618.824219
2771.188477	3810.876221
2770.292969	3665.106689
2769.397461	3714.750732
2768.501953	3702.987549
2767.605469	3663.327637
2766.708984	3640.417969
2765.812500	3670.509521
2764.916016	3714.534424
2764.019531	3677.686035
2763.123047	3476.370361
2762.226563	3648.622314
2761.329102	3726.064697
2760.431641	3583.353516
2759.534180	3733.216553
2758.636719	3718.684570
2757.739258	3567.688232
2756.841797	3784.311768
2755.943359	3758.641602
2755.045898	3777.519287
2754.147461	3815.873779
2753.249023	3720.639893
2752.350586	3692.213867
2751.452148	3599.812500
2750.552734	3685.455322
2749.654297	3743.260254
2748.754883	3664.798096
2747.855469	3789.310547
2746.956055	3769.239258
2746.056641	3660.239258
2745.157227	3667.982910
2744.257813	3514.581055
2743.357422	3705.685303
2742.457031	3677.311035
2741.556641	3743.363037
2740.656250	3648.354980
2739.755859	3625.555664
2738.855469	3616.641602
2737.954102	3771.466064
2737.053711	3568.300049
2736.152344	3673.144775
2735.250977	3705.835938
2734.349609	3696.915527
2733.448242	3610.355957
2732.545898	3740.077881
2731.644531	3670.171387
2730.742188	3705.607666
2729.840820	3685.609375
2728.938477	3604.662598
2728.035156	3698.266846
2727.132813	3633.962646
2726.230469	3674.914063
2725.327148	3652.167725
2724.424805	3596.207275
2723.521484	3581.784912
2722.618164	3650.393311
2721.713867	3619.363770
2720.810547	3699.010254
2719.907227	3537.971436
2719.002930	3661.857178
2718.098633	3664.029297
2717.194336	3691.084229
2716.290039	3613.082764
2715.385742	3695.416260
2714.481445	3622.966064
2713.576172	3542.250244
2712.671875	3737.822266
2711.766602	3585.297119
2710.861328	3587.478027
2709.956055	3537.193848
2709.050781	3608.402100
2708.144531	3665.785400
2707.239258	3662.431396
2706.333008	3526.623047
2705.426758	3606.063721
2704.520508	3583.410645
2703.614258	3549.732178
2702.708008	3582.249268
2701.800781	3678.172607
2700.893555	3658.278809
2699.987305	3550.187988
2699.080078	3571.659912
2698.172852	3455.351563
2697.264648	3551.217041
2696.357422	3613.996582
2695.450195	3657.476807
2694.541992	3502.678223
2693.633789	3540.655518
2692.725586	3644.687500
2691.817383	3558.774170
2690.909180	3750.829834
2690.000000	3585.135010
2689.091797	3656.079834
2688.182617	3633.482666
2687.273438	3588.891846
2686.364258	3478.323486
2685.455078	3639.963379
2684.545898	3609.136963
2683.635742	3539.843506
2682.726563	3393.632080
2681.816406	3546.938232
2680.906250	3540.869141
2679.996094	3655.649902
2679.085938	3542.467041
2678.174805	3651.718750
2677.264648	3593.477295
2676.353516	3658.768799
2675.442383	3649.942627
2674.531250	3558.802979
2673.620117	3544.508789
2672.708984	3612.508545
2671.796875	3765.504883
2670.885742	3575.689697
2669.973633	3638.167725
2669.061523	3473.105469
2668.149414	3700.025146
2667.237305	3718.607178
2666.324219	3559.091797
2665.412109	3605.084717
2664.499023	3667.496582
2663.585938	3475.204102
2662.672852	3573.211670
2661.759766	3600.008545
2660.846680	3621.322266
2659.933594	3519.474609
2659.019531	3603.729492
2658.105469	3605.880859
2657.192383	3498.614258
2656.278320	3604.710938
2655.363281	3658.817139
2654.449219	3625.414307
2653.535156	3613.891602
2652.620117	3484.844238
2651.705078	3514.339355
2650.790039	3505.572266
2649.875000	3474.952637
2648.959961	3496.240479
2648.044922	3539.369141
2647.128906	3577.022461
2646.212891	3560.061279
2645.296875	3646.833008
2644.380859	3668.074951
2643.464844	3651.107178
2642.548828	3530.467773
2641.632813	3472.609131
2640.715820	3630.237793
2639.798828	3520.568359
2638.881836	3661.778320
2637.964844	3563.043701
2637.047852	3597.899170
2636.130859	3578.238525
2635.212891	3621.254639
2634.294922	3522.590088
2633.377930	3551.981445
2632.459961	3537.787354
2631.541992	3662.472412
2630.623047	3438.625977
2629.705078	3544.231445
2628.786133	3562.708008
2627.867188	3589.342285
2626.949219	3594.201172
2626.030273	3522.887939
2625.110352	3625.673584
2624.191406	3674.035889
2623.271484	3632.653564
2622.352539	3487.977539
2621.432617	3574.392578
2620.512695	3465.103027
2619.592773	3554.210938
2618.672852	3662.307617
2617.751953	3544.907715
2616.832031	3560.627930
2615.911133	3674.101563
2614.990234	3700.655762
2614.069336	3510.030029
2613.148438	3694.025635
2612.226563	3546.882813
2611.305664	3592.433350
2610.383789	3597.275635
2609.462891	3569.567139
2608.541016	3590.683350
2607.618164	3603.657959
2606.696289	3551.561523
2605.774414	3529.299316
2604.851563	3593.771729
2603.929688	3660.932861
2603.006836	3719.944092
2602.083984	3624.527832
2601.160156	3672.691650
2600.237305	3582.729980
2599.314453	3647.130127
2598.390625	3673.609375
2597.466797	3648.652100
2596.542969	3667.003174
2595.619141	3696.171875
2594.695313	3581.944580
2593.770508	3662.511475
2592.846680	3697.075195
2591.921875	3645.096924
2590.997070	3587.728271
2590.072266	3627.693359
2589.147461	3656.834473
2588.222656	3734.607666
2587.296875	3685.366943
2586.372070	3628.037842
2585.446289	3743.591309
2584.520508	3675.468994
2583.594727	3607.368408
2582.668945	3649.977295
2581.742188	3657.481934
2580.816406	3727.056641
2579.889648	3599.627441
2578.962891	3590.948730
2578.036133	3706.357422
2577.109375	3616.752197
2576.181641	3651.220215
2575.254883	3726.119873
2574.327148	3571.856934
2573.399414	3627.877930
2572.472656	3506.019287
2571.543945	3645.559570
2570.616211	3585.699219
2569.688477	3647.068115
2568.759766	3662.633789
2567.831055	3664.731201
2566.903320	3577.983887
2565.974609	3561.251221
2565.044922	3606.425537
2564.116211	3643.512207
2563.186523	3602.562500
2562.257813	3618.117188
2561.328125	3544.909424
2560.398438	3541.643799
2559.468750	3506.114258
2558.539063	3693.725342
2557.608398	3633.991699
2556.678711	3568.902588
2555.748047	3656.992920
2554.817383	3551.622803
2553.886719	3518.811768
2552.956055	3561.210449
2552.024414	3528.408447
2551.093750	3600.324219
2550.162109	3610.476318
2549.230469	3515.951416
2548.298828	3493.911621
2547.367188	3482.611084
2546.435547	3522.284180
2545.503906	3626.316406
2544.571289	3499.684326
2543.638672	3584.917236
2542.706055	3519.993164
2541.773438	3500.657471
2540.840820	3551.008057
2539.908203	3478.082031
2538.974609	3549.852783
2538.041016	3546.596680
2537.108398	3645.115479
2536.174805	3467.785889
2535.240234	3614.478271
2534.306641	3632.628906
2533.373047	3524.977051
2532.438477	3519.051514
2531.503906	3566.640625
2530.569336	3638.291016
2529.634766	3672.471191
2528.700195	3586.294678
2527.765625	3457.363525
2526.830078	3694.739990
2525.894531	3490.987793
2524.958984	3578.615723
2524.023438	3532.606445
2523.087891	3564.092529
2522.152344	3491.387451
2521.215820	3552.249023
2520.280273	3479.569336
2519.343750	3556.432861
2518.407227	3585.219238
2517.470703	3459.186768
2516.534180	3530.678467
2515.596680	3578.132324
2514.660156	3566.878662
2513.722656	3566.298096
2512.785156	3509.711426
2511.847656	3666.464844
2510.910156	3633.875000
2509.971680	3574.639160
2509.034180	3600.709473
2508.095703	3472.213623
2507.157227	3516.942383
2506.218750	3558.992432
2505.280273	3531.778076
2504.341797	3467.290039
2503.402344	3424.123535
2502.463867	3625.891846
2501.524414	3494.875732
2500.584961	3576.807617
2499.645508	3613.477539
2498.706055	3567.661377
2497.765625	3529.840332
2496.826172	3526.605957
2495.885742	3488.803467
2494.945313	3429.743652
2494.004883	3506.275391
2493.064453	3492.415039
2492.124023	3558.281738
2491.182617	3594.899902
2490.241211	3591.657959
2489.300781	3548.575195
2488.359375	3529.407227
2487.417969	3502.279785
2486.475586	3477.816162
2485.534180	3554.226807
2484.591797	3426.258057
2483.649414	3438.967529
2482.708008	3589.633545
2481.764648	3440.499756
2480.822266	3559.289551
2479.879883	3632.959961
2478.936523	3494.497314
2477.994141	3443.560303
2477.050781	3448.300293
2476.107422	3524.590332
2475.164063	3380.935791
2474.219727	3507.546631
2473.276367	3589.087158
2472.332031	3466.678711
2471.387695	3476.705566
2470.443359	3658.814941
2469.499023	3427.925537
2468.554688	3546.464844
2467.610352	3474.439941
2466.665039	3561.183594
2465.719727	3552.667236
2464.774414	3451.582275
2463.829102	3599.109619
2462.883789	3487.473877
2461.938477	3568.856934
2460.992188	3451.975830
2460.045898	3504.268066
2459.100586	3355.727783
2458.154297	3569.172607
2457.207031	3573.873779
2456.260742	3546.881104
2455.314453	3335.056152
2454.367188	3455.959473
2453.419922	3355.086670
2452.472656	3510.258057
2451.525391	3417.325684
2450.578125	3458.983398
2449.629883	3474.247314
2448.682617	3558.083252
2447.734375	3454.654541
2446.786133	3572.743408
2445.837891	3427.165283
2444.889648	3439.785889
2443.940430	3404.964600
2442.992188	3501.904053
2442.042969	3503.967529
2441.093750	3516.566650
2440.144531	3431.714844
2439.195313	3394.289307
2438.246094	3427.962891
2437.295898	3519.538330
2436.346680	3400.524902
2435.396484	3518.390381
2434.446289	3575.701172
2433.496094	3501.458496
2432.545898	3606.098145
2431.594727	3400.382568
2430.643555	3441.898438
2429.693359	3467.626953
2428.742188	3477.575439
2427.791016	3458.611328
2426.838867	3515.856445
2425.887695	3412.819336
2424.936523	3456.918945
2423.984375	3543.026367
2423.032227	3455.791016
2422.080078	3539.244873
2421.127930	3431.037354
2420.174805	3506.593750
2419.222656	3485.027588
2418.269531	3408.367676
2417.316406	3376.330566
2416.363281	3480.698975
2415.410156	3485.375977
2414.457031	3547.738281
2413.502930	3410.831055
2412.549805	3546.580566
2411.595703	3388.751221
2410.641602	3403.920654
2409.687500	3445.284912
2408.733398	3373.994385
2407.778320	3499.162109
2406.824219	3569.296143
2405.869141	3388.052490
2404.914063	3369.174561
2403.958984	3321.510986
2403.003906	3396.861572
2402.048828	3438.172363
2401.091797	3479.469238
2400.136719	3410.892822
2399.181641	3399.874756
2398.224609	3493.454834
2397.269531	3466.739990
2396.312500	3424.349854
2395.355469	3476.062500
2394.398438	3527.758057
2393.441406	3508.893066
2392.484375	3484.168457
2391.527344	3459.443604
2390.570313	3434.718750
2389.613281	3409.994141
2388.656250	3472.091553
2387.697266	3434.982178
2386.740234	3442.250488
2385.781250	3376.455566
2384.824219	3461.997559
2383.865234	3341.442627
2382.906250	3398.273926
2381.947266	3426.402588
2380.988281	3352.841797
2380.029297	3427.890137
2379.070313	3422.117676
2378.111328	3359.016846
2377.152344	3470.504150
2376.191406	3305.818604
2375.232422	3292.255371
2374.271484	3369.843750
2373.312500	3418.765137
2372.351563	3454.653564
2371.390625	3456.692139
2370.431641	3391.064941
2369.470703	3455.562744
2368.509766	3306.703857
2367.548828	3350.384521
2366.585938	3386.248535
2365.625000	3349.289795
2364.664063	3403.341797
2363.701172	3350.794922
2362.740234	3298.265381
2361.777344	3373.088135
2360.816406	3341.357910
2359.853516	3335.616211
2358.890625	3348.058105
2357.927734	3300.765381
2356.964844	3362.543213
2356.001953	3364.589844
2355.039063	3322.508545
2354.076172	3314.179688
2353.113281	3394.078857
2352.148438	3375.363037
2351.185547	3341.089111
2350.220703	3371.666016
2349.257813	3314.065186
2348.292969	3295.374268
2347.328125	3245.581543
2346.365234	3436.851074
2345.400391	3353.362305
2344.435547	3339.858887
2343.470703	3303.044189
2342.503906	3346.537598
2341.539063	3335.631348
2340.574219	3301.424316
2339.607422	3326.773926
2338.642578	3235.632080
2337.675781	3356.742920
2336.710938	3234.574219
2335.744141	3202.998291
2334.777344	3386.138428
2333.810547	3344.202393
2332.843750	3390.202881
2331.876953	3482.728027
2330.910156	3518.350342
2329.943359	3411.802246
2328.974609	3586.974854
2328.007813	3483.034180
2327.041016	3358.459717
2326.072266	3357.910400
2325.103516	3230.814453
2324.136719	3369.722900
2323.167969	3327.863770
2322.199219	3391.852539
2321.230469	3179.664063
2320.261719	3243.655762
2319.292969	3279.245850
2318.324219	3317.403809
2317.355469	3280.752197
2316.384766	3236.376221
2315.416016	3202.327881
2314.445313	3237.895264
2313.476563	3270.873291
2312.505859	3231.681641
2311.535156	3300.722900
2310.564453	3354.284180
2309.593750	3281.612061
2308.623047	3139.427490
2307.652344	3231.613281
2306.681641	3243.957275
2305.710938	3212.536621
2304.740234	3343.270996
2303.767578	3201.192139
2302.796875	3228.969727
2301.824219	3125.542725
2300.851563	3294.786133
2299.880859	3247.957520
2298.908203	3288.565186
2297.935547	3272.602295
2296.962891	3230.940674
2295.990234	3181.583008
2295.017578	3255.578369
2294.042969	3342.394531
2293.070313	3136.353271
2292.097656	3220.592285
2291.123047	3273.989502
2290.150391	3214.403076
2289.175781	3216.443848
2288.201172	3236.449707
2287.228516	3287.242920
2286.253906	3255.915771
2285.279297	3196.380615
2284.304688	3090.696533
2283.330078	3133.786377
2282.353516	3174.298096
2281.378906	3181.469238
2280.404297	3247.591797
2279.427734	3165.050537
2278.453125	3108.159912
2277.476563	3179.385498
2276.500000	3171.180176
2275.525391	3237.249756
2274.548828	3172.702148
2273.572266	3208.026367
2272.595703	3238.219238
2271.619141	3278.639893
2270.640625	3175.741943
2269.664063	3205.925049
2268.687500	3210.516113
2267.708984	3222.779053
2266.732422	3150.645508
2265.753906	3068.307861
2264.777344	3213.525879
2263.798828	3210.443115
2262.820313	3174.137939
2261.841797	3211.946533
2260.863281	3221.639648
2259.884766	3124.044189
2258.906250	3246.123779
2257.925781	3263.466797
2256.947266	3255.272705
2255.968750	3224.106445
2254.988281	3236.339600
2254.009766	3248.568604
2253.029297	3227.624512
2252.048828	3204.135986
2251.068359	3190.857422
2250.087891	3195.435059
2249.107422	3118.416992
2248.126953	3181.640625
2247.146484	3086.807129
2246.166016	3198.437500
2245.185547	3134.209717
2244.203125	3205.032227
2243.222656	3219.790527
2242.240234	3226.903320
2241.259766	3137.248047
2240.277344	3111.273193
2239.294922	3075.124268
2238.312500	3186.609619
2237.330078	3206.445313
2236.347656	3157.576416
2235.365234	3205.394043
2234.382813	3232.847412
2233.398438	3097.531494
2232.416016	3112.279785
2231.431641	3251.595703
2230.449219	3162.096680
2229.464844	3054.836670
2228.480469	3107.697754
2227.498047	3236.760010
2226.513672	3053.333984
2225.529297	3149.345459
2224.544922	3158.986328
2223.560547	3176.240967
2222.574219	3175.719971
2221.589844	3088.902588
2220.605469	3116.310791
2219.619141	3189.381104
2218.634766	3072.161621
2217.648438	3084.339844
2216.662109	3164.987305
2215.675781	3149.254395
2214.691406	3158.878662
2213.705078	3173.569092
2212.718750	3018.450928
2211.730469	3116.780518
2210.744141	3073.198730
2209.757813	3196.818115
2208.771484	3206.424316
2207.783203	3218.559814
2206.794922	3167.393799
2205.808594	3098.524170
2204.820313	3095.484619
2203.832031	3186.079834
2202.843750	3071.696777
2201.855469	3154.676514
2200.867188	3154.158691
2199.878906	3006.959961
2198.890625	3057.037842
2197.902344	3096.986328
2196.912109	3038.340088
2195.923828	3176.843994
2194.933594	3095.461670
2193.945313	3064.635498
2192.955078	3112.127930
2191.964844	3010.590332
2190.974609	3058.075928
2189.984375	3239.361816
2188.994141	3112.609131
2188.003906	2993.469727
2187.013672	3172.153320
2186.023438	3022.764893
2185.031250	3067.678223
2184.041016	3049.518066
2183.048828	3144.850830
2182.058594	3056.081299
2181.066406	3113.564941
2180.074219	3012.225830
2179.082031	3014.251465
2178.089844	3054.074219
2177.097656	2993.105957
2176.105469	3166.427734
2175.113281	3037.458008
2174.121094	3140.205566
2173.126953	3142.207520
2172.134766	3061.135254
2171.140625	3110.971680
2170.148438	3221.188965
2169.154297	3170.337158
2168.160156	3049.061279
2167.166016	3121.504639
2166.171875	3156.200439
2165.177734	3085.276123
2164.183594	3079.741211
2163.189453	2935.956299
2162.195313	3051.083496
2161.199219	3073.197510
2160.205078	3145.552979
2159.208984	3137.500000
2158.214844	2956.149414
2157.218750	3159.069580
2156.222656	2990.328857
2155.226563	3062.637695
2154.230469	3112.333252
2153.234375	3061.631104
2152.238281	3121.346924
2151.242188	2955.259033
2150.244141	3165.470215
2149.248047	3082.189697
2148.251953	3044.071045
2147.253906	2970.865967
2146.255859	3078.163330
2145.259766	3085.176025
2144.261719	3004.482666
2143.263672	3034.053711
2142.265625	3101.189697
2141.267578	3048.083496
2140.269531	2994.994629
2139.269531	3122.194336
2138.271484	3116.674316
2137.273438	3051.085205
2136.273438	3065.598877
2135.275391	3100.124268
2134.275391	3127.133301
2133.275391	3041.575195
2132.277344	3038.573975
2131.277344	3113.088623
2130.277344	3077.575684
2129.277344	3054.572754
2128.275391	3089.059570
2127.275391	3033.577393
2126.275391	2983.110107
2125.273438	3012.595459
2124.273438	3109.506104
2123.271484	3111.491943
2122.271484	3018.599365
2121.269531	2973.168213
2120.267578	2965.191406
2119.265625	3114.436035
2118.263672	3143.865234
2117.261719	2993.664795
2116.259766	3045.552734
2115.257813	2967.740723
2114.253906	3124.342285
2113.251953	3051.529053
2112.248047	3120.821533
2111.246094	3070.462891
2110.242188	3062.482178
2109.238281	2984.743408
2108.236328	2966.815186
2107.232422	2956.364502
2106.228516	3052.996094
2105.224609	3139.636475
2104.218750	2984.777588
2103.214844	3098.779541
2102.210938	2963.886719
2101.205078	3040.531738
2100.201172	3072.372070
2099.195313	2925.113281
2098.189453	2971.883301
2097.185547	3048.476318
2096.179688	3052.946777
2095.173828	3079.786865
2094.167969	2999.750488
2093.162109	3019.135742
2092.156250	2946.588867
2091.148438	3008.205322
2090.142578	2970.455078
2089.134766	3051.913330
2088.128906	2991.822510
2087.121094	2946.646240
2086.115234	3077.708008
2085.107422	2985.381592
2084.099609	2960.077881
2083.091797	3016.648682
2082.083984	2934.299072
2081.076172	2884.216309
2080.068359	2913.496094
2079.058594	2960.120361
2078.050781	2875.355225
2077.041016	3021.104004
2076.033203	2909.099121
2075.023438	2925.962646
2074.013672	2930.434814
2073.005859	2954.719238
2071.996094	2882.419678
2070.986328	3023.071045
2069.976563	2980.489502
2068.966797	2945.347412
2067.955078	2949.811523
2066.945313	2875.097412
2065.935547	2951.313232
2064.923828	2970.614746
2063.912109	2883.568604
2062.902344	2932.546143
2061.890625	2949.368652
2060.878906	2973.600830
2059.867188	2973.110596
2058.855469	2883.664551
2057.843750	2937.542480
2056.832031	2946.938965
2055.820313	2968.681396
2054.806641	2980.539063
2053.794922	2933.137207
2052.781250	2863.533936
2051.769531	2845.784912
2050.755859	2931.687012
2049.742188	2916.399658
2048.730469	2977.592285
2047.716797	2940.103516
2046.703125	2924.822021
2045.687500	2867.628418
2044.673828	2842.502441
2043.660156	2975.138672
2042.646484	2937.680664
2041.630859	2878.058105
2040.617188	2976.130859
2039.601563	2933.764404
2038.585938	2847.080078
2037.570313	2873.697754
2036.556641	2838.754883
2035.541016	2875.211670
2034.523438	2889.504883
2033.507813	2933.323486
2032.492188	2876.249756
2031.476563	2922.515869
2030.458984	2850.704590
2029.443359	2847.775146
2028.425781	2879.270020
2027.410156	2841.918945
2026.392578	2856.198242
2025.375000	2936.827637
2024.357422	2948.629150
2023.339844	2970.253906
2022.322266	2861.683105
2021.304688	2952.082031
2020.287109	2931.950439
2019.267578	2759.604980
2018.250000	2881.887695
2017.230469	2896.138184
2016.212891	2868.666992
2015.193359	2904.996826
2014.173828	2911.876709
2013.154297	2823.097656
2012.134766	2832.441162
2011.115234	2819.714111
2010.095703	2836.409424
2009.076172	2855.550049
2008.056641	2906.543701
2007.035156	2906.063965
2006.015625	2832.087158
2004.994141	2853.665283
2003.974609	2953.606934
2002.953125	2867.415283
2001.931641	2906.114502
2000.910156	2922.770020
1999.888672	2829.283203
1998.867188	2880.204590
1997.845703	2772.075684
1996.824219	2906.162598
1995.800781	2771.160400
1994.779297	2914.984863
1993.755859	2789.805664
1992.734375	2838.238037
1991.710938	2876.877441
1990.687500	2803.086914
1989.666016	2890.587891
1988.642578	2811.933350
1987.619141	2728.419434
1986.595703	2884.271484
1985.570313	2883.795166
1984.546875	2878.436035
1983.523438	2755.909668
1982.498047	2843.316406
1981.474609	2806.243652
1980.449219	2764.303223
1979.423828	2717.498047
1978.400391	2734.122070
1977.375000	2848.284668
1976.349609	2872.196045
1975.324219	2752.269531
1974.296875	2764.001709
1973.271484	2753.797119
1972.246094	2741.159180
1971.218750	2772.376709
1970.193359	2762.175293
1969.166016	2715.446777
1968.140625	2724.737793
1967.113281	2746.198730
1966.085938	2723.837402
1965.058594	2720.953369
1964.031250	2635.335938
1963.003906	2695.724609
1961.976563	2797.446533
1960.949219	2733.748047
1959.919922	2789.226563
1958.892578	2745.000977
1957.863281	2676.480713
1956.835938	2790.274170
1955.806641	2760.651123
1954.777344	2704.310547
1953.748047	2737.874268
1952.718750	2798.145264
1951.689453	2700.540771
1950.660156	2792.363770
1949.630859	2706.931152
1948.599609	2764.739746
1947.570313	2749.720947
1946.539063	2749.266113
1945.509766	2731.828613
1944.478516	2726.525391
1943.447266	2796.409180
1942.417969	2725.623535
1941.386719	2746.993652
1940.355469	2668.967041
1939.324219	2634.593506
1938.291016	2794.097412
1937.259766	2740.330811
1936.228516	2730.187256
1935.195313	2875.063232
1934.164063	2780.140381
1933.130859	2673.142334
1932.097656	2740.485840
1931.064453	2747.293945
1930.033203	2654.874756
1929.000000	2773.001953
1927.966797	2695.125000
1926.931641	2747.895264
1925.898438	2703.907227
1924.865234	2720.386475
1923.830078	2819.062988
1922.796875	2755.746094
1921.761719	2685.199463
1920.728516	2696.837646
1919.693359	2631.156006
1918.658203	2674.203613
1917.623047	2782.450439
1916.587891	2803.724121
1915.552734	2764.627686
1914.517578	2744.857178
1913.480469	2775.781250
1912.445313	2736.708496
1911.408203	2673.519531
1910.373047	2711.677246
1909.335938	2718.464844
1908.298828	2689.073975
1907.263672	2724.798584
1906.226563	2748.456787
1905.189453	2832.370117
1904.152344	2800.569580
1903.113281	2667.570801
1902.076172	2751.455566
1901.039063	2645.007080
1900.000000	2755.361572
1898.962891	2810.292236
1897.923828	2691.847900
1896.886719	2703.438721
1895.847656	2690.956299
1894.808594	2644.786377
1893.769531	2769.467529
1892.730469	2593.389648
1891.691406	2857.547852
1890.650391	2792.141113
1889.611328	2712.328613
1888.572266	2673.412842
1887.531250	2610.472412
1886.492188	2626.863525
1885.451172	2732.158203
1884.410156	2738.913086
1883.369141	2639.970947
1882.328125	2608.310547
1881.287109	2667.912598
1880.246094	2756.306152
1879.205078	2652.625000
1878.164063	2676.187256
1877.121094	2733.338135
1876.080078	2617.715332
1875.037109	2684.452637
1873.996094	2684.007813
1872.953125	2652.386719
1871.910156	2714.289307
1870.867188	2670.686523
1869.824219	2677.434814
1868.781250	2593.110352
1867.738281	2650.189209
1866.695313	2589.854980
1865.650391	2694.823242
1864.607422	2615.341309
1863.562500	2720.270264
1862.519531	2588.137939
1861.474609	2626.009766
1860.429688	2623.181152
1859.384766	2579.671875
1858.339844	2581.636719
1857.294922	2681.681885
1856.250000	2561.645996
1855.205078	2656.878418
1854.158203	2615.790283
1853.113281	2706.200684
1852.068359	2555.166748
1851.021484	2585.810791
1849.974609	2599.718750
1848.927734	2592.120361
1847.882813	2646.629395
1846.835938	2674.849609
1845.789063	2576.503418
1844.740234	2590.400879
1843.693359	2599.519287
1842.646484	2608.634766
1841.599609	2560.476563
1840.550781	2638.785889
1839.501953	2624.035156
1838.455078	2566.357666
1837.406250	2487.236816
1836.357422	2601.270508
1835.308594	2665.204346
1834.259766	2590.873291
1833.210938	2571.378418
1832.162109	2530.445557
1831.113281	2496.673096
1830.062500	2467.675537
1829.013672	2591.105713
1827.962891	2543.052979
1826.914063	2568.818848
1825.863281	2589.815674
1824.812500	2513.227295
1823.761719	2574.678711
1822.710938	2607.559570
1821.660156	2580.960205
1820.609375	2559.126465
1819.558594	2470.716553
1818.505859	2532.123291
1817.455078	2619.658936
1816.402344	2493.253906
1815.351563	2580.766602
1814.298828	2563.706055
1813.246094	2442.124512
1812.193359	2453.594971
1811.140625	2460.312012
1810.087891	2464.652344
1809.035156	2495.105225
1807.982422	2592.010010
1806.927734	2506.142822
1805.875000	2593.521973
1804.820313	2536.152344
1803.767578	2483.545654
1802.712891	2497.363281
1801.658203	2577.571533
1800.603516	2522.613281
1799.548828	2526.935059
1798.494141	2495.704102
1797.439453	2450.265381
1796.384766	2582.539307
1795.330078	2470.771484
1794.273438	2512.994141
1793.218750	2564.675293
1792.162109	2533.468750
1791.105469	2421.782959
1790.050781	2494.755859
1788.994141	2603.202393
1787.937500	2567.277344
1786.880859	2595.239990
1785.824219	2627.923828
1784.765625	2539.982910
1783.708984	2513.550293
1782.652344	2451.663818
1781.593750	2515.078613
1780.535156	2427.214600
1779.478516	2443.352295
1778.419922	2506.736816
1777.361328	2596.084717
1776.302734	2560.225586
1775.244141	2538.546875
1774.185547	2497.987061
1773.126953	2551.866943
1772.066406	2485.355225
1771.007813	2475.502441
1769.949219	2526.999512
1768.888672	2552.529053
1767.828125	2620.506836
1766.769531	2554.038574
1765.708984	2544.182129
1764.648438	2539.043945
1763.587891	2611.692627
1762.527344	2561.766846
1761.464844	2662.663330
1760.404297	2615.101563
1759.343750	2591.111084
1758.281250	2461.145996
1757.220703	2510.186768
1756.158203	2450.909668
1755.095703	2492.873779
1754.033203	2518.348633
1752.970703	2543.814941
1751.908203	2444.573486
1750.845703	2566.492676
1749.783203	2490.800781
1748.720703	2546.825684
1747.656250	2475.864502
1746.593750	2487.206787
1745.529297	2482.092041
1744.466797	2462.878174
1743.402344	2502.413086
1742.337891	2422.120605
1741.273438	2482.788818
1740.208984	2411.920410
1739.144531	2409.170898
1738.080078	2500.331299
1737.013672	2469.399658
1735.949219	2499.499023
1734.884766	2426.339600
1733.818359	2414.204834
1732.751953	2456.026855
1731.687500	2572.887207
1730.621094	2473.969238
1729.554688	2412.597656
1728.488281	2360.623047
1727.421875	2414.137939
1726.353516	2394.988525
1725.287109	2523.457031
1724.220703	2546.463379
1723.152344	2424.241699
1722.085938	2395.735596
1721.017578	2423.434326
1719.949219	2397.278809
1718.880859	2460.078369
1717.814453	2483.071777
1716.744141	2487.338135
1715.675781	2468.207520
1714.607422	2456.100586
1713.539063	2401.900146
1712.468750	2532.448486
1711.400391	2389.410156
1710.330078	2435.763672
1709.261719	2493.787842
1708.191406	2446.636230
1707.121094	2380.808838
1706.050781	2422.460693
1704.980469	2356.659180
1703.910156	2430.994385
1702.839844	2369.883057
1701.769531	2467.535889
1700.697266	2343.418213
1699.626953	2452.711426
1698.554688	2414.969727
1697.482422	2500.885010
1696.412109	2418.829834
1695.339844	2425.423096
1694.267578	2450.667969
1693.195313	2389.644043
1692.123047	2419.548340
1691.048828	2414.483887
1689.976563	2358.156738
1688.904297	2422.998291
1687.830078	2355.041016
1686.757813	2373.280762
1685.683594	2484.659668
1684.609375	2388.787109
1683.535156	2395.372314
1682.460938	2334.458496
1681.386719	2522.563477
1680.312500	2359.273682
1679.238281	2444.953857
1678.164063	2374.768311
1677.087891	2379.023438
1676.013672	2397.227783
1674.937500	2257.342285
1673.863281	2377.833252
1672.787109	2416.944336
1671.710938	2411.894043
1670.634766	2316.239990
1669.558594	2339.081787
1668.482422	2359.593506
1667.404297	2410.284912
1666.328125	2340.233154
1665.251953	2358.412842
1664.173828	2334.810547
1663.097656	2364.587402
1662.019531	2292.269287
1660.941406	2380.036377
1659.863281	2323.975098
1658.785156	2432.577881
1657.707031	2383.482178
1656.628906	2378.447998
1655.550781	2350.237549
1654.470703	2421.684814
1653.392578	2412.012451
1652.312500	2372.227295
1651.234375	2371.831299
1650.154297	2366.803711
1649.074219	2368.724121
1647.994141	2303.506348
1646.914063	2372.562744
1645.833984	2362.909424
1644.753906	2309.294678
1643.673828	2382.942139
1642.593750	2373.291748
1641.511719	2396.023193
1640.431641	2354.000244
1639.349609	2231.071533
1638.267578	2434.120361
1637.185547	2318.152832
1636.103516	2343.184814
1635.021484	2345.104004
1633.939453	2282.340576
1632.857422	2242.695068
1631.775391	2378.568604
1630.693359	2341.228760
1629.609375	2306.209961
1628.527344	2257.354004
1627.443359	2298.516357
1626.359375	2351.201660
1625.275391	2309.283203
1624.191406	2274.298584
1623.107422	2292.368164
1622.023438	2222.810547
1620.939453	2298.518555
1619.855469	2298.134521
1618.769531	2320.797119
1617.685547	2331.930664
1616.599609	2349.972168
1615.515625	2338.062012
1614.429688	2229.424316
1613.343750	2254.381836
1612.257813	2235.586182
1611.171875	2345.707275
1610.085938	2310.791260
1609.000000	2305.802734
1607.912109	2227.189453
1606.826172	2242.920166
1605.738281	2366.747803
1604.652344	2221.473389
1603.564453	2223.401367
1602.476563	2213.833984
1601.388672	2316.896729
1600.300781	2275.143066
1599.212891	2233.403320
1598.125000	2182.488037
1597.037109	2276.299072
1595.949219	2200.131104
1594.859375	2202.059326
1593.771484	2125.928955
1592.681641	2201.322754
1591.591797	2237.675537
1590.501953	2216.649170
1589.412109	2264.458496
1588.322266	2183.793213
1587.232422	2139.851074
1586.142578	2164.717529
1585.052734	2260.650879
1583.962891	2264.857422
1582.871094	2255.310547
1581.779297	2234.308838
1580.689453	2311.836426
1579.597656	2185.453857
1578.505859	2219.444824
1577.414063	2301.515869
1576.322266	2204.964111
1575.230469	2181.702148
1574.138672	2147.003418
1573.046875	2279.378906
1571.953125	2235.522705
1570.861328	2308.356934
1569.767578	2230.199707
1568.673828	2254.983398
1567.582031	2158.567871
1566.488281	2242.797363
1565.394531	2272.137939
1564.300781	2182.624268
1563.207031	2184.543945
1562.111328	2268.712402
1561.017578	2220.361816
1559.923828	2178.879150
1558.828125	2228.752441
1557.732422	2212.397217
1556.638672	2239.420166
1555.542969	2300.670410
1554.447266	2334.515625
1553.351563	2254.266846
1552.255859	2251.608154
1551.160156	2290.006104
1550.062500	2152.792480
1548.966797	2337.121582
1547.871094	2177.148438
1546.773438	2210.974121
1545.675781	2171.861328
1544.580078	2315.048828
1543.482422	2223.532471
1542.384766	2218.604492
1541.287109	2202.290527
1540.189453	2220.138184
1539.089844	2251.639893
1537.992188	2276.301758
1536.894531	2132.537354
1535.794922	2245.957031
1534.697266	2177.325928
1533.597656	2195.159424
1532.498047	2126.559570
1531.398438	2137.573242
1530.298828	2180.414063
1529.199219	2175.502197
1528.099609	2159.227539
1527.000000	2115.688232
1525.898438	2217.578613
1524.798828	2199.032959
1523.697266	2198.664307
1522.597656	2200.566895
1521.496094	2245.609619
1520.394531	2145.344238
1519.292969	2163.143066
1518.191406	2194.552734
1517.089844	2198.722900
1515.988281	2062.233154
1514.886719	2120.863281
1513.783203	2149.990479
1512.681641	2104.279297
1511.578125	2183.277100
1510.476563	2153.442627
1509.373047	2014.831055
1508.269531	2055.281494
1507.166016	2104.781006
1506.062500	2079.510010
1504.958984	2097.280273
1503.855469	2067.489990
1502.750000	2155.443848
1501.646484	2039.631470
1500.541016	2032.499268
1499.437500	2066.103027
1498.332031	2058.968506
1497.226563	2063.147461
1496.121094	2078.634277
1495.015625	2069.239746
1493.910156	2098.286621
1492.804688	2045.938232
1491.699219	2027.512329
1490.591797	2081.410889
1489.486328	2022.312744
1488.378906	2105.563232
1487.271484	2111.986328
1486.166016	1976.126099
1485.058594	2054.826172
1483.951172	2027.389160
1482.843750	2045.107178
1481.736328	2001.882568
1480.626953	2008.316162
1479.519531	2138.835938
1478.412109	1998.618774
1477.302734	2131.351807
1476.195313	2045.303101
1475.085938	2015.649414
1473.976563	2019.819458
1472.867188	2046.526855
1471.757813	2068.718262
1470.648438	2081.889648
1469.539063	1995.935547
1468.427734	2047.404907
1467.318359	2062.824951
1466.208984	2057.975342
1465.097656	1942.816650
1463.986328	2032.524658
1462.876953	2045.686157
1461.765625	2119.595947
1460.654297	2004.503906
1459.542969	2006.416504
1458.431641	2037.564941
1457.318359	1945.030396
1456.207031	1960.441162
1455.095703	1996.077148
1453.982422	2076.650146
1452.869141	2085.289551
1451.757813	2118.639648
1450.644531	2055.386475
1449.531250	2007.876343
1448.417969	2077.151611
1447.304688	1991.485107
1446.191406	2065.229248
1445.076172	2067.126709
1443.962891	2006.189575
1442.847656	1972.197144
1441.734375	1983.082153
1440.619141	1962.562378
1439.503906	1966.717651
1438.390625	2098.675293
1437.275391	1968.298218
1436.158203	2115.901123
1435.042969	2039.349854
1433.927734	1967.305542
1432.812500	2074.508789
1431.695313	2085.359375
1430.580078	1993.187744
1429.462891	1923.438599
1428.345703	2023.860474
1427.228516	2025.758423
1426.113281	2032.131836
1424.996094	1984.799316
1423.876953	1964.330078
1422.759766	2028.869751
1421.642578	2104.570313
1420.523438	1974.519653
1419.406250	1945.122437
1418.287109	2025.269531
1417.169922	2000.343628
1416.050781	1977.660645
1414.931641	1986.265015
1413.812500	1985.930786
1412.693359	1958.794434
1411.574219	1936.133423
1410.453125	2022.885498
1409.333984	2033.707031
1408.214844	1977.564453
1407.093750	1975.000000
1405.972656	2075.074463
1404.853516	1918.562988
1403.732422	2002.999634
1402.611328	1982.591187
1401.490234	2042.461060
1400.369141	1901.665894
1399.246094	1943.697021
1398.125000	1974.570679
1397.003906	1965.325195
1395.880859	1918.208740
1394.757813	1882.245728
1393.636719	1986.604126
1392.513672	1950.641479
1391.390625	1912.464478
1390.267578	1963.340698
1389.144531	1963.010010
1388.021484	1907.047974
1386.896484	1995.722168
1385.773438	1941.997803
1384.648438	1859.377686
1383.525391	1916.882324
1382.400391	1898.772339
1381.275391	1891.783569
1380.150391	1911.468628
1379.025391	1913.368896
1377.900391	1877.496338
1376.775391	1901.616699
1375.650391	1839.104370
1374.523438	1916.521362
1373.398438	1851.807129
1372.271484	1935.855713
1371.146484	1891.136719
1370.019531	1970.711670
1368.892578	1954.847412
1367.765625	1916.803101
1366.638672	1976.369995
1365.511719	1947.205933
1364.384766	1884.790527
1363.255859	1880.038818
1362.128906	1893.021851
1361.000000	1899.351563
1359.873047	1936.701782
1358.744141	1916.435547
1357.615234	1918.327637
1356.486328	1838.271973
1355.357422	1906.608765
1354.228516	1893.003052
1353.099609	1826.273926
1351.968750	1954.337036
1350.839844	1865.490723
1349.708984	1935.977661
1348.580078	1929.014648
1347.449219	1913.206665
1346.318359	1948.266846
1345.187500	1841.807739
1344.056641	1898.974854
1342.925781	1942.860718
1341.794922	1874.025024
1340.664063	1862.661011
1339.531250	1871.183594
1338.400391	1928.297241
1337.267578	1939.014160
1336.136719	1916.606323
1335.003906	1969.267700
1333.871094	1838.703247
1332.738281	1889.152954
1331.605469	1880.007813
1330.472656	1862.040894
1329.337891	1892.608521
1328.205078	1876.850830
1327.072266	1867.713745
1325.937500	1889.445679
1324.802734	1935.418213
1323.669922	1853.544434
1322.535156	1802.548584
1321.400391	1868.341309
1320.265625	1830.577393
1319.130859	1803.838501
1317.994141	1851.980591
1316.859375	1823.045288
1315.722656	1899.785522
1314.587891	1763.002686
1313.451172	1819.921387
1312.314453	1802.012085
1311.179688	1832.506226
1310.042969	1829.997314
1308.906250	1889.065186
1307.769531	1873.354736
1306.630859	1804.887939
1305.494141	1811.177246
1304.355469	1736.150879
1303.218750	1777.606079
1302.080078	1895.939453
1300.943359	1829.722778
1299.804688	1803.059570
1298.666016	1846.671143
1297.527344	1751.955566
1296.388672	1771.415161
1295.248047	1755.753052
1294.109375	1762.039307
1292.970703	1755.159790
1291.830078	1805.315552
1290.691406	1802.817261
1289.550781	1795.934204
1288.410156	1773.706055
1287.269531	1740.524780
1286.128906	1843.241821
1284.988281	1748.702026
1283.847656	1730.878540
1282.705078	1699.917358
1281.564453	1796.000854
1280.423828	1775.988403
1279.281250	1762.551147
1278.138672	1788.522827
1276.996094	1781.654175
1275.855469	1658.802856
1274.712891	1750.419434
1273.568359	1793.876587
1272.425781	1773.887817
1271.283203	1749.531738
1270.140625	1782.034058
1268.996094	1740.195435
1267.851563	1744.272827
1266.708984	1735.236084
1265.564453	1778.643921
1264.419922	1780.527832
1263.275391	1673.194580
1262.130859	1830.156616
1260.986328	1663.894287
1259.839844	1807.705322
1258.695313	1741.914063
1257.550781	1728.524536
1256.404297	1699.864624
1255.257813	1795.573730
1254.113281	1810.539551
1252.966797	1753.527100
1251.820313	1755.411011
1250.673828	1779.096924
1249.525391	1767.896362
1248.378906	1848.239746
1247.232422	1808.702148
1246.083984	1740.853516
1244.937500	1790.662598
1243.789063	1720.661865
1242.640625	1783.523438
1241.492188	1746.207153
1240.343750	1767.681152
1239.195313	1830.502686
1238.046875	1769.258911
1236.898438	1710.211670
1235.748047	1733.852295
1234.599609	1811.862549
1233.449219	1811.555786
1232.300781	1824.295288
1231.150391	1721.808350
1230.000000	1834.545776
1228.849609	1825.541992
1227.699219	1818.714233
1226.548828	1809.716064
1225.398438	1894.123779
1224.246094	1809.103149
1223.095703	1871.768066
1221.943359	1836.714111
1220.791016	1834.232300
1219.640625	1820.899658
1218.488281	1857.480469
1217.335938	1822.452393
1216.183594	1872.035645
1215.031250	1856.536499
1213.876953	1808.515381
1212.724609	1829.890137
1211.570313	1831.747803
1210.417969	1855.278564
1209.263672	1809.456909
1208.109375	1930.482544
1206.957031	1953.984497
1205.802734	1934.160156
1204.646484	1907.845703
1203.492188	1851.227783
1202.337891	1868.232422
1201.183594	1867.915771
1200.027344	1854.614746
1198.873047	1849.972900
1197.716797	1895.089478
1196.560547	1892.605225
1195.404297	1933.374023
1194.248047	1915.748291
1193.091797	1980.279785
1191.935547	1893.483643
1190.779297	1945.030029
1189.621094	1970.629517
1188.464844	1996.220215
1187.306641	1892.199585
1186.150391	1958.828735
1184.992188	1878.601929
1183.833984	1975.435913
1182.675781	1947.039307
1181.517578	1974.765869
1180.359375	1974.430908
1179.199219	2021.560547
1178.041016	1962.975464
1176.882813	2046.755737
1175.722656	2039.939331
1174.562500	2022.345093
1173.404297	2000.445435
1172.244141	2017.348267
1171.083984	1999.766602
1169.923828	2014.509155
1168.761719	2128.339355
1167.601563	2099.978516
1166.441406	2106.082520
1165.279297	2099.265869
1164.119141	2066.618652
1162.957031	2150.209961
1161.794922	2147.692871
1160.632813	2119.357178
1159.470703	2060.913330
1158.308594	2036.903442
1157.146484	2053.761963
1155.984375	2148.020752
1154.820313	2089.611328
1153.658203	2108.601563
1152.494141	2110.392578
1151.330078	2146.562256
1150.167969	2204.203125
1149.003906	2203.828857
1147.839844	2261.440186
1146.675781	2188.049561
1145.509766	2299.316162
1144.345703	2234.530029
1143.181641	2253.465820
1142.015625	2341.060547
1140.849609	2295.608887
1139.685547	2301.654053
1138.519531	2361.314697
1137.353516	2333.037354
1136.187500	2362.656494
1135.021484	2379.404053
1133.855469	2424.007813
1132.687500	2423.595947
1131.521484	2440.324219
1130.353516	2487.036865
1129.187500	2435.211426
1128.019531	2524.737305
1126.851563	2530.731445
1125.683594	2468.221191
1124.515625	2459.240234
1123.347656	2595.780273
1122.179688	2558.965576
1121.009766	2582.062256
1119.841797	2528.151611
1118.671875	2690.248779
1117.503906	2679.100586
1116.333984	2674.369629
1115.164063	2637.578613
1113.994141	2709.790283
1112.824219	2683.689209
1111.654297	2644.778809
1110.484375	2708.408203
1109.312500	2782.693604
1108.142578	2833.466309
1106.970703	2888.491211
1105.800781	2962.708008
1104.628906	2806.410889
1103.457031	2831.539063
1102.285156	2950.529297
1101.113281	2964.958984
1099.941406	3030.568359
1098.769531	2989.538330
1097.595703	3095.628418
1096.423828	3161.181885
1095.250000	3154.250244
1094.076172	3187.807861
1092.904297	3195.787354
1091.730469	3274.059570
1090.556641	3339.526367
1089.382813	3181.379639
1088.207031	3368.196777
1087.033203	3312.277100
1085.859375	3330.868408
1084.683594	3396.269287
1083.509766	3421.222656
1082.333984	3490.840088
1081.158203	3522.149170
1079.982422	3551.321289
1078.806641	3654.899414
1077.630859	3673.409424
1076.455078	3681.285889
1075.279297	3682.784180
1074.101563	3677.907715
1072.925781	3753.758789
1071.748047	3659.663086
1070.570313	3784.334961
1069.392578	3713.622314
1068.214844	3870.085938
1067.037109	3820.607910
1065.859375	3798.735352
1064.681641	3921.154785
1063.503906	3988.374023
1062.324219	3938.909180
1061.146484	3942.479736
1059.966797	3952.409912
1058.787109	3985.656982
1057.607422	4088.841797
1056.427734	4007.611572
1055.248047	4106.519043
1054.068359	4054.973389
1052.888672	4122.065430
1051.707031	4072.652344
1050.527344	4052.900879
1049.345703	4020.452881
1048.166016	4038.818848
1046.984375	4122.787109
1045.802734	4105.156250
1044.621094	4062.142334
1043.439453	3991.643799
1042.257813	4103.057129
1041.074219	4127.733398
1039.892578	4036.116455
1038.708984	4253.159668
1037.527344	4184.801270
1036.343750	4255.936035
1035.160156	3982.656982
1033.976563	4030.564453
1032.792969	4135.481934
1031.609375	4043.971924
1030.425781	4032.725586
1029.242188	3979.262451
1028.056641	4145.325684
1026.873047	4060.206543
1025.687500	4055.294189
1024.501953	4094.684570
1023.316406	4030.709473
1022.130859	3941.449951
1020.945313	3993.489990
1019.759766	3925.348389
1018.574219	3975.265381
1017.386719	3896.612793
1016.201172	3862.234863
1015.013672	3874.216064
1013.828125	3827.215576
1012.640625	3837.092285
1011.453125	3899.606201
1010.265625	3791.572266
1009.078125	3877.226318
1007.890625	3786.069092
1006.701172	3787.527100
1005.513672	3704.831543
1004.324219	3731.544189
1003.136719	3733.010254
1001.947266	3637.749512
1000.757813	3727.531006
999.568359	3577.650879
998.378906	3688.428467
997.189453	3500.781982
996.000000	3487.578613
994.808594	3512.190186
993.619141	3631.303711
992.427734	3544.588867
991.238281	3424.311035
990.046875	3568.568115
988.855469	3484.006592
987.664063	3365.898926
986.472656	3447.149170
985.281250	3387.823975
984.089844	3374.661133
982.896484	3401.345703
981.705078	3274.965820
980.511719	3395.991211
979.318359	3372.355713
978.126953	3300.530029
976.933594	3358.632080
975.740234	3257.504883
974.546875	3236.003418
973.351563	3245.920898
972.158203	3241.178711
970.964844	3230.157715
969.769531	3265.187744
968.574219	3339.967285
967.380859	3155.269287
966.185547	3158.914063
964.990234	3288.055664
963.794922	3222.663818
962.599609	3117.566650
961.402344	3179.750732
960.207031	3112.320313
959.009766	3141.046143
957.814453	3217.820313
956.617188	3175.487305
955.419922	3074.683105
954.222656	3120.102539
953.025391	3056.927002
951.828125	3091.895264
950.630859	3105.977783
949.433594	2988.574951
948.234375	3088.222412
947.037109	3108.556885
945.837891	2972.440186
944.638672	2967.760498
943.441406	2983.934570
942.242188	2962.575439
941.042969	3057.955566
939.841797	2946.972900
938.642578	3017.317383
937.443359	2968.882080
936.242188	3043.364746
935.042969	2986.610596
933.841797	2965.275879
932.640625	3020.982422
931.439453	2945.526123
930.238281	2951.265869
929.037109	2957.003662
927.835938	2993.947754
926.634766	2916.467285
925.431641	2880.610352
924.230469	2853.083496
923.027344	2950.315186
921.824219	2924.864502
920.623047	2845.383057
919.419922	2807.490479
918.216797	2842.331055
917.011719	2818.993164
915.808594	2822.664551
914.605469	2840.871094
913.400391	2724.111572
912.197266	2829.518311
910.992188	2721.102783
909.787109	2720.636719
908.582031	2801.091064
907.376953	2732.151855
906.171875	2737.906494
904.966797	2613.008545
903.761719	2635.368896
902.554688	2695.037354
901.349609	2590.938232
900.142578	2638.159180
898.935547	2672.931885
897.728516	2664.187256
896.521484	2624.375244
895.314453	2671.558105
894.107422	2619.334717
892.900391	2666.501709
891.693359	2539.780273
890.484375	2582.805664
889.275391	2611.331787
888.068359	2596.402100
886.859375	2531.833740
885.650391	2537.604248
884.441406	2613.677002
883.232422	2507.790039
882.023438	2466.018799
880.812500	2533.797607
879.603516	2591.221436
878.392578	2439.958252
877.183594	2542.822510
875.972656	2513.472412
874.761719	2504.781494
873.550781	2504.351807
872.339844	2479.151367
871.128906	2476.662354
869.916016	2422.585693
868.705078	2527.392090
867.494141	2543.461182
866.281250	2454.338623
865.068359	2569.395996
863.855469	2463.805420
862.642578	2479.873779
861.429688	2440.288330
860.216797	2454.294434
859.003906	2392.062988
857.791016	2517.312012
856.576172	2428.315430
855.363281	2464.965820
854.148438	2417.187500
852.933594	2455.885498
851.718750	2430.765381
850.503906	2415.942871
849.289063	2376.435303
848.074219	2330.769775
846.859375	2398.244385
845.642578	2391.663330
844.427734	2432.374756
843.210938	2421.678467
841.994141	2355.489746
840.777344	2394.131104
839.560547	2377.282471
838.343750	2296.754883
837.126953	2366.196045
835.910156	2334.985107
834.691406	2338.690674
833.474609	2289.018555
832.255859	2261.941895
831.039063	2429.835938
829.820313	2392.484863
828.601563	2396.176758
827.382813	2379.355713
826.164063	2331.778320
824.943359	2355.983154
823.724609	2308.425781
822.505859	2314.178467
821.285156	2307.632568
820.064453	2381.001953
818.845703	2388.787598
817.625000	2339.216553
816.404297	2404.350586
815.183594	2356.841309
813.960938	2362.578125
812.740234	2323.280029
811.519531	2365.859131
810.296875	2416.608398
809.074219	2408.009521
807.853516	2462.824951
806.630859	2405.136230
805.408203	2439.484863
804.185547	2437.020996
802.962891	2346.660156
801.738281	2360.563232
800.515625	2421.459961
799.291016	2419.000488
798.068359	2451.268066
796.843750	2459.015869
795.619141	2440.214844
794.394531	2496.961914
793.169922	2467.953857
791.945313	2520.594482
790.720703	2460.982910
789.496094	2487.083008
788.269531	2498.894531
787.042969	2533.137207
785.818359	2493.956299
784.591797	2440.516846
783.365234	2519.598633
782.138672	2476.363770
780.912109	2553.374268
779.685547	2394.013184
778.457031	2436.380371
777.230469	2480.769775
776.001953	2439.614502
774.775391	2500.276367
773.546875	2465.239014
772.318359	2534.016602
771.089844	2470.495361
769.861328	2569.768066
768.632813	2465.575928
767.402344	2483.457031
766.173828	2503.365479
764.943359	2507.000977
763.714844	2520.799561
762.484375	2552.886230
761.253906	2568.704346
760.023438	2523.561035
758.792969	2476.401855
757.562500	2559.252686
756.332031	2599.427734
755.099609	2611.162842
753.869141	2484.846436
752.636719	2594.025146
751.404297	2524.578613
750.173828	2611.392822
748.941406	2513.565186
747.708984	2578.039307
746.474609	2695.219482
745.242188	2672.450928
744.009766	2665.908447
742.775391	2673.556885
741.542969	2636.617188
740.308594	2656.425293
739.074219	2698.511475
737.839844	2700.072021
736.605469	2736.060303
735.371094	2788.235107
734.136719	2775.607178
732.900391	2734.645508
731.666016	2831.317139
730.429688	2812.617676
729.195313	2874.849365
727.958984	2874.353760
726.722656	2928.463379
725.486328	2847.075684
724.250000	2836.476074
723.013672	2910.777588
721.775391	2900.170410
720.539063	2972.414551
719.300781	2982.003418
718.064453	2973.409180
716.826172	2815.365234
715.587891	3028.923340
714.349609	2876.980713
713.111328	2973.376465
711.873047	3083.866455
710.632813	2962.261230
709.394531	3058.592041
708.154297	3076.218994
706.916016	3065.603760
705.675781	3028.777832
704.435547	3072.610352
703.195313	3078.127441
701.955078	3111.858887
700.714844	3163.714600
699.472656	3183.315918
698.232422	3180.752197
696.990234	3210.413818
695.750000	3066.885986
694.507813	3124.744141
693.265625	3178.556152
692.023438	3184.045410
690.781250	3213.680420
689.539063	3333.843994
688.296875	3272.919434
687.052734	3324.647461
685.810547	3301.953125
684.566406	3247.096924
683.322266	3310.863770
682.080078	3392.697510
680.835938	3343.882324
679.589844	3421.663574
678.345703	3415.045898
677.101563	3404.413330
675.857422	3405.833496
674.611328	3513.666748
673.365234	3539.156494
672.121094	3508.438232
670.875000	3505.825195
669.628906	3539.328613
668.382813	3592.881104
667.136719	3544.122559
665.888672	3601.666260
664.642578	3474.726563
663.396484	3602.426025
662.148438	3667.946533
660.900391	3611.200684
659.652344	3666.678467
658.404297	3664.041260
657.156250	3701.464111
655.908203	3712.839844
654.660156	3612.084717
653.412109	3777.619141
652.162109	3714.917236
650.912109	3716.276123
649.664063	3767.656250
648.414063	3823.019775
647.164063	3704.347412
645.914063	3759.702393
644.664063	3737.057617
643.412109	3752.404297
642.162109	3805.722900
640.912109	3747.109375
639.660156	3804.406250
638.408203	3785.768311
637.156250	3874.997314
635.906250	3786.455322
634.652344	3835.718506
633.400391	3819.083740
632.148438	3770.517822
630.896484	3885.615723
629.642578	3803.133789
628.390625	3778.535645
627.136719	3767.908447
625.882813	3860.988770
624.628906	3758.628174
623.375000	3761.964844
622.121094	3781.246338
620.867188	3810.485840
619.611328	3959.270020
618.357422	3797.212891
617.101563	3890.174561
615.845703	3927.340576
614.591797	3882.854004
613.335938	3874.218018
612.080078	4010.892822
610.822266	3954.473389
609.566406	3878.175049
608.310547	3907.345703
607.052734	4043.919434
605.796875	4041.230225
604.539063	4030.587891
603.281250	4041.818359
602.023438	4043.105713
600.765625	4088.115967
599.507813	3990.041016
598.250000	4052.925049
596.990234	4209.146973
595.732422	4119.045898
594.472656	4136.203613
593.212891	4320.124512
591.955078	4144.694824
590.695313	4247.179199
589.435547	4236.521484
588.173828	4265.546875
586.914063	4229.102051
585.654297	4281.917480
584.392578	4302.987793
583.132813	4145.616211
581.871094	4394.661621
580.609375	4322.551270
579.347656	4420.879883
578.085938	4366.620117
576.824219	4353.978027
575.562500	4418.580566
574.298828	4576.229980
573.037109	4464.564453
571.773438	4442.015625
570.509766	4488.745117
569.248047	4458.284180
567.984375	4449.597168
566.718750	4395.415527
565.455078	4507.387207
564.191406	4558.018555
562.927734	4497.915039
561.662109	4647.368164
560.396484	4565.528809
559.132813	4639.827637
557.867188	4631.119629
556.601563	4738.962402
555.335938	4663.087891
554.070313	4678.076172
552.802734	4801.649414
551.537109	4721.854980
550.269531	4726.956543
549.003906	4767.576172
547.736328	4802.262207
546.468750	4823.127441
545.201172	4891.320801
543.933594	4886.527832
542.666016	4785.126953
541.396484	4985.366211
540.128906	4915.518066
538.859375	5090.047363
537.591797	5012.323242
536.322266	5023.272461
535.052734	5174.056641
533.783203	5161.342773
532.513672	5233.294922
531.244141	5289.473633
529.972656	5302.332520
528.703125	5437.193359
527.431641	5371.320801
526.162109	5395.960938
524.890625	5459.928711
523.619141	5490.443848
522.347656	5593.695801
521.076172	5641.869141
519.804688	5574.062988
518.531250	5724.408691
517.259766	5798.075684
515.986328	5857.965820
514.712891	5909.978027
513.441406	5891.277344
512.167969	5945.229004
510.894531	6005.050781
509.621094	6000.081055
508.345703	6055.947754
507.072266	6005.843262
505.796875	5983.220215
504.523438	6115.553223
503.248047	6192.931152
501.972656	6174.208008
500.697266	6098.641113
499.421875	6042.700195
498.146484	6247.414063
496.871094	6328.619141
495.593750	6398.041992
494.318359	6259.823730
493.041016	6321.400879
491.765625	6292.889648
490.488281	6356.396484
489.210938	6220.237793
487.933594	6174.145996
486.654297	6176.985352
485.376953	6166.128906
484.099609	6333.265137
482.820313	6205.050293
481.541016	6190.283691
480.263672	6193.116211
478.984375	6266.311523
477.705078	6357.069336
476.425781	6184.021484
475.146484	6220.062012
473.865234	6115.459961
472.585938	5878.099609
471.304688	5939.557129
470.023438	5932.666504
468.744141	5992.140137
467.462891	5834.977051
466.181641	5867.130859
464.900391	5733.453613
463.617188	5855.334961
462.335938	5834.813965
461.054688	5933.237793
459.771484	5661.229492
458.488281	5763.546875
457.205078	5748.901367
455.921875	5720.621582
454.638672	5758.586914
453.355469	5590.076172
452.072266	5707.895020
450.789063	5601.758301
449.503906	5832.444824
448.218750	5660.145020
446.935547	5443.145508
445.650391	5714.598633
444.365234	5554.080566
443.080078	5523.937012
441.794922	5627.988770
440.507813	5638.673828
439.222656	5552.153809
437.935547	5582.285156
436.650391	5458.880371
435.363281	5510.390137
434.076172	5445.321289
432.789063	5539.546387
431.501953	5466.726563
430.214844	5364.807129
428.925781	5513.353516
427.638672	5535.683594
426.349609	5429.923828
425.062500	5491.066406
423.773438	5534.728027
422.484375	5436.781250
421.195313	5412.561523
419.906250	5551.221680
418.615234	5459.138672
417.326172	5467.877441
416.037109	5350.647461
414.746094	5398.153809
413.455078	5439.832031
412.164063	5392.396484
410.873047	5405.011719
409.582031	5315.000977
408.291016	5337.304688
407.000000	5415.731445
405.707031	5426.397949
404.416016	5249.375000
403.123047	5318.103027
401.832031	5299.766602
400.539063	5360.725586
399.246094	5249.577637
397.953125	5258.327637
396.658203	5149.168457
395.365234	5327.995117
394.072266	5151.234863
392.777344	5132.948730
391.482422	5240.217773
390.187500	5162.055176
388.894531	5165.015625
387.597656	5119.711914
386.302734	5159.351074
385.007813	5046.519531
383.712891	5037.919922
382.416016	5237.672852
381.121094	5259.903809
379.824219	5160.631836
378.527344	5163.586914
377.230469	5214.735352
375.933594	5188.767090
374.636719	5139.682129
373.337891	5021.249023
372.041016	5128.253418
370.742188	5254.481934
369.445313	5163.051270
368.146484	5050.472656
366.847656	5038.039063
365.548828	5216.163086
364.250000	5128.651367
362.951172	5214.339844
361.650391	5115.315918
360.351563	5274.066895
359.050781	5063.526855
357.751953	5128.015137
356.451172	5144.420410
355.150391	5083.936035
353.849609	5148.386719
352.548828	5178.229004
351.246094	5223.429688
349.945313	5122.637207
348.642578	5177.433105
347.341797	5113.165039
346.039063	5338.800293
344.736328	5109.457031
343.433594	5158.458984
342.130859	5071.213379
340.828125	5152.817383
339.523438	5240.146484
338.220703	5053.209961
336.916016	5107.930176
335.613281	5197.138184
334.308594	5200.062012
333.003906	5153.158691
331.699219	5089.027344
330.394531	5044.075195
329.089844	5154.284180
327.783203	5057.629883
326.478516	5077.806152
325.171875	5086.489258
323.865234	4970.756348
322.558594	5056.002930
321.251953	5060.857422
319.945313	5031.275879
318.638672	4917.545898
317.332031	5012.302734
316.023438	4929.208008
314.716797	4930.256348
313.408203	4961.885742
312.099609	4873.109863
310.791016	4969.701172
309.482422	4934.444336
308.173828	4868.639160
306.865234	4812.405762
305.556641	5017.772461
304.246094	4999.711914
302.935547	4893.858398
301.626953	4856.742676
300.316406	4951.291992
299.005859	4866.486816
297.695313	4873.263184
296.384766	4880.037109
295.072266	4877.275391
293.761719	4969.831055
292.449219	4826.009277
291.138672	4935.692383
289.826172	4858.613770
288.513672	4951.107422
287.201172	4860.719727
285.888672	5000.788574
284.574219	4912.327637
283.261719	4810.571777
281.947266	4832.568359
280.634766	4900.229004
279.320313	4876.537598
278.005859	4881.389160
276.691406	4943.299316
275.376953	4853.053711
274.062500	4825.583984
272.748047	4832.341309
271.431641	4761.168945
270.117188	4845.848633
268.800781	4922.898438
267.484375	4918.235352
266.167969	4866.090820
264.851563	4944.994629
263.535156	4925.140625
262.218750	4861.631348
260.900391	4838.001953
259.583984	4903.571289
258.265625	4794.562500
256.947266	4922.717285
255.630859	4870.643066
254.312500	4782.556641
252.994141	4806.365234
251.673828	4919.261719
250.355469	4855.852051
249.035156	4980.069336
247.716797	4941.301758
246.396484	4893.075684
245.076172	4913.050293
243.755859	4950.061035
242.435547	4998.418945
241.115234	5010.791992
239.794922	4903.921875
238.474609	4920.091797
237.152344	5021.395996
235.830078	5071.589355
234.509766	5017.740723
233.187500	4967.692871
231.865234	5095.386719
230.542969	5032.109863
229.218750	5050.125977
227.896484	5119.156738
226.572266	4938.768555
225.250000	5109.801758
223.925781	4991.805176
222.601563	5072.126953
221.277344	5020.258789
219.953125	5132.638184
218.628906	4990.183594
217.304688	4983.645508
215.978516	5097.857910
214.654297	4917.756836
213.328125	5020.624512
212.001953	5078.198242
210.675781	4915.163574
209.349609	5046.251953
208.023438	5007.670410
206.697266	5070.858887
205.371094	4975.764648
204.042969	5148.191406
202.714844	5075.717285
201.388672	5167.094238
200.060547	5109.703613
198.732422	5174.688477
197.404297	5096.613770
196.076172	5082.544922
194.746094	5083.532227
193.417969	5244.409180
192.087891	5153.211426
190.757813	5306.497559
189.429688	5318.724121
188.099609	5381.699707
186.769531	5305.576172
185.437500	5317.795898
184.107422	5369.464844
182.777344	5394.817383
181.445313	5459.601074
180.113281	5370.385254
178.783203	5410.743164
177.451172	5409.790527
176.119141	5384.440430
174.787109	5507.336914
173.453125	5433.199219
172.121094	5353.459961
170.787109	5532.559570
169.455078	5415.328613
168.121094	5474.367676
166.787109	5495.896973
165.453125	5530.537598
164.119141	5572.660645
162.785156	5466.765137
161.451172	5508.883789
160.115234	5455.475098
158.779297	5506.942871
157.445313	5554.648438
156.109375	5506.874512
154.773438	5522.747559
153.437500	5568.553223
152.101563	5565.701172
150.763672	5609.611816
149.427734	5584.311035
148.089844	5568.368164
146.753906	5511.301758
145.416016	5628.088379
144.078125	5707.456543
142.740234	5734.478027
141.402344	5761.490234
140.064453	5728.720703
138.724609	5882.715332
137.386719	5950.764648
136.046875	5819.034180
134.707031	5930.000488
133.367188	5968.145508
132.027344	6049.191895
130.687500	6079.839355
129.347656	6145.915039
128.007813	6079.559570
126.666016	6205.277832
125.326172	6110.971191
123.984375	6199.360840
122.642578	6367.853027
121.300781	6130.096191
119.958984	6183.039551
118.617188	6293.704102
117.273438	6199.480469
115.931641	6323.136230
114.587891	6314.573730
113.246094	6240.869629
111.902344	6263.960449
110.558594	6313.091309
109.214844	6330.580078
107.871094	6433.620605
106.525391	6519.887695
105.181641	6502.002930
103.835938	6337.264648
102.492188	6382.612305
101.146484	6379.626953
99.800781	6506.702148
98.455078	6676.458496
97.109375	6452.398926
95.763672	6687.099609
94.416016	6802.889648
93.070313	6844.384277
91.722656	6739.237793
90.375000	6676.809570
89.027344	6785.096680
87.679688	6696.710938
86.332031	6886.563965
84.984375	7022.571777
83.636719	7047.288086
82.287109	6923.696289
80.937500	6813.122070
79.589844	6893.453613
78.240234	7058.982910
76.890625	7104.045898
75.541016	7075.008789
74.189453	7016.353516
72.839844	7165.080078
71.490234	7071.257813
70.138672	6897.884277
68.787109	6955.879883
67.435547	6888.044922
66.085938	6779.538574
64.732422	6870.813477
63.380859	6730.912598
62.029297	6744.512695
60.675781	6717.440918
59.324219	6732.886719
57.970703	6380.605469
56.617188	6168.859863
55.263672	5959.036133
53.910156	5784.376953
52.556641	5753.809082
51.203125	5667.865723
