#Wave		#Intensity
4002.114258	4148.627441
4001.416016	4345.499512
4000.717773	4280.380371
4000.018555	4276.114258
3999.320313	4393.493164
3998.621094	4285.471191
3997.921875	4288.359375
3997.223633	4144.628418
3996.524414	4304.858398
3995.824219	4264.842773
3995.125000	4282.028809
3994.425781	4392.126953
3993.725586	4316.384277
3993.026367	4408.578125
3992.326172	4322.141602
3991.625977	4321.446777
3990.925781	4324.323242
3990.225586	4202.238281
3989.525391	4208.702637
3988.825195	4222.302734
3988.125000	4335.818848
3987.423828	4270.897949
3986.723633	4316.588379
3986.022461	4301.627441
3985.321289	4315.201172
3984.620117	4275.285156
3983.918945	4320.944824
3983.217773	4288.169922
3982.516602	4358.760742
3981.814453	4258.284668
3981.113281	4264.726074
3980.411133	4210.606934
3979.708984	4320.342773
3979.006836	4312.526855
3978.304688	4276.228027
3977.602539	4339.621094
3976.900391	4342.483398
3976.198242	4256.373535
3975.495117	4305.505371
3974.792969	4194.524902
3974.089844	4154.722656
3973.386719	4228.743164
3972.683594	4199.615723
3971.980469	4262.938477
3971.277344	4301.356934
3970.574219	4226.026367
3969.870117	4246.669922
3969.166992	4324.156250
3968.462891	4312.804199
3967.759766	4425.774902
3967.055664	4247.493164
3966.351563	4381.743164
3965.647461	4274.530762
3964.943359	4266.745117
3964.238281	4251.863281
3963.534180	4297.311523
3962.829102	4275.333496
3962.125000	4224.982910
3961.419922	4426.474609
3960.714844	4390.300781
3960.009766	4322.227051
3959.304688	4360.529785
3958.599609	4221.590820
3957.893555	4288.249023
3957.188477	4276.930176
3956.482422	4332.928711
3955.777344	4332.232910
3955.071289	4274.869629
3954.365234	4387.500488
3953.659180	4177.900391
3952.953125	4131.209473
3952.246094	4247.348145
3951.540039	4303.288086
3950.833008	4192.909180
3950.126953	4439.878418
3949.419922	4198.636719
3948.712891	4321.744141
3948.005859	4324.586426
3947.298828	4203.685547
3946.591797	4171.196289
3945.884766	4156.389160
3945.176758	4357.146973
3944.469727	4278.716797
3943.761719	4320.421387
3943.053711	4344.452148
3942.345703	4350.817383
3941.637695	4244.190918
3940.929688	4218.796875
3940.221680	4285.185547
3939.513672	4273.909668
3938.804688	4156.777344
3938.095703	4082.019775
3937.387695	4070.781738
3936.678711	4137.140625
3935.969727	4266.953613
3935.260742	4216.906738
3934.551758	4339.614258
3933.841797	4300.145508
3933.132813	4369.937988
3932.422852	4365.712891
3931.713867	4287.505859
3931.003906	4152.964355
3930.293945	4349.522949
3929.583984	4278.398438
3928.874023	4235.462891
3928.164063	4326.307617
3927.453125	4255.220703
3926.743164	4307.323242
3926.032227	4299.594727
3925.322266	4281.314941
3924.611328	4206.763184
3923.900391	4332.692383
3923.189453	4156.185547
3922.478516	4190.674805
3921.766602	4193.517090
3921.055664	4157.698730
3920.344727	4185.143066
3919.632813	4296.900391
3918.920898	4285.672363
3918.208984	4207.713867
3917.497070	4140.315918
3916.785156	4385.432129
3916.073242	4272.389648
3915.361328	4194.482910
3914.648438	4155.205566
3913.936523	4400.161621
3913.223633	4238.072266
3912.510742	4370.687500
3911.797852	4068.365479
3911.084961	4267.591797
3910.372070	4074.071777
3909.659180	4360.871094
3908.945313	4237.497559
3908.232422	4268.356934
3907.518555	4229.129395
3906.804688	4245.967285
3906.091797	4245.285645
3905.377930	4251.608887
3904.663086	4177.393066
3903.949219	4488.313965
3903.235352	4064.037598
3902.520508	4332.877930
3901.806641	4234.200684
3901.091797	4331.487305
3900.376953	4309.802734
3899.662109	4025.801025
3898.947266	4255.963379
3898.232422	4153.880859
3897.517578	4240.613281
3896.802734	4348.290527
3896.086914	4050.530762
3895.372070	4343.400879
3894.656250	4195.967285
3893.940430	4135.910156
3893.224609	4271.458008
3892.508789	4249.820313
3891.792969	4266.596191
3891.076172	4175.147461
3890.360352	4223.342285
3889.643555	4288.971191
3888.927734	4235.944336
3888.210938	4221.309570
3887.494141	4182.263184
3886.777344	4206.004883
3886.060547	4097.232910
3885.342773	4208.141602
3884.625977	4123.805176
3883.909180	4161.482422
3883.191406	4272.327148
3882.473633	4167.115234
3881.755859	4114.191895
3881.038086	4231.957031
3880.320313	4199.935059
3879.602539	4160.959961
3878.884766	4215.994629
3878.166016	4302.339844
3877.448242	4145.036133
3876.729492	4335.756836
3876.010742	4286.352539
3875.291992	4163.913086
3874.573242	4236.284668
3873.854492	4141.712402
3873.135742	4370.526367
3872.416016	4248.151367
3871.697266	4209.235840
3870.977539	4187.708984
3870.257813	4141.865723
3869.539063	4203.736328
3868.819336	4157.904785
3868.099609	4143.345703
3867.378906	4382.282715
3866.659180	4350.332520
3865.938477	4221.193848
3865.218750	4355.878418
3864.498047	4247.601563
3863.777344	4278.147461
3863.056641	4294.807129
3862.335938	4224.746582
3861.615234	4283.025391
3860.894531	4216.456055
3860.173828	4222.713867
3859.452148	4294.830078
3858.730469	4145.111328
3858.009766	4089.002197
3857.288086	4355.128418
3856.566406	4247.041016
3855.844727	4211.724121
3855.122070	4249.142090
3854.400391	4206.910645
3853.678711	4244.316895
3852.956055	4240.174805
3852.233398	4398.691895
3851.510742	4515.635254
3850.788086	4255.433594
3850.065430	4289.342285
3849.342773	4299.030273
3848.620117	4326.004883
3847.896484	4228.501465
3847.173828	4207.082031
3846.450195	4171.843262
3845.727539	4437.272461
3845.003906	4319.081543
3844.280273	4162.926758
3843.555664	4172.621582
3842.832031	4161.591797
3842.108398	4223.079102
3841.383789	4087.754639
3840.660156	4308.023438
3839.935547	4227.950684
3839.210938	4386.010742
3838.486328	4216.243652
3837.761719	4232.815918
3837.037109	4321.815918
3836.312500	4221.112793
3835.586914	4192.851074
3834.862305	4230.101563
3834.136719	4277.680664
3833.411133	4294.226563
3832.685547	4293.538086
3831.959961	4310.076172
3831.234375	4378.279785
3830.508789	4384.466309
3829.782227	4277.010254
3829.056641	4197.132813
3828.330078	4258.425781
3827.603516	4364.444824
3826.876953	4188.231445
3826.150391	4098.096680
3825.423828	4455.234375
3824.697266	4255.012695
3823.970703	4264.647949
3823.243164	4136.732910
3822.516602	4235.775391
3821.789063	4372.599121
3821.061523	4141.617188
3820.333984	4219.992188
3819.606445	4250.238770
3818.878906	4232.380371
3818.151367	4266.050293
3817.422852	4186.377930
3816.695313	4141.068359
3815.966797	4209.067871
3815.238281	4071.087891
3814.509766	4173.397461
3813.781250	4220.769531
3813.052734	4165.197266
3812.324219	4147.377441
3811.595703	4194.730469
3810.866211	4122.041992
3810.136719	4189.956543
3809.408203	4220.138672
3808.678711	4157.764160
3807.949219	4239.348633
3807.219727	4300.347168
3806.489258	4251.693359
3805.759766	4206.480469
3805.030273	4205.806152
3804.299805	4301.014160
3803.569336	4156.523926
3802.839844	4268.825684
3802.109375	4333.173340
3801.378906	4130.569824
3800.647461	4263.351563
3799.916992	4303.720703
3799.186523	4364.600586
3798.455078	4261.301270
3797.723633	4202.487793
3796.993164	4232.583984
3796.261719	4269.506836
3795.530273	4374.774414
3794.798828	4343.317871
3794.066406	4421.205566
3793.334961	4167.701660
3792.602539	4047.487305
3791.871094	4033.178467
3791.138672	4295.448730
3790.406250	4223.066895
3789.673828	4208.736328
3788.941406	4330.924805
3788.208984	4190.325684
3787.476563	4210.124512
3786.743164	4209.449707
3786.010742	4290.630859
3785.277344	4269.482422
3784.543945	4367.675781
3783.810547	4332.885254
3783.077148	4182.217285
3782.343750	4297.416992
3781.610352	4303.542969
3780.875977	4118.883301
3780.142578	4360.070313
3779.408203	4246.981445
3778.673828	4236.084961
3777.939453	4272.857422
3777.205078	4251.748047
3776.470703	4380.402344
3775.736328	4294.624512
3775.000977	4365.388184
3774.266602	4255.826172
3773.531250	4438.819336
3772.795898	4346.285156
3772.061523	4287.783203
3771.326172	4287.095703
3770.589844	4266.013672
3769.854492	4353.695313
3769.119141	4349.599121
3768.382813	4440.636719
3767.647461	4239.500000
3766.911133	4215.044922
3766.174805	4373.978516
3765.438477	4268.020020
3764.702148	4396.340820
3763.965820	4236.103516
3763.229492	4320.268555
3762.492188	4360.294922
3761.755859	4149.250000
3761.018555	4341.936523
3760.281250	4307.324707
3759.543945	4157.428223
3758.806641	4434.783203
3758.069336	4362.883301
3757.332031	4145.261230
3756.593750	4466.540039
3755.856445	4357.397461
3755.118164	4438.006348
3754.379883	4396.647949
3753.641602	4338.369629
3752.903320	4283.495605
3752.165039	4259.109863
3751.426758	4380.290039
3750.688477	4206.976563
3749.949219	4321.357910
3749.210938	4303.748047
3748.471680	4127.147461
3747.732422	4427.516602
3746.993164	4305.061035
3746.253906	4304.371094
3745.514648	4367.915527
3744.774414	4242.147949
3744.035156	4376.654297
3743.294922	4359.057617
3742.554688	4311.059082
3741.815430	4465.757324
3741.075195	4302.922363
3740.334961	4295.479004
3739.593750	4277.908203
3738.853516	4530.412598
3738.113281	4347.419434
3737.372070	4248.854004
3736.630859	4406.762207
3735.890625	4338.582031
3735.149414	4425.588867
3734.408203	4259.621582
3733.666016	4387.077637
3732.924805	4214.426270
3732.183594	4416.010742
3731.441406	4391.709961
3730.699219	4417.965332
3729.958008	4501.492188
3729.215820	4362.648438
3728.473633	4318.161133
3727.731445	4381.456543
3726.988281	4448.099121
3726.246094	4464.219727
3725.502930	4443.307617
3724.760742	4378.648926
3724.017578	4371.217285
3723.274414	4447.900879
3722.531250	4329.448730
3721.788086	4470.019531
3721.044922	4462.577637
3720.300781	4579.545410
3719.557617	4356.930664
3718.813477	4396.567871
3718.070313	4493.325195
3717.326172	4509.406250
3716.582031	4300.383789
3715.837891	4340.004395
3715.092773	4372.895020
3714.348633	4593.826172
3713.604492	4492.364258
3712.859375	4488.287598
3712.114258	4584.905273
3711.369141	4624.441406
3710.624023	4606.923828
3709.878906	4559.217773
3709.133789	4508.172852
3708.388672	4598.001953
3707.642578	4557.026855
3706.897461	4737.341309
3706.151367	4619.257324
3705.405273	4692.252441
3704.659180	4708.255859
3703.913086	4640.490723
3703.166992	4576.097168
3702.420898	4575.364258
3701.673828	4487.559082
3700.927734	4704.484863
3700.180664	4683.644043
3699.433594	4662.810059
3698.687500	4652.022461
3697.940430	4668.008301
3697.192383	4774.322754
3696.445313	4656.477051
3695.698242	4746.036133
3694.950195	4761.996094
3694.202148	4577.336914
3693.455078	4643.464355
3692.707031	4890.064453
3691.958984	4652.001953
3691.210938	4828.352051
3690.461914	4867.668945
3689.713867	4770.019043
3688.964844	4849.410156
3688.216797	4825.258301
3687.467773	4834.501465
3686.718750	4887.138184
3685.969727	4839.627930
3685.220703	4895.583984
3684.471680	4901.472656
3683.721680	4967.408691
3682.972656	5026.652344
3682.222656	4979.157227
3681.473633	4931.676758
3680.723633	4894.213379
3679.973633	4970.097168
3679.223633	4962.635254
3678.472656	4875.199707
3677.722656	5011.021973
3676.972656	5180.113770
3676.221680	5155.968750
3675.470703	5091.869141
3674.719727	5014.470703
3673.968750	5240.048340
3673.217773	5305.780762
3672.466797	5161.823730
3671.715820	5277.460449
3670.963867	5273.287598
3670.212891	5212.566406
3669.460938	5141.887207
3668.708984	5290.706055
3667.957031	5439.477051
3667.205078	5222.524414
3666.453125	5311.430176
3665.701172	5380.367676
3664.948242	5349.601074
3664.196289	5425.154785
3663.443359	5327.957031
3662.690430	5356.993652
3661.937500	5505.562500
3661.184570	5464.839844
3660.431641	5417.490723
3659.678711	5446.493652
3658.924805	5545.175293
3658.171875	5398.297363
3657.417969	5662.825684
3656.664063	5535.876953
3655.910156	5704.124023
3655.156250	5660.104492
3654.402344	5649.251953
3653.648438	5784.251953
3652.893555	5664.013184
3652.139648	5845.358887
3651.384766	5794.725098
3650.629883	5661.291016
3649.875000	5779.619629
3649.120117	5722.396973
3648.365234	5834.055664
3647.610352	5899.331543
3646.854492	5997.685547
3646.099609	5900.750977
3645.343750	6015.617676
3644.587891	5998.111816
3643.832031	5993.843262
3643.076172	6068.951660
3642.320313	6054.751953
3641.564453	6014.106934
3640.808594	6234.627930
3640.051758	6018.790527
3639.294922	6150.013184
3638.539063	6347.277344
3637.782227	6309.920410
3637.025391	6193.301270
3636.267578	6139.468262
3635.510742	6343.210938
3634.753906	6295.973633
3633.996094	6268.557129
3633.239258	6452.377930
3632.481445	6382.045898
3631.723633	6430.514160
3630.965820	6554.840820
3630.208008	6537.299316
3629.449219	6684.653320
3628.691406	6502.231934
3627.933594	6646.247070
3627.174805	6490.260254
3626.416016	6545.247070
3625.657227	6662.824707
3624.898438	6747.417480
3624.139648	6657.395996
3623.380859	6896.760742
3622.621094	6780.398926
3621.862305	6657.489258
3621.102539	6521.450684
3620.342773	6727.768555
3619.583984	6795.800781
3618.824219	6626.900879
3618.063477	6977.857422
3617.303711	6832.007324
3616.543945	6863.801270
3615.783203	6951.485840
3615.023438	6970.099121
3614.262695	6991.993164
3613.501953	7010.593750
3612.741211	6963.463379
3611.980469	6909.777344
3611.219727	7171.482422
3610.458008	7029.094727
3609.697266	7149.479980
3608.935547	7033.409668
3608.173828	7111.076172
3607.412109	7149.327148
3606.650391	7167.873535
3605.888672	7087.970215
3605.126953	7211.510254
3604.365234	7095.540527
3603.602539	7245.278809
3602.839844	6988.327637
3602.078125	7190.496094
3601.315430	7153.282715
3600.552734	7129.192383
3599.790039	7255.863281
3599.026367	7189.166016
3598.263672	7158.528809
3597.500000	7272.030762
3596.737305	7283.966797
3595.973633	7289.349121
3595.209961	7186.683594
3594.446289	7211.721191
3593.682617	7112.373535
3592.918945	7484.304199
3592.154297	7293.328125
3591.390625	7220.186523
3590.625977	7235.384766
3589.861328	7381.395996
3589.096680	7219.987305
3588.332031	7365.953613
3587.567383	7377.848633
3586.802734	7353.788574
3586.038086	7290.521484
3585.272461	7152.126953
3584.506836	7324.120605
3583.742188	7185.764160
3582.976563	7246.662109
3582.210938	7363.048828
3581.445313	7218.223145
3580.678711	7266.028809
3579.913086	7176.746582
3579.146484	7221.280762
3578.380859	7350.627441
3577.614258	7310.305176
3576.847656	7472.211426
3576.081055	7294.918945
3575.314453	7257.884766
3574.547852	7403.420898
3573.780273	7343.564941
3573.013672	7182.700195
3572.246094	7302.110840
3571.478516	7222.751465
3570.710938	7159.704590
3569.943359	7197.639648
3569.175781	7098.796875
3568.408203	7166.031250
3567.639648	7207.202148
3566.872070	7153.971191
3566.103516	7240.689453
3565.334961	7376.186035
3564.567383	7303.433594
3563.798828	7263.231445
3563.029297	7268.572266
3562.260742	7351.950195
3561.492188	7223.979004
3560.722656	7232.573242
3559.953125	7146.912598
3559.184570	7110.022949
3558.415039	7063.396973
3557.645508	7097.999023
3556.875000	7067.630371
3556.105469	6988.558594
3555.335938	7123.811035
3554.565430	7057.740723
3553.794922	6809.920898
3553.025391	6805.584473
3552.254883	6872.636719
3551.484375	6968.866211
3550.712891	7068.308105
3549.942383	7050.959473
3549.171875	7017.401855
3548.400391	7022.762207
3547.628906	7115.647949
3546.858398	7088.578125
3546.086914	7058.275879
3545.315430	7089.546875
3544.542969	7007.419434
3543.771484	7093.753906
3543.000000	6933.923828
3542.227539	7091.480957
3541.455078	6831.336914
3540.682617	7060.075195
3539.911133	7007.159180
3539.137695	6996.328125
3538.365234	6940.203125
3537.592773	7104.076660
3536.819336	6980.027832
3536.046875	7066.227051
3535.273438	6890.488281
3534.500000	7112.457031
3533.726563	6859.188965
3532.953125	6854.857910
3532.179688	6944.238281
3531.406250	6923.740723
3530.631836	6877.406738
3529.857422	6947.360840
3529.083984	6817.075195
3528.309570	6932.219727
3527.535156	6753.553711
3526.760742	6881.582031
3525.985352	6725.571777
3525.210938	6889.057617
3524.436523	6720.190918
3523.661133	6844.916016
3522.885742	6814.792969
3522.110352	6910.440430
3521.334961	6864.195313
3520.559570	6869.542969
3519.784180	6626.708984
3519.008789	6702.989746
3518.232422	6811.466309
3517.456055	6765.272949
3516.680664	6831.831055
3515.904297	6611.740723
3515.127930	6739.481445
3514.351563	6773.816406
3513.574219	6782.387695
3512.797852	6823.141113
3512.020508	6661.150391
3511.244141	6808.084961
3510.466797	6790.909668
3509.689453	6921.693848
3508.912109	6856.267090
3508.134766	6620.446777
3507.356445	6580.807617
3506.579102	6412.607422
3505.800781	6729.748535
3505.023438	6371.993164
3504.245117	6759.720215
3503.466797	6716.877441
3502.688477	6731.860352
3501.910156	6746.837891
3501.130859	6784.285645
3500.352539	6616.267090
3499.573242	6685.820313
3498.794922	6553.172363
3498.015625	6795.981934
3497.236328	6551.072266
3496.457031	6787.388672
3495.677734	6744.608398
3494.897461	6381.179199
3494.118164	6752.065430
3493.337891	6674.049316
3492.557617	6612.083008
3491.777344	6691.137695
3490.998047	6584.332031
3490.216797	6429.506836
3489.436523	6684.718750
3488.656250	6475.484375
3487.875000	6503.264648
3487.094727	6531.036133
3486.313477	6481.974609
3485.532227	6490.537598
3484.750977	6595.095703
3483.969727	6536.449219
3483.188477	6647.364258
3482.406250	6419.211914
3481.625000	6446.964355
3480.842773	6388.377930
3480.060547	6611.135742
3479.278320	6520.578125
3478.496094	6628.191895
3477.713867	6438.604980
3476.931641	6479.105957
3476.148438	6359.877930
3475.366211	6531.324219
3474.583008	6523.891113
3473.799805	6452.604492
3473.016602	6445.186035
3472.233398	6460.111816
3471.450195	6503.753906
3470.666992	6458.041504
3469.882813	6472.957520
3469.099609	6293.296875
3468.315430	6496.396973
3467.531250	6527.242676
3466.747070	6507.067871
3465.962891	6388.081055
3465.178711	6495.420898
3464.394531	6443.393555
3463.609375	6588.922852
3462.825195	6447.699707
3462.040039	6335.187500
3461.254883	6550.725098
3460.469727	6307.684570
3459.684570	6338.509277
3458.899414	6343.859863
3458.113281	6387.398926
3457.328125	6380.011230
3456.541992	6423.530273
3455.755859	6371.604492
3454.969727	6364.222168
3454.183594	6375.922363
3453.397461	6343.105469
3452.611328	6481.964355
3451.824219	6398.285156
3451.038086	6279.674805
3450.250977	6285.023438
3449.463867	6274.484863
3448.676758	6314.773438
3447.889648	6218.482910
3447.102539	6261.942383
3446.315430	6330.787109
3445.527344	6158.354492
3444.740234	6182.758301
3443.952148	6077.045898
3443.164063	6028.478516
3442.375977	6135.373047
3441.587891	6112.186523
3440.799805	6304.659668
3440.011719	6199.011230
3439.222656	6068.033691
3438.434570	6162.156250
3437.645508	6135.813965
3436.856445	6236.232422
3436.067383	6121.173828
3435.278320	6272.247559
3434.489258	6138.215820
3433.699219	6029.561035
3432.910156	6234.402832
3432.120117	6211.243164
3431.330078	6251.395996
3430.540039	6193.428223
3429.750000	6072.194336
3428.959961	6071.221191
3428.169922	6237.899414
3427.378906	6072.437500
3426.588867	6172.655273
3425.797852	6301.296387
3425.006836	6091.646484
3424.215820	6163.366211
3423.424805	5909.562988
3422.633789	6123.474121
3421.842773	6062.468262
3421.050781	6115.193848
3420.259766	6234.224121
3419.467773	6046.922852
3418.675781	6083.839355
3417.883789	5918.718262
3417.091797	6141.855957
3416.299805	5973.622559
3415.506836	5975.820313
3414.714844	6211.458984
3413.921875	6055.911621
3413.128906	5957.178711
3412.336914	6031.898438
3411.543945	5974.184570
3410.750000	5948.010254
3409.957031	5978.572754
3409.164063	6094.204590
3408.370117	6011.312500
3407.576172	6022.949219
3406.783203	5940.094727
3405.989258	6068.254395
3405.195313	5881.516113
3404.400391	5902.609863
3403.606445	5709.662598
3402.812500	5862.952637
3402.017578	5984.728027
3401.222656	6056.127441
3400.427734	5775.204102
3399.633789	5815.163574
3398.837891	6006.047363
3398.042969	5813.299316
3397.248047	5997.834961
3396.452148	5710.858887
3395.657227	5760.223633
3394.861328	5683.892090
3394.065430	5682.980957
3393.269531	5782.581543
3392.473633	5819.340332
3391.677734	5636.288086
3390.880859	5817.474609
3390.084961	5926.406738
3389.288086	5693.208496
3388.491211	5651.501953
3387.694336	5867.082031
3386.897461	5800.265137
3386.100586	5758.561035
3385.302734	5713.733887
3384.505859	5857.049316
3383.708008	5768.331543
3382.911133	5845.768066
3382.113281	5938.849609
3381.315430	5721.688965
3380.517578	5764.632813
3379.718750	5688.529785
3378.920898	5734.596680
3378.123047	5573.973633
3377.324219	5826.686523
3376.525391	5672.360352
3375.726563	5727.790039
3374.927734	5636.117676
3374.128906	5616.440430
3373.330078	5671.851563
3372.530273	5548.952637
3371.731445	5623.121582
3370.931641	5691.012207
3370.131836	5715.111328
3369.332031	5770.461426
3368.532227	5660.146484
3367.732422	5602.990234
3366.932617	5502.109863
3366.131836	5607.440918
3365.332031	5644.022949
3364.531250	5596.273926
3363.730469	5695.294434
3362.929688	5781.794922
3362.128906	5659.132324
3361.327148	5620.773926
3360.526367	5604.270508
3359.725586	5715.688477
3358.923828	5527.606934
3358.122070	5660.833984
3357.320313	5750.360352
3356.518555	5615.367676
3355.716797	5583.292969
3354.915039	5675.905273
3354.112305	5540.989258
3353.310547	5786.257813
3352.507813	5694.982910
3351.705078	5507.174316
3350.902344	5524.978027
3350.099609	5527.205566
3349.296875	5573.020508
3348.493164	5447.609863
3347.690430	5471.635742
3346.886719	5573.451660
3346.083008	5466.769531
3345.279297	5577.885742
3344.475586	5586.322754
3343.671875	5644.515137
3342.868164	5646.719238
3342.063477	5686.229980
3341.259766	5567.197754
3340.455078	5600.491699
3339.650391	5388.288086
3338.845703	5561.412109
3338.041016	5426.943848
3337.236328	5478.874023
3336.431641	5543.209473
3335.625977	5498.851563
3334.821289	5426.567383
3334.015625	5478.463867
3333.209961	5471.378418
3332.404297	5554.280273
3331.598633	5395.164551
3330.791992	5484.255859
3329.986328	5536.100586
3329.180664	5501.102051
3328.374023	5450.612305
3327.567383	5443.538086
3326.760742	5479.858887
3325.954102	5497.573730
3325.147461	5397.540527
3324.339844	5539.181641
3323.533203	5563.072754
3322.725586	5537.404785
3321.918945	5601.542480
3321.111328	5371.541016
3320.303711	5463.543945
3319.496094	5515.282715
3318.687500	5489.642090
3317.879883	5488.761230
3317.071289	5388.888672
3316.263672	5329.256836
3315.455078	5312.939453
3314.646484	5540.896484
3313.837891	5728.590332
3313.029297	5755.490723
3312.219727	5473.329102
3311.411133	5401.380371
3310.601563	5610.602539
3309.792969	5381.112793
3308.983398	5299.947754
3308.173828	5468.939941
3307.364258	5529.813965
3306.553711	5340.615723
3305.744141	5463.221680
3304.933594	5511.722656
3304.124023	5554.036133
3303.313477	5525.379395
3302.502930	5222.203613
3301.692383	5360.149902
3300.881836	5362.373535
3300.070313	5423.175293
3299.259766	5339.074707
3298.448242	5492.323730
3297.637695	5281.892578
3296.826172	5444.344238
3296.014648	5283.278320
3295.203125	5347.113281
3294.390625	5444.803711
3293.579102	5336.160156
3292.766602	5372.247559
3291.955078	5565.309570
3291.142578	5444.387695
3290.330078	5686.610840
3289.517578	5387.260742
3288.705078	5429.462891
3287.891602	5391.683105
3287.079102	5412.344238
3286.265625	5310.010742
3285.453125	5226.155273
3284.639648	5268.348633
3283.826172	5356.626465
3283.012695	5288.166992
3282.198242	5456.291504
3281.384766	5292.613281
3280.570313	5251.837891
3279.756836	5321.622559
3278.942383	5333.049316
3278.127930	5378.240234
3277.313477	5199.358887
3276.499023	5247.625000
3275.683594	5277.465820
3274.869141	5132.432617
3274.053711	5337.118652
3273.238281	5210.522461
3272.423828	5359.936035
3271.608398	5196.586914
3270.791992	5306.104980
3269.976563	5262.345703
3269.161133	5197.149414
3268.344727	5312.742188
3267.528320	5284.319336
3266.712891	5360.043457
3265.896484	5288.748047
3265.080078	5309.332520
3264.262695	5287.050293
3263.446289	5019.902344
3262.629883	5224.145020
3261.812500	5155.987793
3260.995117	5243.884277
3260.177734	5163.509766
3259.360352	5168.797852
3258.542969	5067.055176
3257.725586	5087.644531
3256.907227	5141.853516
3256.089844	5321.361816
3255.271484	5225.771484
3254.453125	5246.320801
3253.634766	5147.718262
3252.816406	5226.309570
3251.998047	5054.444336
3251.179688	5175.774902
3250.360352	5269.589355
3249.541992	5149.692871
3248.722656	5100.033203
3247.903320	5196.865234
3247.083984	5077.038086
3246.264648	5149.437988
3245.444336	5316.368164
3244.625000	5202.678223
3243.804688	5314.661133
3242.985352	4969.310059
3242.165039	5148.354004
3241.344727	5107.907715
3240.524414	5201.550293
3239.703125	5081.894043
3238.882813	5084.124512
3238.061523	5138.131348
3237.241211	5283.477539
3236.419922	5246.092285
3235.598633	5284.825195
3234.777344	5314.414551
3233.956055	5127.921387
3233.134766	5209.253418
3232.312500	5290.559082
3231.490234	5091.992188
3230.668945	5024.265625
3229.846680	5224.153809
3229.024414	5065.216797
3228.202148	5252.875000
3227.378906	5121.338379
3226.556641	5223.838379
3225.733398	4937.390625
3224.911133	5194.819824
3224.087891	5197.022949
3223.264648	5141.523926
3222.441406	5073.896484
3221.618164	5264.347168
3220.793945	5230.111328
3219.970703	5253.551270
3219.146484	5131.328125
3218.322266	5084.994141
3217.498047	5156.981934
3216.673828	4980.237793
3215.849609	5046.154297
3215.025391	5133.273438
3214.201172	5077.880859
3213.375977	5025.537109
3212.550781	4936.842773
3211.725586	5136.037109
3210.900391	5020.086914
3210.075195	5388.835449
3209.250000	5054.818359
3208.424805	5029.781250
3207.598633	5189.440430
3206.772461	5100.818359
3205.947266	5199.880371
3205.121094	5059.839355
3204.294922	5180.056152
3203.467773	5037.037109
3202.641602	5045.302734
3201.815430	5117.074707
3200.988281	5076.943848
3200.161133	5118.454590
3199.333984	5057.176270
3198.506836	5159.123047
3197.679688	5194.556641
3196.852539	5118.188477
3196.024414	5132.470703
3195.197266	5164.870605
3194.369141	5019.085449
3193.541016	5175.289063
3192.712891	5156.344238
3191.884766	5086.091797
3191.056641	5058.112793
3190.227539	5271.541504
3189.399414	5044.419922
3188.570313	5188.402344
3187.741211	5172.488770
3186.913086	5123.409180
3186.083008	5122.585938
3185.253906	5127.792480
3184.424805	5012.433105
3183.594727	5041.764160
3182.765625	5031.914551
3181.935547	5160.649902
3181.105469	5244.161133
3180.275391	5177.062012
3179.445313	5037.715332
3178.615234	5160.345215
3177.784180	5075.229980
3176.954102	5038.297852
3176.123047	4998.367676
3175.291992	5117.915527
3174.460938	5132.134766
3173.629883	5122.286621
3172.798828	5115.449219
3171.966797	5132.668457
3171.135742	5062.697754
3170.303711	5203.160156
3169.471680	5157.243164
3168.639648	4988.140137
3167.807617	4978.325195
3166.975586	5016.576660
3166.143555	5078.842773
3165.310547	5047.997070
3164.478516	4990.138672
3163.645508	5013.353027
3162.812500	5156.620605
3161.979492	4912.707520
3161.146484	5019.938477
3160.312500	5058.132813
3159.479492	5084.315918
3158.645508	5092.496582
3157.812500	5019.710938
3156.978516	5078.867188
3156.144531	5006.106934
3155.310547	4948.355957
3154.475586	4974.531250
3153.641602	5048.637207
3152.807617	5137.698242
3151.972656	4945.175781
3151.137695	5004.276855
3150.302734	4943.586426
3149.467773	5086.495117
3148.632813	4849.204102
3147.796875	4905.289063
3146.961914	5131.920898
3146.125977	4987.485352
3145.290039	4801.216309
3144.455078	4887.181641
3143.618164	4961.157227
3142.782227	4861.690918
3141.946289	5019.352539
3141.109375	4961.754395
3140.273438	5017.738770
3139.436523	4963.147461
3138.599609	4983.262695
3137.762695	5039.216309
3136.925781	5083.205566
3136.088867	4968.915527
3135.250977	5057.686523
3134.414063	5110.606445
3133.576172	4930.703613
3132.738281	4903.053223
3131.900391	5009.679199
3131.062500	4856.728027
3130.224609	5130.362305
3129.385742	4828.326172
3128.547852	4970.676758
3127.708984	4898.325684
3126.870117	4963.117188
3126.031250	4899.731445
3125.192383	5062.837891
3124.353516	4945.826660
3123.514648	4906.305176
3122.674805	4881.688965
3121.835938	4931.529785
3120.996094	4865.231934
3120.156250	4992.461426
3119.316406	4997.611816
3118.476563	4898.598145
3117.635742	4909.712891
3116.795898	4929.749023
3115.955078	4911.108887
3115.114258	4948.982910
3114.274414	4960.082031
3113.433594	4846.303223
3112.591797	4866.333008
3111.750977	4993.356445
3110.910156	4870.711426
3110.068359	4875.871094
3109.226563	4943.415527
3108.384766	4972.323730
3107.542969	4992.312988
3106.701172	4970.724609
3105.859375	4871.951660
3105.017578	4951.315430
3104.174805	4956.455078
3103.332031	4810.252441
3102.490234	4892.554688
3101.647461	4909.566895
3100.803711	4902.845215
3099.960938	4982.126465
3099.118164	5031.731445
3098.274414	5001.276367
3097.431641	4967.866699
3096.587891	4904.831055
3095.744141	4948.489746
3094.900391	4926.955078
3094.056641	5044.651367
3093.211914	4931.293945
3092.368164	4874.236816
3091.523438	4820.158691
3090.678711	4831.224609
3089.833984	4904.443359
3088.989258	4882.938965
3088.144531	4849.605469
3087.299805	5005.621094
3086.454102	4765.223633
3085.609375	4847.265625
3084.763672	4852.399902
3083.917969	4898.923340
3083.072266	4756.246094
3082.226563	4912.125000
3081.380859	4831.547852
3080.534180	4954.863770
3079.688477	4939.296387
3078.841797	5053.693848
3077.995117	4884.549805
3077.148438	4827.663086
3076.301758	4915.453125
3075.455078	4855.626953
3074.607422	4710.233398
3073.760742	4913.081055
3072.913086	4732.320801
3072.065430	4784.656738
3071.217773	4851.722168
3070.370117	4724.139160
3069.522461	4685.049316
3068.673828	4707.879395
3067.826172	4907.550293
3066.977539	4821.297363
3066.128906	5006.152832
3065.280273	4772.609375
3064.431641	4754.167480
3063.583008	4700.390625
3062.734375	4723.191406
3061.884766	4690.045898
3061.035156	4901.236328
3060.186523	4670.876953
3059.336914	4870.231934
3058.487305	4763.526367
3057.636719	4871.605957
3056.787109	4985.533691
3055.937500	4843.570801
3055.086914	4836.910645
3054.236328	4815.552734
3053.385742	4970.567383
3052.535156	4790.491211
3051.684570	4930.767578
3050.833984	4718.437500
3049.982422	4829.304199
3049.130859	4755.100586
3048.280273	4813.066895
3047.428711	4718.336426
3046.577148	4705.834473
3045.725586	4854.770996
3044.873047	4915.618164
3044.021484	4618.470215
3043.168945	4738.010742
3042.316406	4863.378906
3041.464844	4765.813477
3040.612305	4844.219238
3039.758789	4714.437500
3038.906250	4857.316895
3038.053711	4909.291504
3037.200195	4732.674316
3036.346680	4711.402832
3035.493164	4602.252441
3034.639648	4882.699219
3033.786133	4835.056152
3032.932617	4848.917969
3032.079102	4698.828613
3031.224609	4774.178223
3030.370117	4773.409668
3029.515625	4711.190918
3028.661133	4736.764160
3027.806641	4899.815918
3026.952148	4738.163574
3026.097656	4801.735840
3025.242188	4786.343262
3024.386719	4732.952148
3023.532227	4781.879395
3022.676758	4699.281250
3021.820313	4850.466797
3020.964844	4721.140137
3020.109375	4656.117188
3019.252930	4699.175781
3018.397461	4628.336914
3017.541016	4814.447266
3016.684570	4693.986816
3015.828125	4780.791504
3014.970703	4666.211426
3014.114258	4843.441895
3013.256836	4559.687012
3012.400391	4698.958984
3011.542969	4750.696289
3010.685547	4636.212891
3009.828125	4740.419922
3008.970703	4713.422363
3008.112305	4578.598633
3007.254883	4644.882813
3006.396484	4810.204590
3005.538086	4786.125977
3004.679688	4732.928711
3003.821289	4694.309082
3002.962891	4629.497070
3002.104492	4707.352539
3001.245117	4648.380859
3000.385742	4659.272949
2999.527344	4530.493164
2998.667969	4614.132813
2997.808594	4709.380371
2996.948242	4650.455078
2996.088867	4623.534668
2995.229492	4744.901367
2994.369141	4723.788574
2993.508789	4630.020508
2992.648438	4707.736816
2991.788086	4480.346191
2990.927734	4714.935059
2990.067383	4725.793945
2989.206055	4643.716797
2988.344727	4817.188965
2987.484375	4694.478516
2986.623047	4664.694824
2985.761719	4617.506836
2984.899414	4683.504395
2984.038086	4778.493652
2983.176758	4664.590332
2982.314453	4846.563965
2981.452148	4683.386719
2980.589844	4862.398926
2979.727539	4745.655762
2978.865234	4802.861328
2978.002930	4639.796387
2977.139648	4731.771484
2976.276367	4681.757813
2975.414063	4776.593262
2974.550781	4633.910156
2973.687500	4754.784180
2972.824219	4603.464355
2971.959961	4787.989258
2971.096680	4732.225586
2970.232422	4627.283691
2969.368164	4652.578613
2968.503906	4631.578613
2967.639648	4714.713379
2966.775391	4653.221680
2965.911133	4745.000488
2965.045898	4712.434082
2964.181641	4746.361816
2963.316406	4713.805664
2962.451172	4539.666016
2961.585938	4775.848633
2960.720703	4734.636719
2959.854492	4589.459961
2958.989258	4704.232422
2958.123047	4847.840820
2957.256836	4613.222656
2956.391602	4618.251953
2955.524414	4750.261230
2954.658203	4610.992188
2953.791992	4691.029297
2952.924805	4626.813477
2952.058594	4602.994629
2951.191406	4711.830078
2950.324219	4722.603027
2949.457031	4744.903320
2948.589844	4657.671875
2947.722656	4786.600098
2946.854492	4944.299316
2945.986328	4721.678711
2945.119141	4896.619629
2944.250977	4766.234375
2943.382813	4762.586914
2942.513672	4753.182129
2941.645508	4651.667969
2940.777344	4780.429688
2939.908203	4644.412598
2939.039063	4623.523926
2938.169922	4847.157227
2937.300781	4783.099609
2936.431641	4805.334473
2935.562500	4721.176758
2934.692383	4869.904785
2933.822266	4647.795898
2932.953125	4830.974121
2932.083008	4835.941895
2931.212891	4708.752930
2930.341797	4753.953125
2929.471680	4715.850098
2928.601563	4838.566406
2927.730469	4840.657227
2926.859375	4793.946289
2925.988281	4718.549316
2925.117188	4855.533691
2924.246094	4949.435547
2923.375000	4957.243652
2922.502930	4752.793945
2921.630859	4817.987793
2920.759766	4765.597656
2919.887695	4733.292969
2919.015625	4769.793457
2918.142578	4797.684082
2917.270508	4748.196289
2916.397461	4890.684082
2915.525391	4835.467285
2914.652344	4780.268555
2913.779297	4974.228516
2912.906250	4898.981934
2912.033203	4823.759766
2911.159180	4908.850586
2910.286133	4993.914063
2909.412109	4904.405762
2908.538086	4960.833008
2907.664063	4968.613770
2906.790039	4790.492676
2905.916016	4892.663086
2905.041992	4897.591797
2904.166992	4962.549805
2903.291992	4664.501465
2902.417969	4909.510254
2901.542969	4837.287109
2900.666992	4810.795898
2899.791992	4824.301270
2898.916992	4806.387695
2898.041016	4845.587402
2897.165039	4762.012695
2896.290039	4855.441895
2895.414063	4834.680176
2894.538086	4822.485840
2893.661133	4773.205078
2892.785156	4823.782227
2891.908203	4723.178223
2891.032227	4833.632324
2890.155273	4815.744629
2889.278320	4757.952148
2888.401367	4811.340332
2887.523438	4659.520996
2886.646484	4784.142578
2885.768555	4817.557617
2884.891602	4640.174316
2884.013672	4816.002930
2883.135742	4698.475586
2882.256836	4723.341309
2881.378906	4836.444336
2880.500977	4676.277344
2879.622070	4684.060059
2878.743164	4700.375488
2877.865234	4716.685547
2876.985352	4690.325195
2876.106445	4541.686035
2875.227539	4651.846191
2874.348633	4679.524902
2873.468750	4681.612305
2872.588867	4521.701660
2871.708984	4654.526367
2870.829102	4719.121094
2869.949219	4681.430664
2869.069336	4811.324707
2868.188477	4696.957520
2867.308594	4576.948730
2866.427734	4720.990723
2865.546875	4660.622559
2864.666016	4503.784180
2863.785156	4625.067871
2862.903320	4598.788086
2862.022461	4649.103516
2861.140625	4656.860840
2860.258789	4571.040039
2859.376953	4541.950195
2858.495117	4595.076172
2857.613281	4531.980469
2856.731445	4757.953125
2855.848633	4655.184082
2854.965820	4722.421875
2854.083984	4679.172852
2853.201172	4658.593262
2852.318359	4640.852051
2851.434570	4651.426758
2850.551758	4642.183594
2849.667969	4562.189941
2848.785156	4711.426270
2847.901367	4832.322266
2847.017578	4763.651367
2846.133789	4624.294434
2845.249023	4725.350586
2844.365234	4628.455566
2843.480469	4760.574219
2842.596680	4805.029297
2841.711914	4674.255371
2840.827148	4826.081543
2839.942383	4717.947754
2839.056641	4765.204590
2838.171875	4631.697266
2837.286133	4557.531738
2836.401367	4593.498047
2835.515625	4623.807129
2834.629883	4769.824219
2833.743164	4616.669434
2832.857422	4742.889648
2831.971680	4654.671875
2831.084961	4707.510742
2830.198242	4740.591309
2829.311523	4813.136230
2828.424805	4719.325195
2827.538086	4580.444824
2826.651367	4669.889648
2825.763672	4725.491699
2824.876953	4764.170898
2823.989258	4687.344727
2823.101563	4686.587402
2822.213867	4728.069824
2821.325195	4685.072754
2820.437500	4594.232422
2819.549805	4745.480469
2818.661133	4741.899414
2817.772461	4628.583984
2816.883789	4771.312988
2815.995117	4739.601074
2815.106445	4738.834961
2814.216797	4695.890625
2813.328125	4686.697266
2812.438477	4784.324707
2811.548828	4865.057617
2810.659180	4746.247070
2809.769531	4745.479980
2808.879883	4868.317383
2807.989258	4690.580078
2807.099609	4757.220703
2806.208984	4849.109863
2805.318359	4741.645996
2804.427734	4701.582520
2803.537109	4787.823242
2802.646484	4798.272949
2801.754883	4752.608398
2800.863281	4785.501465
2799.972656	4686.565430
2799.081055	4758.716797
2798.189453	4718.694824
2797.296875	4701.112305
2796.405273	4663.915527
2795.513672	4598.706543
2794.621094	4757.672852
2793.728516	4698.072754
2792.835938	4700.114258
2791.943359	4906.596191
2791.050781	4656.592773
2790.157227	4669.837891
2789.264648	4683.079102
2788.371094	4690.717773
2787.477539	4810.286621
2786.583984	4817.902344
2785.690430	4819.920410
2784.796875	4724.044922
2783.903320	4658.961426
2783.008789	4708.537109
2782.114258	4805.621094
2781.219727	4684.652832
2780.325195	4753.762695
2779.430664	4713.874512
2778.536133	4757.812500
2777.640625	4751.456543
2776.746094	4809.338379
2775.850586	4836.484863
2774.955078	4966.925293
2774.059570	4804.213867
2773.164063	4719.704590
2772.267578	4816.612793
2771.372070	4746.079102
2770.475586	4762.049805
2769.579102	4805.907715
2768.683594	4785.608887
2767.786133	4765.315918
2766.889648	4775.696777
2765.993164	4967.259277
2765.095703	4807.595703
2764.199219	4851.403320
2763.301758	4925.843262
2762.404297	4640.909180
2761.506836	4765.492676
2760.608398	4789.784180
2759.710938	4797.362305
2758.812500	4902.372559
2757.914063	4762.409180
2757.016602	4875.739746
2756.118164	4660.697754
2755.218750	4751.751465
2754.320313	4870.591797
2753.421875	4950.457031
2752.522461	4899.603516
2751.623047	4862.666992
2750.723633	4784.045898
2749.824219	4858.313965
2748.924805	4743.592773
2748.025391	4781.723633
2747.125000	4878.179688
2746.224609	4880.167969
2745.325195	4759.962402
2744.424805	4695.329102
2743.523438	4644.597168
2742.623047	4729.894043
2741.722656	4851.242188
2740.821289	4739.462402
2739.919922	4733.146484
2739.019531	4674.126953
2738.118164	4975.683594
2737.215820	4913.870605
2736.314453	4863.167969
2735.413086	4765.354980
2734.510742	4822.789551
2733.608398	4880.205566
2732.706055	4898.811523
2731.803711	4784.433105
2730.901367	4780.888672
2729.999023	4838.273438
2729.095703	4798.723633
2728.193359	4897.615723
2727.290039	4744.575684
2726.386719	5001.201660
2725.483398	4718.134277
2724.579102	4761.638672
2723.675781	4918.549316
2722.771484	4740.735840
2721.868164	4676.362793
2720.963867	4722.610840
2720.059570	4857.308594
2719.155273	4875.870605
2718.250000	4880.608398
2717.345703	4752.710938
2716.440430	4735.364746
2715.536133	4806.417969
2714.630859	4714.498047
2713.725586	4719.257324
2712.819336	4704.687988
2711.914063	4836.431152
2711.007813	4813.567383
2710.102539	4735.518066
2709.196289	4665.771484
2708.290039	4665.015625
2707.383789	4821.482422
2706.477539	4862.068848
2705.570313	4773.044922
2704.664063	4824.653809
2703.756836	4804.576660
2702.849609	4847.895508
2701.942383	4775.464355
2701.035156	4912.448730
2700.127930	4889.615234
2699.219727	4828.229004
2698.312500	4794.400879
2697.404297	4697.256348
2696.496094	4861.670898
2695.587891	4764.546387
2694.679688	4772.030273
2693.770508	4845.550293
2692.862305	4902.539063
2691.953125	4821.974609
2691.043945	4876.198242
2690.134766	4836.910645
2689.225586	4764.643555
2688.316406	4783.113770
2687.406250	4917.014160
2686.497070	4861.256836
2685.586914	4673.633301
2684.676758	4881.658203
2683.766602	4847.906738
2682.856445	4816.912598
2681.946289	4766.707520
2681.035156	4925.165527
2680.124023	4723.988770
2679.213867	4849.468750
2678.302734	4755.386230
2677.391602	4880.819824
2676.479492	4784.019043
2675.568359	4862.781738
2674.657227	4886.673340
2673.745117	4833.787109
2672.833008	4701.418945
2671.920898	4818.515625
2671.008789	4738.261230
2670.096680	4786.813477
2669.183594	4890.141113
2668.270508	4834.565918
2667.358398	4776.269531
2666.445313	4871.333984
2665.532227	4799.361328
2664.619141	4825.957031
2663.705078	4934.650879
2662.791992	4884.594238
2661.877930	4755.209473
2660.963867	4809.149902
2660.049805	4824.780762
2659.135742	4845.875977
2658.221680	4711.112305
2657.306641	4877.110352
2656.392578	4832.585938
2655.477539	4790.808105
2654.562500	4937.584961
2653.647461	4805.646973
2652.732422	4914.130859
2651.817383	4828.668457
2650.901367	4825.154785
2649.986328	4906.280273
2649.070313	4889.105469
2648.154297	4844.642578
2647.238281	4822.025391
2646.321289	4720.289063
2645.405273	4891.390625
2644.489258	4841.500000
2643.572266	4919.802734
2642.655273	4812.662598
2641.738281	4814.607910
2640.821289	4950.118652
2639.903320	4813.046387
2638.986328	4795.915527
2638.068359	4784.239746
2637.151367	4859.737305
2636.233398	4861.672852
2635.315430	4926.240234
2634.396484	4770.244629
2633.478516	4902.863770
2632.559570	5005.498535
2631.641602	4923.043945
2630.722656	4911.361328
2629.803711	4826.228027
2628.884766	4855.365723
2627.965820	4805.624512
2627.045898	5014.223633
2626.125977	4956.315918
2625.207031	5001.723145
2624.287109	4832.402832
2623.367188	4964.773438
2622.447266	4893.325684
2621.526367	4870.798828
2620.606445	4902.602051
2619.685547	4980.561035
2618.764648	4811.407715
2617.843750	4731.897461
2616.922852	4915.706055
2616.001953	5001.753418
2615.080078	5038.930664
2614.159180	4731.539063
2613.237305	4839.275391
2612.315430	4990.370605
2611.393555	4962.443359
2610.471680	4845.052734
2609.548828	5012.338379
2608.626953	4843.479980
2607.704102	4899.603027
2606.781250	4977.383301
2605.858398	4786.939941
2604.935547	5051.609375
2604.012695	5072.454590
2603.089844	4873.964844
2602.166016	4856.929688
2601.242188	5007.726074
2600.318359	4803.930176
2599.394531	5014.218262
2598.470703	4834.836914
2597.546875	4866.513672
2596.622070	4841.380859
2595.698242	4940.651855
2594.773438	4939.849609
2593.848633	5060.698730
2592.923828	4949.057129
2591.998047	4896.906250
2591.073242	4909.621094
2590.147461	4822.372070
2589.222656	4964.750977
2588.296875	4928.835449
2587.371094	5017.144531
2586.445313	4857.038086
2585.518555	4858.948730
2584.592773	4936.429688
2583.666016	5008.488770
2582.739258	4834.996582
2581.812500	4807.234375
2580.885742	4903.553711
2579.958984	4800.279297
2579.031250	4821.070313
2578.104492	4973.954102
2577.176758	5183.393066
2576.249023	4939.997559
2575.321289	5022.727539
2574.393555	5202.420410
2573.465820	5069.582520
2572.537109	4901.775391
2571.608398	4984.457520
2570.680664	5015.956543
2569.751953	4955.917969
2568.823242	4995.485840
2567.893555	4991.982910
2566.964844	4832.422852
2566.035156	4842.398438
2565.105469	4887.337891
2564.176758	4959.156250
2563.246094	4998.684082
2562.316406	4933.348145
2561.386719	4695.999512
2560.456055	4794.677246
2559.526367	4930.943359
2558.595703	4830.732910
2557.665039	4765.477051
2556.734375	5022.544434
2555.802734	5000.244629
2554.872070	5012.856934
2553.940430	4958.351074
2553.009766	5035.384277
2552.078125	4921.851563
2551.146484	4915.685059
2550.213867	5051.708984
2549.282227	4951.640137
2548.349609	4942.789551
2547.417969	5073.378906
2546.485352	5064.510742
2545.552734	4967.185547
2544.620117	4961.017578
2543.686523	4949.491699
2542.753906	4959.404297
2541.820313	4985.386719
2540.887695	5081.000000
2539.954102	5098.919922
2539.020508	4974.922852
2538.085938	5030.333496
2537.152344	5144.613770
2536.217773	4991.229980
2535.284180	4990.418457
2534.349609	5040.439453
2533.415039	5061.019043
2532.480469	5188.573242
2531.544922	5115.529297
2530.610352	4951.604492
2529.674805	4964.165039
2528.739258	4979.394531
2527.803711	4986.601563
2526.868164	4969.759277
2525.932617	4990.322754
2524.997070	5037.589844
2524.060547	5026.087891
2523.124023	5009.249023
2522.187500	5069.838379
2521.250977	5010.289063
2520.314453	5078.864746
2519.377930	4997.985352
2518.440430	5013.180176
2517.503906	5044.375488
2516.566406	5123.568848
2515.628906	5053.400879
2514.691406	5047.246582
2513.752930	5025.098633
2512.815430	5162.881836
2511.876953	5084.757813
2510.938477	4886.754883
2510.000000	4957.890137
2509.061523	4943.765137
2508.123047	5028.184082
2507.184570	5027.366211
2506.245117	4914.728516
2505.306641	5023.067871
2504.367188	4992.974121
2503.427734	5082.637695
2502.487305	5007.312988
2501.547852	5062.362305
2500.608398	5074.836914
2499.667969	4954.340820
2498.727539	4988.100586
2497.787109	5000.581055
2496.846680	4981.160645
2495.906250	4940.485840
2494.964844	4913.109863
2494.024414	4856.518555
2493.083008	5046.981934
2492.141602	4902.743164
2491.200195	5005.507324
2490.258789	4983.452637
2489.317383	5264.026367
2488.375000	5024.296387
2487.432617	5052.669434
2486.490234	5057.153320
2485.547852	5003.272949
2484.605469	4938.800293
2483.663086	5099.767090
2482.720703	5053.860352
2481.777344	5026.526367
2480.833984	5084.022949
2479.890625	5088.495605
2478.947266	5000.222656
2478.003906	4954.368652
2477.059570	5019.786133
2476.116211	5021.617188
2475.171875	4967.837402
2474.227539	5001.447754
2473.283203	5032.400391
2472.338867	5044.814453
2471.394531	5070.456543
2470.449219	5045.817383
2469.503906	5119.069824
2468.559570	5009.787598
2467.614258	5027.484375
2466.667969	5092.770996
2465.722656	5070.791016
2464.777344	4982.733887
2463.831055	5055.924316
2462.884766	4989.038086
2461.938477	4945.952637
2460.992188	5061.378906
2460.045898	5044.707031
2459.099609	5038.603516
2458.152344	4969.133301
2457.205078	5142.558594
2456.257813	5128.522949
2455.310547	4916.562988
2454.363281	4921.039063
2453.416016	4994.106934
2452.467773	5125.181152
2451.520508	5008.303223
2450.572266	5070.772949
2449.624023	5175.405762
2448.675781	5071.756348
2447.726563	5031.395508
2446.778320	5004.223633
2445.829102	5166.763184
2444.879883	5271.294434
2443.930664	5088.696289
2442.981445	5172.137695
2442.032227	5134.432129
2441.083008	5096.738770
2440.132813	5085.379395
2439.182617	5042.442383
2438.232422	5110.034668
2437.282227	5135.510742
2436.332031	5168.869629
2435.381836	5220.627930
2434.430664	5159.295898
2433.480469	5111.129395
2432.529297	5207.560059
2431.578125	5030.613281
2430.626953	5061.327637
2429.674805	5052.620117
2428.723633	5096.456055
2427.771484	5103.504883
2426.819336	5276.000977
2425.867188	5099.214844
2424.915039	5098.383301
2423.962891	5068.678223
2423.010742	5125.589844
2422.057617	5080.145508
2421.104492	4958.630859
2420.151367	4942.083008
2419.198242	5019.959473
2418.245117	4911.625488
2417.291992	4821.679688
2416.337891	4975.560547
2415.383789	4903.980469
2414.430664	4932.007324
2413.475586	4957.404785
2412.521484	4946.117188
2411.567383	4947.929688
2410.612305	4910.458008
2409.658203	4946.315430
2408.703125	4801.515625
2407.748047	4976.113281
2406.792969	4844.441406
2405.837891	4867.202148
2404.881836	4696.345703
2403.925781	4808.063965
2402.970703	4684.351074
2402.013672	4576.369141
2401.058594	4740.344727
2400.101563	4820.612305
2399.144531	4736.184082
2398.189453	4704.051270
2397.232422	4836.542969
2396.275391	4762.603516
2395.318359	4727.869629
2394.361328	4727.097656
2393.404297	4775.939941
2392.445313	4668.117676
2391.488281	4847.471680
2390.529297	4721.402832
2389.572266	4775.432129
2388.613281	4839.880371
2387.656250	4565.179688
2386.697266	4720.929199
2385.738281	4626.277344
2384.779297	4716.780762
2383.820313	4650.836914
2382.861328	4592.733398
2381.902344	4730.107910
2380.943359	4661.587891
2379.982422	4715.537598
2379.023438	4605.364258
2378.064453	4729.624512
2377.103516	4549.176758
2376.142578	4527.605469
2375.183594	4693.467285
2374.222656	4619.824707
2373.261719	4559.217773
2372.300781	4657.344238
2371.339844	4547.323242
2370.378906	4582.995117
2369.417969	4496.427246
2368.455078	4511.293945
2367.494141	4562.551758
2366.533203	4522.816895
2365.570313	4472.699219
2364.609375	4534.332031
2363.646484	4554.375977
2362.683594	4530.253418
2361.720703	4485.361328
2360.757813	4497.612305
2359.794922	4460.528809
2358.832031	4506.526855
2357.869141	4451.285156
2356.906250	4380.491211
2355.943359	4384.964844
2354.978516	4467.264160
2354.015625	4554.723633
2353.050781	4445.057617
2352.085938	4496.190430
2351.123047	4508.418457
2350.158203	4497.313477
2349.193359	4488.803711
2348.228516	4534.712891
2347.263672	4378.521484
2346.298828	4486.603516
2345.333984	4397.810547
2344.367188	4347.890137
2343.402344	4391.195313
2342.437500	4579.454590
2341.470703	4330.229492
2340.503906	4401.982422
2339.539063	4442.662109
2338.572266	4353.977051
2337.605469	4278.253418
2336.638672	4499.966309
2335.671875	4486.302246
2334.705078	4570.885254
2333.738281	4497.760254
2332.771484	4520.285645
2331.802734	4571.228027
2330.835938	4570.480957
2329.867188	4851.306152
2328.900391	4796.273926
2327.931641	4816.148926
2326.962891	4681.099609
2325.994141	4633.866699
2325.027344	4475.660645
2324.058594	4420.734375
2323.089844	4373.566406
2322.119141	4230.959473
2321.150391	4230.267578
2320.181641	4281.156250
2319.210938	4430.014160
2318.242188	4292.646973
2317.271484	4353.811035
2316.302734	4335.057617
2315.332031	4228.695801
2314.361328	4171.321777
2313.390625	4260.801758
2312.419922	4198.289551
2311.449219	4316.062988
2310.478516	4191.766602
2309.507813	4270.886719
2308.537109	4275.335938
2307.564453	4269.489746
2306.593750	4400.020020
2305.621094	4244.938965
2304.650391	4244.244629
2303.677734	4204.972656
2302.705078	4247.999023
2301.732422	4224.165039
2300.759766	4136.073730
2299.787109	4251.054688
2298.814453	4180.976074
2297.841797	4218.832031
2296.869141	4182.176758
2295.896484	4245.704590
2294.921875	4167.968262
2293.949219	4182.691895
2292.974609	4256.457031
2292.000000	4147.955078
2291.027344	4265.329590
2290.052734	4138.899414
2289.078125	4230.581543
2288.103516	4176.021973
2287.128906	4183.032715
2286.154297	4169.526367
2285.177734	4314.984375
2284.203125	4155.344727
2283.228516	4177.731445
2282.251953	4212.924316
2281.277344	4137.931152
2280.300781	4216.668945
2279.324219	4205.732910
2278.347656	4192.240234
2277.371094	4155.706543
2276.394531	4047.502441
2275.417969	4223.457031
2274.441406	4092.243896
2273.464844	4280.927734
2272.488281	4259.759277
2271.509766	4238.598145
2270.533203	4179.079590
2269.554688	4186.066895
2268.578125	4233.959473
2267.599609	4207.703125
2266.621094	4201.902344
2265.642578	4221.658203
2264.664063	4305.283691
2263.685547	4171.737305
2262.707031	4242.572266
2261.728516	4185.693848
2260.750000	4126.280273
2259.769531	4061.780273
2258.791016	4227.030762
2257.810547	4159.982910
2256.832031	4082.750244
2255.851563	4153.518066
2254.871094	4206.406250
2253.890625	4330.689941
2252.910156	4235.628418
2251.929688	4143.147949
2250.949219	4188.354980
2249.968750	4197.864258
2248.988281	4079.951172
2248.005859	4112.406250
2247.025391	4111.732422
2246.042969	4090.681641
2245.062500	4158.772461
2244.080078	4025.684082
2243.097656	4190.506348
2242.115234	4095.637695
2241.132813	4054.245850
2240.150391	4129.920410
2239.167969	4141.964355
2238.185547	4006.465088
2237.203125	4130.433594
2236.218750	4061.096924
2235.236328	4228.238770
2234.253906	4209.750977
2233.269531	4054.017090
2232.285156	4045.728760
2231.300781	4095.883057
2230.318359	4189.208496
2229.333984	4089.460205
2228.349609	4139.582520
2227.365234	4055.109863
2226.378906	4034.135010
2225.394531	4160.392090
2224.410156	4116.564941
2223.423828	4143.802734
2222.439453	3980.747559
2221.453125	4099.320313
2220.468750	4085.966553
2219.482422	4161.373047
2218.496094	4173.368164
2217.509766	4162.543457
2216.523438	4171.999512
2215.537109	4130.768066
2214.550781	4003.400635
2213.564453	4187.681152
2212.576172	4288.312988
2211.589844	3978.638428
2210.601563	4180.556641
2209.615234	4043.158203
2208.626953	4229.811523
2207.638672	4094.980713
2206.650391	4048.760498
2205.664063	4149.298828
2204.675781	4080.317871
2203.685547	4109.999023
2202.697266	4101.738770
2201.708984	4010.043213
2200.720703	4140.840820
2199.730469	4084.554688
2198.742188	4033.341553
2197.751953	4007.412354
2196.763672	4024.439209
2195.773438	4041.460449
2194.783203	4025.644287
2193.792969	4120.937012
2192.802734	4041.995850
2191.812500	4071.623779
2190.822266	4131.527832
2189.832031	4067.764160
2188.839844	4132.694824
2187.849609	3998.319092
2186.857422	4043.062256
2185.867188	4072.659912
2184.875000	3996.350830
2183.882813	4109.137207
2182.892578	3987.477539
2181.900391	4067.466553
2180.908203	4127.271973
2179.916016	4018.264893
2178.921875	3989.897705
2177.929688	4100.055176
2176.937500	4018.804443
2175.943359	4136.473633
2174.951172	4168.518555
2173.957031	4092.329834
2172.964844	4043.846436
2171.970703	4025.570557
2170.976563	4090.314453
2169.982422	4082.097412
2168.988281	4051.250244
2167.994141	4020.413086
2167.000000	4024.780762
2166.005859	4021.606201
2165.009766	3985.762695
2164.015625	4108.229492
2163.019531	4125.140625
2162.025391	4036.548096
2161.029297	4035.885254
2160.033203	4050.288574
2159.039063	3931.624268
2158.042969	4224.672363
2157.046875	4048.293213
2156.050781	4035.081299
2155.052734	4129.759277
2154.056641	4061.349854
2153.060547	4070.715332
2152.062500	4145.278320
2151.066406	4036.782715
2150.068359	4274.275879
2149.072266	4068.041016
2148.074219	4049.830078
2147.076172	4129.346191
2146.078125	4096.099121
2145.080078	4067.872803
2144.082031	4079.726563
2143.083984	4114.112793
2142.085938	4065.867920
2141.085938	4077.715820
2140.087891	4029.492676
2139.087891	4111.409180
2138.089844	4228.325684
2137.089844	4142.578125
2136.089844	4051.855957
2135.089844	4108.707031
2134.089844	4175.540527
2133.089844	4049.858398
2132.089844	4051.692139
2131.089844	3941.066162
2130.089844	3992.890625
2129.089844	4109.652832
2128.087891	4256.351074
2127.087891	4163.245605
2126.085938	4117.614746
2125.083984	4154.387207
2124.082031	4078.817627
2123.082031	3990.793701
2122.080078	4157.329102
2121.078125	4111.735840
2120.076172	4148.478516
2119.072266	4122.854492
2118.070313	4142.126465
2117.068359	3994.338135
2116.064453	4100.877441
2115.062500	4080.262939
2114.058594	4104.513184
2113.054688	4081.412598
2112.052734	4063.302246
2111.048828	4222.050781
2110.044922	4124.227539
2109.041016	4081.218262
2108.037109	4028.264160
2107.031250	4164.510254
2106.027344	4119.025879
2105.023438	4031.253418
2104.017578	4202.263672
2103.013672	4012.513916
2102.007813	4183.470703
2101.001953	4048.495850
2099.998047	3950.860840
2098.992188	4074.509277
2097.986328	4068.867920
2096.980469	3929.029785
2095.972656	4112.254395
2094.966797	4116.546387
2093.960938	4108.417480
2092.955078	4025.785156
2091.947266	4151.761230
2090.939453	4111.354980
2089.933594	4083.372803
2088.925781	4035.545166
2087.917969	3920.732910
2086.910156	3994.519775
2085.902344	3986.420166
2084.894531	4040.329590
2083.886719	4022.305664
2082.878906	3964.616699
2081.871094	4065.604004
2080.861328	3985.619141
2079.853516	3863.530518
2078.843750	3979.351318
2077.833984	4018.334473
2076.826172	4020.149902
2075.816406	3992.245605
2074.806641	4083.206787
2073.796875	3953.794678
2072.787109	4010.076904
2071.777344	4031.691162
2070.765625	4078.043457
2069.755859	4139.225586
2068.744141	3985.172607
2067.734375	4029.036133
2066.722656	3936.875000
2065.712891	3975.786621
2064.701172	4074.015869
2063.689453	4080.759766
2062.677734	3998.535400
2061.666016	3933.634033
2060.654297	3957.690918
2059.642578	4011.380371
2058.628906	3921.812012
2057.617188	4056.974609
2056.605469	4021.742432
2055.591797	3998.864014
2054.578125	4064.842041
2053.566406	4012.352295
2052.552734	3920.404297
2051.539063	3993.762695
2050.525391	3948.709229
2049.511719	4039.300537
2048.498047	3984.392090
2047.484375	4050.295410
2046.468750	4000.332520
2045.455078	3945.457031
2044.439453	3989.158203
2043.425781	3956.474609
2042.410156	3933.654297
2041.394531	4053.680420
2040.380859	3979.142334
2039.365234	3973.562500
2038.349609	3990.138184
2037.333984	3849.196533
2036.316406	3978.980225
2035.300781	3961.102051
2034.285156	4034.246338
2033.267578	4026.202881
2032.251953	4042.752686
2031.234375	3904.399658
2030.218750	3943.088379
2029.201172	4048.127197
2028.183594	3966.363037
2027.166016	4034.507080
2026.148438	3896.268799
2025.130859	4052.826904
2024.113281	3956.380371
2023.093750	3963.094238
2022.076172	3969.805908
2021.056641	3912.694580
2020.039063	4076.482910
2019.019531	4007.103516
2018.001953	3986.815186
2016.982422	3905.208008
2015.962891	3968.331787
2014.943359	4006.912842
2013.923828	3998.896484
2012.904297	4017.848145
2011.882813	3887.282471
2010.863281	3911.147217
2009.843750	3917.852539
2008.822266	3860.861084
2007.802734	3906.762451
2006.781250	3962.444336
2005.759766	3844.259033
2004.738281	3939.103516
2003.716797	3943.349121
2002.695313	4030.803467
2001.673828	3890.661865
2000.652344	3936.504395
1999.630859	3818.439453
1998.609375	3852.049805
1997.585938	3937.001221
1996.564453	3887.452637
1995.541016	3977.259033
1994.517578	3869.060791
1993.494141	3848.872314
1992.472656	3953.300049
1991.449219	3925.775391
1990.425781	3915.357422
1989.400391	3807.258057
1988.376953	3994.641357
1987.353516	3849.944824
1986.328125	3785.845703
1985.304688	3790.101563
1984.279297	3752.874512
1983.255859	3752.254883
1982.230469	3619.913574
1981.205078	3719.310303
1980.179688	3782.096924
1979.154297	3796.101074
1978.128906	3671.152344
1977.103516	3692.481689
1976.078125	3757.667725
1975.050781	3761.920166
1974.025391	3771.043213
1972.998047	3687.607666
1971.972656	3728.398193
1970.945313	3788.654053
1969.917969	3749.076904
1968.892578	3760.627930
1967.865234	3667.527588
1966.837891	3749.652832
1965.808594	3775.794922
1964.781250	3860.307129
1963.753906	3716.178223
1962.724609	3800.672119
1961.697266	3724.675537
1960.667969	3612.240967
1959.640625	3776.914795
1958.611328	3705.819336
1957.582031	3625.028809
1956.552734	3668.156250
1955.523438	3669.979004
1954.494141	3611.090088
1953.464844	3739.179443
1952.435547	3685.153320
1951.404297	3837.460205
1950.375000	3761.594238
1949.343750	3838.618408
1948.314453	3774.907227
1947.283203	3711.216797
1946.251953	3708.178223
1945.222656	3850.630371
1944.191406	3779.685547
1943.158203	3769.364502
1942.126953	3749.352539
1941.095703	3758.425537
1940.064453	3786.878174
1939.031250	3740.226074
1938.000000	3739.607666
1936.966797	3690.556885
1935.935547	3689.946777
1934.902344	3771.644775
1933.869141	3710.510498
1932.835938	3721.997070
1931.802734	3629.436035
1930.769531	3773.989258
1929.736328	3778.202881
1928.703125	3809.017578
1927.667969	3723.756836
1926.634766	3718.305664
1925.599609	3662.094727
1924.566406	3704.991699
1923.531250	3752.707520
1922.496094	3797.991211
1921.460938	3715.231689
1920.425781	3755.676025
1919.390625	3851.647949
1918.355469	3768.920166
1917.320313	3773.124756
1916.285156	3782.155273
1915.248047	3810.488281
1914.212891	3901.545410
1913.175781	3857.476074
1912.138672	3832.717529
1911.103516	3745.264648
1910.066406	3807.336914
1909.029297	3683.754395
1907.992188	3767.510010
1906.955078	3721.095947
1905.917969	3732.528320
1904.878906	3883.692627
1903.841797	3796.331787
1902.802734	3733.083984
1901.765625	3814.339600
1900.726563	3714.994873
1899.687500	3820.298828
1898.650391	3761.902100
1897.611328	3761.279541
1896.572266	3770.281006
1895.533203	3752.817383
1894.494141	3716.117188
1893.453125	3686.643799
1892.414063	3700.460205
1891.375000	3738.312500
1890.333984	3694.427734
1889.292969	3816.382324
1888.253906	3736.456055
1887.212891	3822.326172
1886.171875	3716.002197
1885.130859	3698.575195
1884.089844	3712.370361
1883.048828	3706.953857
1882.007813	3689.536621
1880.964844	3667.324707
1879.923828	3805.899170
1878.880859	3752.484375
1877.839844	3747.065186
1876.796875	3794.414307
1875.753906	3700.260010
1874.712891	3752.396484
1873.669922	3826.091309
1872.626953	3597.751709
1871.583984	3709.791504
1870.539063	3649.274170
1869.496094	3766.059326
1868.453125	3710.343262
1867.408203	3637.880859
1866.365234	3634.883789
1865.320313	3734.834717
1864.275391	3712.672119
1863.230469	3704.876953
1862.187500	3663.583252
1861.142578	3653.406006
1860.095703	3674.329834
1859.050781	3719.164063
1858.005859	3713.764893
1856.960938	3605.556641
1855.914063	3626.474121
1854.869141	3635.433594
1853.822266	3575.086914
1852.775391	3739.360596
1851.730469	3714.851074
1850.683594	3556.589355
1849.636719	3673.020508
1848.589844	3646.145996
1847.541016	3616.892822
1846.494141	3685.515869
1845.447266	3610.920410
1844.400391	3510.101318
1843.351563	3571.550293
1842.302734	3468.385498
1841.255859	3615.681152
1840.207031	3612.697021
1839.158203	3461.891846
1838.109375	3611.499023
1837.060547	3556.081055
1836.011719	3584.087646
1834.962891	3502.483398
1833.912109	3570.987793
1832.863281	3560.868164
1831.814453	3529.318604
1830.763672	3550.162598
1829.712891	3468.631104
1828.664063	3425.210693
1827.613281	3341.346924
1826.562500	3352.689941
1825.511719	3471.088135
1824.460938	3553.766602
1823.408203	3588.851318
1822.357422	3540.697998
1821.306641	3551.998047
1820.253906	3570.425537
1819.203125	3493.778076
1818.150391	3391.016357
1817.097656	3547.264893
1816.046875	3468.283691
1814.994141	3531.836914
1813.941406	3512.252686
1812.888672	3452.311035
1811.833984	3392.388916
1810.781250	3206.687744
1809.728516	3265.484863
1808.673828	3487.983887
1807.621094	3468.426025
1806.566406	3488.709961
1805.511719	3508.994141
1804.458984	3529.278076
1803.404297	3549.562256
1802.349609	3569.846191
1801.294922	3595.323730
1800.238281	3542.594971
1799.183594	3525.422119
1798.128906	3595.902100
1797.072266	3557.409668
1796.017578	3571.027344
1794.960938	3587.008057
1793.906250	3586.412354
1792.849609	3472.206787
1791.792969	3582.854736
1790.736328	3615.385010
1789.679688	3484.671143
1788.623047	3578.704590
1787.564453	3575.745117
1786.507813	3636.628662
1785.451172	3541.459717
1784.392578	3611.783447
1783.335938	3606.456787
1782.277344	3591.679932
1781.218750	3491.855957
1780.160156	3555.054199
1779.101563	3712.702148
1778.042969	3686.110107
1776.984375	3668.970703
1775.925781	3581.019043
1774.865234	3726.756592
1773.806641	3641.184082
1772.746094	3583.953125
1771.687500	3682.436523
1770.626953	3625.217285
1769.566406	3693.003906
1768.507813	3598.076172
1767.447266	3564.473633
1766.386719	3639.307373
1765.324219	3754.179443
1764.263672	3642.810059
1763.203125	3604.510254
1762.140625	3726.396973
1761.080078	3638.638672
1760.017578	3680.418701
1758.957031	3510.295410
1757.894531	3606.223145
1756.832031	3612.684082
1755.769531	3647.380615
1754.707031	3536.194580
1753.644531	3606.177734
1752.582031	3697.304932
1751.517578	3623.791016
1750.455078	3538.545410
1749.390625	3662.549561
1748.328125	3621.983398
1747.263672	3609.631104
1746.199219	3597.282471
1745.136719	3702.399902
1744.072266	3614.876709
1743.007813	3635.411621
1741.941406	3580.801270
1740.876953	3596.639404
1739.812500	3551.442627
1738.748047	3705.746826
1737.681641	3707.476807
1736.615234	3648.207275
1735.550781	3680.440430
1734.484375	3700.936035
1733.417969	3594.797852
1732.351563	3664.536377
1731.285156	3614.699219
1730.218750	3548.471924
1729.152344	3620.526367
1728.085938	3577.750000
1727.017578	3628.691895
1725.951172	3674.932129
1724.882813	3620.458496
1723.814453	3594.100342
1722.748047	3593.501953
1721.679688	3546.090820
1720.611328	3611.028076
1719.542969	3603.407227
1718.474609	3588.770508
1717.404297	3574.138428
1716.335938	3603.946777
1715.267578	3526.182129
1714.197266	3644.829346
1713.128906	3648.897705
1712.058594	3538.444092
1710.988281	3666.376709
1709.917969	3698.475342
1708.847656	3466.597412
1707.777344	3550.101563
1706.707031	3642.918457
1705.636719	3488.213867
1704.566406	3447.947754
1703.494141	3482.384033
1702.423828	3533.144287
1701.351563	3448.558594
1700.281250	3555.296143
1699.208984	3417.087402
1698.136719	3540.119385
1697.064453	3492.895508
1695.992188	3513.295410
1694.919922	3559.328857
1693.847656	3474.836182
1692.773438	3478.917725
1691.701172	3464.359375
1690.626953	3452.135254
1689.554688	3516.771729
1688.480469	3420.713135
1687.406250	3469.035645
1686.332031	3535.964600
1685.257813	3572.614258
1684.183594	3525.477783
1683.109375	3471.377197
1682.035156	3556.870605
1680.960938	3500.456543
1679.884766	3541.732178
1678.810547	3448.137451
1677.734375	3421.990723
1676.658203	3495.799072
1675.583984	3539.371338
1674.507813	3434.220947
1673.431641	3394.154541
1672.355469	3400.557129
1671.279297	3432.503662
1670.201172	3415.677490
1669.125000	3542.797119
1668.048828	3518.994141
1666.970703	3439.498535
1665.892578	3492.295410
1664.816406	3463.872314
1663.738281	3423.859863
1662.660156	3439.523926
1661.582031	3575.766357
1660.503906	3396.643311
1659.425781	3419.258301
1658.347656	3409.416992
1657.267578	3457.512939
1656.189453	3429.132568
1655.109375	3423.927246
1654.031250	3511.372070
1652.951172	3411.206055
1651.871094	3334.227539
1650.791016	3250.329346
1649.710938	3353.947021
1648.630859	3406.615723
1647.550781	3424.558594
1646.470703	3384.657471
1645.388672	3263.810547
1644.308594	3374.277100
1643.226563	3406.086914
1642.146484	3345.407471
1641.064453	3404.950195
1639.982422	3298.067139
1638.900391	3304.449219
1637.818359	3377.831055
1636.736328	3404.987549
1635.654297	3379.013184
1634.570313	3424.634277
1633.488281	3340.943115
1632.406250	3305.758057
1631.322266	3319.054932
1630.238281	3364.655273
1629.156250	3285.644043
1628.072266	3317.392822
1626.988281	3323.758545
1625.904297	3337.040771
1624.820313	3297.284912
1623.734375	3333.621094
1622.650391	3289.268799
1621.566406	3387.819092
1620.480469	3281.257568
1619.396484	3283.013428
1618.310547	3323.927979
1617.224609	3286.523193
1616.138672	3281.368896
1615.052734	3223.262451
1613.966797	3257.253174
1612.880859	3261.312256
1611.794922	3352.814453
1610.708984	3248.718750
1609.621094	3236.674072
1608.535156	3226.933105
1607.447266	3371.271484
1606.359375	3253.446045
1605.273438	3312.673096
1604.185547	3233.971191
1603.097656	3272.498535
1602.009766	3347.776367
1600.921875	3319.648926
1599.832031	3289.233887
1598.744141	3153.186523
1597.654297	3228.433594
1596.566406	3230.189941
1595.476563	3248.013428
1594.388672	3240.585449
1593.298828	3203.329346
1592.208984	3386.335205
1591.119141	3300.895508
1590.029297	3277.408691
1588.939453	3155.325684
1587.847656	3358.851318
1586.757813	3227.625977
1585.666016	3286.677246
1584.576172	3276.961426
1583.484375	3212.260010
1582.392578	3209.432129
1581.302734	3341.740479
1580.210938	3306.831055
1579.119141	3283.381348
1578.025391	3337.774902
1576.933594	3337.216797
1575.841797	3258.849121
1574.750000	3242.287109
1573.656250	3408.750732
1572.562500	3286.949951
1571.470703	3252.095459
1570.376953	3322.436035
1569.283203	3225.858887
1568.189453	3383.042236
1567.095703	3325.339844
1566.001953	3312.222168
1564.908203	3299.104248
1563.812500	3285.986328
1562.718750	3272.868652
1561.623047	3299.723389
1560.529297	3274.056641
1559.433594	3424.172363
1558.337891	3275.243408
1557.242188	3381.949951
1556.146484	3488.620850
1555.050781	3428.724365
1553.955078	3403.061035
1552.859375	3377.406006
1551.761719	3406.482178
1550.666016	3317.002686
1549.568359	3448.649414
1548.472656	3350.076660
1547.375000	3237.865234
1546.277344	3405.910156
1545.179688	3309.671387
1544.082031	3304.562500
1542.984375	3315.394531
1541.886719	3273.859131
1540.787109	3223.232666
1539.689453	3290.970215
1538.589844	3263.112793
1537.492188	3330.820801
1536.392578	3275.668701
1535.292969	3245.552979
1534.193359	3208.625244
1533.095703	3246.739502
1531.994141	3289.387451
1530.894531	3293.382324
1529.794922	3251.925781
1528.695313	3230.932129
1527.593750	3219.032227
1526.494141	3302.532715
1525.392578	3229.308838
1524.291016	3201.520752
1523.189453	3278.171143
1522.089844	3298.050293
1520.988281	3267.995117
1519.884766	3319.635742
1518.783203	3407.558105
1517.681641	3359.352783
1516.580078	3256.733398
1515.476563	3285.665771
1514.373047	3278.313477
1513.271484	3275.497314
1512.167969	3265.882813
1511.064453	3217.749023
1509.960938	3355.413818
1508.857422	3316.341797
1507.753906	3268.223389
1506.650391	3290.320557
1505.544922	3264.863770
1504.441406	3198.667725
1503.335938	3157.391113
1502.232422	3220.225098
1501.126953	3176.695801
1500.021484	3225.932129
1498.916016	3220.867432
1497.810547	3227.111816
1496.705078	3258.225830
1495.599609	3264.461670
1494.494141	3094.389648
1493.386719	3064.491211
1492.281250	3124.985596
1491.173828	3185.459717
1490.068359	3101.349365
1488.960938	3118.896729
1487.853516	3118.373535
1486.746094	3214.930420
1485.638672	3101.526367
1484.531250	3159.686035
1483.423828	3183.977783
1482.314453	3113.502686
1481.207031	3110.724365
1480.097656	3159.821533
1478.990234	3127.720947
1477.880859	3066.320557
1476.771484	3115.399902
1475.662109	3150.939453
1474.552734	3130.129150
1473.443359	3091.300537
1472.333984	3070.506836
1471.224609	3099.272461
1470.113281	3082.988281
1469.003906	3186.045410
1467.892578	3172.003174
1466.783203	3088.188721
1465.671875	3065.165283
1464.560547	3091.652100
1463.449219	3106.881348
1462.337891	3092.863525
1461.226563	2986.642334
1460.115234	3175.023438
1459.001953	3203.717041
1457.890625	3137.991699
1456.777344	3157.691895
1455.666016	3238.056885
1454.552734	3152.138184
1453.439453	3138.130859
1452.326172	3144.341553
1451.212891	3042.762451
1450.099609	2990.611572
1448.986328	3131.533447
1447.873047	3148.963135
1446.757813	3262.881836
1445.644531	3129.955811
1444.529297	3118.213379
1443.414063	3131.147217
1442.300781	3096.982666
1441.185547	3163.728027
1440.070313	3084.733154
1438.955078	3030.420410
1437.839844	3139.722900
1436.722656	3085.419189
1435.607422	3044.575195
1434.492188	3151.580078
1433.375000	3130.894531
1432.257813	3074.388916
1431.142578	3116.409424
1430.025391	3039.779297
1428.908203	3191.455566
1427.791016	3126.026611
1426.673828	3121.026611
1425.556641	3154.055908
1424.437500	2983.548340
1423.320313	3130.633789
1422.201172	3177.059082
1421.083984	3089.343750
1419.964844	3062.003906
1418.845703	3144.171631
1417.726563	3121.300293
1416.607422	3169.921387
1415.488281	3142.585938
1414.369141	3097.394287
1413.250000	3112.502930
1412.128906	3053.936768
1411.009766	3080.207764
1409.888672	3066.299561
1408.769531	3076.940430
1407.648438	3098.731934
1406.527344	3084.827637
1405.406250	3001.792725
1404.285156	3010.207031
1403.164063	3089.959229
1402.042969	3078.294189
1400.919922	3093.376953
1399.798828	3028.236328
1398.675781	3045.550049
1397.554688	3031.672607
1396.431641	3097.977295
1395.308594	3068.507813
1394.185547	2990.067139
1393.062500	3011.824219
1391.939453	3035.799561
1390.816406	2950.727783
1389.693359	3005.854004
1388.568359	3003.123535
1387.445313	3020.411377
1386.320313	3042.140869
1385.197266	3054.969238
1384.072266	2985.541016
1382.947266	3056.163574
1381.822266	3028.981689
1380.697266	3104.016846
1379.572266	3045.734131
1378.445313	3062.990723
1377.320313	2958.097656
1376.195313	3048.636719
1375.068359	2968.201904
1373.941406	2972.141357
1372.816406	2945.009277
1371.689453	3057.678467
1370.562500	3070.474854
1369.435547	3025.594238
1368.308594	3084.965332
1367.179688	2993.531006
1366.052734	2997.460938
1364.923828	3041.289795
1363.796875	2989.802246
1362.667969	2929.468262
1361.541016	2975.501709
1360.412109	2963.924561
1359.283203	2956.780762
1358.154297	2947.424805
1357.025391	3004.493896
1355.894531	3015.056152
1354.765625	3036.681396
1353.636719	3027.317871
1352.505859	3113.098389
1351.376953	3028.510010
1350.246094	2955.009033
1349.115234	3042.969482
1347.984375	2962.857422
1346.853516	3044.154541
1345.722656	3114.372314
1344.591797	3056.388184
1343.460938	2991.794678
1342.328125	3004.545654
1341.197266	3037.171875
1340.064453	3032.242920
1338.933594	3027.315430
1337.800781	3048.882568
1336.667969	2964.488525
1335.535156	3085.373291
1334.402344	3133.398682
1333.269531	3154.932617
1332.134766	3136.753662
1331.001953	3025.949463
1329.869141	3032.054688
1328.734375	3049.181396
1327.599609	3070.710938
1326.466797	3101.049316
1325.332031	3025.602295
1324.197266	3014.075684
1323.062500	3101.683105
1321.927734	2933.767822
1320.791016	2975.113770
1319.656250	2937.181641
1318.519531	3015.937012
1317.384766	3096.866699
1316.248047	3006.116699
1315.113281	3065.017578
1313.976563	3066.700195
1312.839844	2997.996338
1311.703125	2946.909180
1310.566406	2972.797607
1309.427734	2994.280518
1308.291016	3004.765381
1307.154297	2859.209961
1306.015625	3008.145996
1304.878906	3049.380371
1303.740234	2875.335205
1302.601563	3004.426758
1301.462891	2949.023193
1300.324219	2889.247559
1299.185547	2912.906006
1298.046875	2991.424561
1296.906250	2854.868896
1295.767578	3001.384521
1294.626953	2954.811523
1293.488281	2914.834229
1292.347656	2988.899902
1291.207031	2909.464844
1290.066406	2908.973389
1288.925781	2886.564453
1287.785156	3000.029785
1286.644531	2927.218994
1285.503906	2891.674072
1284.361328	2893.375977
1283.220703	2877.557617
1282.078125	2789.489502
1280.937500	2931.315186
1279.794922	2915.498291
1278.652344	2823.091064
1277.509766	2890.444336
1276.367188	2898.706787
1275.224609	2968.211670
1274.080078	2860.548828
1272.937500	2825.080078
1271.794922	2925.168945
1270.650391	2944.347412
1269.505859	2790.865723
1268.363281	2932.426514
1267.218750	2820.508789
1266.074219	2868.088379
1264.929688	2869.787598
1263.783203	2886.771729
1262.638672	2910.299805
1261.494141	2846.503662
1260.347656	2983.521973
1259.203125	2895.730957
1258.056641	2993.422119
1256.910156	3014.730225
1255.763672	2848.460205
1254.617188	2913.399170
1253.470703	2919.447510
1252.324219	2910.234131
1251.177734	2870.509521
1250.031250	2867.844727
1248.882813	2950.156006
1247.734375	2866.875000
1246.587891	2979.651611
1245.439453	2998.747314
1244.291016	3063.561279
1243.142578	3058.688965
1241.994141	2988.519287
1240.845703	3022.833984
1239.697266	2983.156250
1238.546875	3010.933594
1237.398438	2999.548340
1236.248047	3040.361816
1235.099609	3179.010742
1233.949219	3074.117920
1232.798828	3058.382080
1231.648438	3107.850830
1230.498047	3048.655273
1229.347656	3100.281250
1228.197266	3060.656738
1227.044922	3103.575684
1225.894531	3126.936768
1224.742188	3091.669434
1223.591797	3130.219727
1222.439453	3103.645264
1221.287109	3107.459961
1220.134766	3245.791260
1218.982422	3201.855957
1217.830078	3188.300537
1216.677734	3159.569580
1215.523438	3245.761719
1214.371094	3199.688232
1213.216797	3227.322998
1212.064453	3209.439941
1210.910156	3382.233154
1209.755859	3234.349121
1208.601563	3294.448730
1207.447266	3248.412842
1206.292969	3353.959473
1205.136719	3303.599365
1203.982422	3313.862305
1202.828125	3248.376709
1201.671875	3429.583496
1200.515625	3426.839111
1199.361328	3428.421631
1198.205078	3412.701904
1197.048828	3412.123779
1195.892578	3359.658936
1194.736328	3460.683838
1193.578125	3358.520508
1192.421875	3515.693115
1191.265625	3547.504395
1190.107422	3495.060547
1188.949219	3477.190186
1187.792969	3709.813965
1186.634766	3577.485352
1185.476563	3587.672119
1184.318359	3602.172119
1183.160156	3575.666504
1182.000000	3661.362305
1180.841797	3593.868896
1179.681641	3638.552734
1178.523438	3596.963379
1177.363281	3755.903809
1176.203125	3755.267090
1175.044922	3746.008789
1173.884766	3782.008545
1172.724609	3733.965332
1171.562500	3673.012939
1170.402344	3821.008789
1169.242188	3775.136719
1168.080078	3763.730469
1166.919922	3887.954590
1165.757813	3859.313477
1164.595703	3906.004150
1163.433594	3853.700928
1162.271484	4057.424316
1161.109375	3972.847900
1159.947266	3995.830566
1158.785156	4147.819824
1157.621094	3996.624756
1156.458984	4152.861328
1155.294922	4104.875000
1154.132813	4256.742188
1152.968750	4094.888672
1151.804688	4296.110840
1150.640625	4151.486328
1149.476563	4320.420898
1148.312500	4225.221191
1147.146484	4252.409668
1145.982422	4311.782715
1144.818359	4416.198242
1143.652344	4479.813477
1142.486328	4382.521973
1141.320313	4480.437500
1140.156250	4599.764160
1138.990234	4650.440430
1137.822266	4617.495605
1136.656250	4683.154297
1135.490234	4671.644531
1134.324219	4825.117676
1133.156250	4837.151855
1131.988281	4832.046387
1130.822266	4919.027344
1129.654297	4941.744629
1128.486328	4902.371582
1127.318359	5087.754395
1126.150391	5026.968750
1124.982422	5212.267578
1123.812500	5153.620605
1122.644531	5216.913574
1121.474609	5344.342773
1120.306641	5300.670410
1119.136719	5428.041504
1117.966797	5427.119629
1116.796875	5490.311523
1115.626953	5429.548828
1114.457031	5561.083984
1113.287109	5681.893555
1112.115234	5755.677246
1110.945313	5825.164551
1109.773438	5930.922852
1108.603516	5970.472168
1107.431641	6059.095215
1106.259766	6045.262207
1105.087891	6112.506836
1103.916016	6173.329102
1102.744141	6295.981445
1101.572266	6331.162109
1100.398438	6445.216797
1099.226563	6635.974121
1098.052734	6679.603516
1096.880859	6633.717285
1095.707031	6873.348633
1094.533203	6806.142090
1093.359375	7035.012207
1092.185547	7187.141602
1091.011719	7041.136230
1089.837891	7237.916992
1088.662109	7338.851074
1087.488281	7358.883301
1086.312500	7453.378906
1085.138672	7586.134277
1083.962891	7716.716797
1082.787109	7849.381836
1081.611328	7888.445313
1080.435547	7865.844238
1079.259766	8121.696777
1078.082031	8045.933594
1076.906250	8218.799805
1075.728516	8225.899414
1074.552734	8468.770508
1073.375000	8439.720703
1072.197266	8729.186523
1071.019531	8613.057617
1069.841797	8747.441406
1068.664063	8760.808594
1067.486328	8842.073242
1066.308594	8859.662109
1065.128906	8985.425781
1063.951172	9068.730469
1062.771484	9111.716797
1061.591797	9271.294922
1060.412109	9379.943359
1059.232422	9280.854492
1058.052734	9453.035156
1056.873047	9476.849609
1055.693359	9543.022461
1054.513672	9524.454102
1053.332031	9702.827148
1052.152344	9610.133789
1050.970703	9614.847656
1049.789063	9642.841797
1048.607422	9660.244141
1047.425781	9743.230469
1046.244141	9927.729492
1045.062500	9731.451172
1043.880859	9943.378906
1042.697266	9825.396484
1041.515625	9804.696289
1040.332031	9710.025391
1039.150391	10012.682617
1037.966797	9850.395508
1036.783203	9838.154297
1035.599609	9834.365234
1034.416016	9754.551758
1033.232422	9803.564453
1032.046875	9690.004883
1030.863281	9705.239258
1029.677734	9754.234375
1028.494141	9725.141602
1027.308594	9738.251953
1026.123047	9745.029297
1024.937500	9718.060547
1023.751953	9739.597656
1022.566406	9592.469727
1021.380859	9557.108398
1020.193359	9534.403320
1019.007813	9452.706055
1017.820313	9381.569336
1016.634766	9287.286133
1015.447266	9412.067383
1014.259766	9444.154297
1013.072266	9192.004883
1011.884766	9293.583008
1010.697266	9153.090820
1009.509766	9122.070313
1008.320313	9160.488281
1007.132813	9051.644531
1005.943359	8995.416992
1004.753906	9096.921875
1003.566406	9047.012695
1002.376953	8807.928711
1001.187500	8770.695313
999.998047	8710.359375
998.806641	8746.692383
997.617188	8671.674805
996.427734	8653.392578
995.236328	8477.617188
994.046875	8429.979492
992.855469	8388.654297
991.664063	8532.046875
990.472656	8341.721680
989.281250	8214.406250
988.089844	8204.613281
986.898438	8182.237793
985.705078	8111.636230
984.513672	7827.189453
983.320313	7878.263184
982.126953	7837.093262
980.935547	7726.779785
979.742188	7880.514160
978.548828	7755.565430
977.355469	7842.214844
976.162109	7652.393066
974.966797	7605.020508
973.773438	7834.010742
972.578125	7587.770996
971.384766	7389.749512
970.189453	7520.312500
968.994141	7565.054199
967.798828	7333.669922
966.603516	7468.357422
965.408203	7308.163086
964.212891	7377.997559
963.015625	7318.208008
961.820313	7268.888672
960.623047	7292.721680
959.427734	7209.995117
958.230469	7169.073730
957.033203	7232.593262
955.835938	7032.980469
954.638672	6985.846680
953.441406	7007.614746
952.244141	6981.371582
951.044922	6913.402344
949.847656	6953.948730
948.648438	6994.480469
947.449219	6989.113281
946.251953	6871.140625
945.052734	6790.737305
943.853516	6749.968262
942.654297	6761.319824
941.453125	6735.157227
940.253906	6650.663574
939.054688	6630.777832
937.853516	6737.951172
936.652344	6470.242188
935.453125	6594.062500
934.251953	6522.155273
933.050781	6464.841797
931.849609	6449.168457
930.646484	6610.359375
929.445313	6471.926270
928.244141	6354.340332
927.041016	6430.199219
925.839844	6177.507813
924.636719	6307.422363
923.433594	6370.778320
922.230469	6224.214355
921.027344	6175.358887
919.824219	6122.364746
918.621094	6154.551270
917.417969	6105.731934
916.212891	5975.948730
915.009766	5958.317383
913.804688	5768.407715
912.599609	5937.599609
911.394531	5685.508301
910.189453	5715.654785
908.984375	5803.870605
907.779297	5670.145020
906.574219	5453.521973
905.367188	5643.325195
904.162109	5505.549316
902.955078	5440.358398
901.750000	5447.715820
900.542969	5409.490234
899.335938	5313.276855
898.128906	5229.523438
896.921875	5299.032715
895.712891	5026.904297
894.505859	4930.821777
893.298828	4958.952637
892.089844	5038.807129
890.880859	4996.564453
889.673828	5001.914551
888.464844	4932.804688
887.255859	4770.663086
886.046875	4848.412598
884.835938	4711.146484
883.626953	4852.951660
882.417969	4723.997559
881.207031	4799.635254
879.998047	4707.918457
878.787109	4711.242676
877.576172	4586.530762
876.365234	4670.397949
875.154297	4593.215820
873.943359	4538.764160
872.732422	4630.851074
871.519531	4559.904785
870.308594	4497.234375
869.095703	4479.962891
867.884766	4489.505859
866.671875	4408.322266
865.458984	4452.920410
864.246094	4499.563965
863.033203	4342.169434
861.820313	4425.904297
860.605469	4299.478027
859.392578	4420.267090
858.177734	4205.329590
856.964844	4305.502441
855.750000	4218.298340
854.535156	4116.714844
853.320313	4260.069336
852.105469	4119.417969
850.890625	4268.894043
849.675781	4214.681152
848.458984	4074.109863
847.244141	4163.885254
846.027344	4082.991455
844.810547	4026.791504
843.595703	4143.245605
842.378906	4134.315430
841.162109	4156.205078
839.943359	4108.247070
838.726563	4179.423828
837.509766	4215.667969
836.291016	4058.911621
835.074219	4128.007324
833.855469	3995.947510
832.636719	4069.133789
831.417969	4136.139648
830.199219	4139.532227
828.980469	4163.433105
827.761719	4170.920898
826.542969	4194.807617
825.322266	4233.035156
824.103516	4250.754395
822.882813	4258.221191
821.664063	4292.319824
820.443359	4328.455566
819.222656	4348.193848
818.001953	4263.487793
816.779297	4264.802734
815.558594	4362.330078
814.337891	4488.478027
813.115234	4340.367676
811.894531	4433.739258
810.671875	4459.571289
809.449219	4495.621094
808.226563	4513.253418
807.003906	4622.887207
805.781250	4528.056641
804.558594	4709.187012
803.333984	4630.722168
802.111328	4670.791016
800.886719	4708.802246
799.664063	4761.098633
798.439453	4711.268066
797.214844	4816.632813
795.990234	4756.602539
794.765625	4878.251465
793.541016	4775.374512
792.314453	4758.230469
791.089844	4785.973145
789.863281	4860.619629
788.638672	4688.478027
787.412109	4850.791992
786.185547	4792.875488
784.958984	4932.694336
783.732422	4921.656250
782.505859	4869.869629
781.279297	4903.665527
780.050781	4886.526855
778.824219	4822.553223
777.595703	4923.533691
776.367188	4936.937988
775.140625	4875.023438
773.912109	5045.137695
772.683594	4903.868164
771.453125	4968.126953
770.224609	4894.044434
768.996094	4984.721191
767.765625	4943.195313
766.537109	5009.435547
765.306641	4925.232910
764.076172	4967.064453
762.845703	5045.457520
761.615234	4989.734863
760.384766	4999.032227
759.154297	4953.490723
757.921875	4944.515625
756.691406	5008.632813
755.458984	5019.949707
754.228516	5110.415527
752.996094	4941.111816
751.763672	4978.809082
750.531250	5089.520020
749.298828	5031.854980
748.066406	5079.655762
746.832031	5161.907227
745.599609	5027.229004
744.365234	5216.878418
743.132813	5256.508301
741.898438	5217.107422
740.664063	5303.314453
739.429688	5180.879395
738.195313	5167.836914
736.960938	5322.845703
735.724609	5226.785645
734.490234	5250.172852
733.255859	5396.992676
732.019531	5347.504395
730.783203	5376.926758
729.546875	5319.368164
728.310547	5429.673828
727.074219	5291.250488
725.837891	5324.704590
724.601563	5406.655273
723.363281	5456.244141
722.126953	5489.651855
720.888672	5446.282715
719.650391	5578.649902
718.414063	5614.038086
717.175781	5611.051270
715.937500	5505.109375
714.697266	5566.729980
713.458984	5733.268066
712.220703	5817.022949
710.980469	5830.141113
709.742188	5907.798828
708.501953	5751.498047
707.261719	5780.750488
706.021484	5862.407715
704.781250	5950.083496
703.541016	5878.522949
702.300781	6076.985840
701.058594	5882.539063
699.818359	6034.604980
698.576172	5991.272461
697.335938	6068.766602
696.093750	6248.905273
694.851563	6108.941895
693.609375	6276.936523
692.367188	6060.554688
691.123047	6268.734863
689.880859	6299.836426
688.638672	6270.593750
687.394531	6368.038086
686.150391	6447.354980
684.908203	6562.825684
683.664063	6505.420898
682.419922	6590.700195
681.175781	6559.427734
679.929688	6696.893066
678.685547	6713.812012
677.439453	6722.692383
676.195313	6761.684570
674.949219	6897.011719
673.703125	6827.584961
672.458984	6736.109863
671.212891	6997.764160
669.964844	7022.631836
668.718750	7067.546875
667.472656	7184.632813
666.224609	7071.120117
664.978516	7240.281738
663.730469	7172.894043
662.482422	7317.933594
661.234375	7296.634277
659.986328	7171.180176
658.738281	7518.424316
657.490234	7417.003906
656.242188	7241.541016
654.992188	7324.362793
653.744141	7321.095703
652.494141	7531.941406
651.244141	7576.656250
649.994141	7653.360352
648.744141	7678.037598
647.494141	7720.703125
646.244141	7677.383301
644.994141	7782.001465
643.742188	7854.605469
642.492188	7717.364746
641.240234	7869.871582
639.988281	7746.657715
638.738281	7867.150391
637.486328	7871.780762
636.232422	7964.257813
634.980469	7727.327637
633.728516	7819.797363
632.474609	7916.225098
631.222656	8068.484375
629.968750	8095.016602
628.714844	8053.727051
627.462891	8108.169922
626.208984	8228.388672
624.953125	8053.535156
623.699219	8299.287109
622.445313	8335.713867
621.191406	8316.339844
619.935547	8251.154297
618.679688	8504.667969
617.425781	8314.014648
616.169922	8527.608398
614.914063	8482.336914
613.658203	8576.406250
612.400391	8606.761719
611.144531	8672.919922
609.888672	8687.333984
608.630859	8777.322266
607.373047	8859.325195
606.117188	8891.592773
604.859375	9019.269531
603.601563	8910.377930
602.343750	9034.032227
601.083984	9030.480469
599.826172	9211.680664
598.568359	9216.043945
597.308594	9220.406250
596.048828	9353.825195
594.791016	9507.049805
593.531250	9684.039063
592.271484	9569.245117
591.011719	9543.778320
589.750000	9768.279297
588.490234	9711.049805
587.230469	9873.966797
585.968750	9769.152344
584.707031	10263.068359
583.447266	9989.743164
582.185547	9873.071289
580.923828	10194.330078
579.662109	10032.096680
578.398438	10244.276367
577.136719	10274.186523
575.875000	10416.949219
574.611328	10300.321289
573.347656	10522.202148
572.085938	10405.596680
570.822266	10449.301758
569.558594	10459.360352
568.292969	10550.511719
567.029297	10364.763672
565.765625	10627.922852
564.500000	10584.564453
563.236328	10604.471680
561.970703	10721.208984
560.705078	10796.410156
559.439453	10883.438477
558.173828	10834.145508
556.908203	10958.660156
555.642578	10812.617188
554.376953	11049.621094
553.109375	10996.383789
551.843750	10964.874023
550.576172	11280.653320
549.308594	11408.903320
548.041016	11262.931641
546.773438	11365.501953
545.505859	11424.656250
544.238281	11481.817383
542.968750	11765.638672
541.701172	11651.261719
540.431641	11779.289063
539.164063	12116.101563
537.894531	11887.477539
536.625000	12133.560547
535.355469	12172.804688
534.085938	12188.410156
532.814453	12599.656250
531.544922	12481.354492
530.273438	12485.090820
529.003906	12675.724609
527.732422	12742.370117
526.460938	12820.791016
525.189453	13054.526367
523.917969	13066.021484
522.646484	13222.970703
521.375000	13234.431641
520.101563	13151.569336
518.830078	13269.127930
517.556641	13663.609375
516.283203	13859.595703
515.011719	13908.242188
513.738281	13846.927734
512.462891	13903.410156
511.189453	14107.066406
509.916016	13990.805664
508.642578	14102.165039
507.367188	13954.558594
506.091797	14167.869141
504.818359	14061.480469
503.542969	14035.509766
502.267578	14362.384766
500.992188	14177.621094
499.714844	14371.109375
498.439453	14115.877930
497.164063	14348.484375
495.886719	14371.451172
494.609375	14120.266602
493.333984	14166.757813
492.056641	14344.381836
490.779297	14187.274414
489.501953	14353.092773
488.222656	14117.778320
486.945313	14193.568359
485.666016	13974.008789
484.388672	13997.000000
483.109375	13994.565430
481.830078	13968.674805
480.550781	13903.704102
479.271484	13940.367188
477.992188	13967.248047
476.712891	14238.293945
475.433594	14282.690430
474.152344	14147.420898
472.871094	13762.293945
471.591797	13564.696289
470.310547	13515.495117
469.029297	13497.533203
467.748047	13403.486328
466.466797	13377.746094
465.183594	13180.383789
463.902344	13146.889648
462.619141	13066.615234
461.337891	13009.760742
460.054688	12984.108398
458.771484	13022.769531
457.488281	12802.292969
456.205078	12874.086914
454.921875	12879.635742
453.638672	12727.452148
452.353516	12771.962891
451.070313	12732.753906
449.785156	12759.730469
448.500000	12703.022461
447.214844	12671.626953
445.929688	12399.030273
444.644531	12505.786133
443.359375	12560.000000
442.072266	12349.779297
440.787109	12359.291992
439.500000	12475.695313
438.214844	12434.658203
436.927734	12238.204102
435.640625	12100.093750
434.353516	12218.402344
433.066406	12138.598633
431.777344	12179.197266
430.490234	12256.664063
429.203125	12002.216797
427.914063	11963.255859
426.625000	11994.154297
425.335938	12019.220703
424.046875	12040.400391
422.757813	11784.271484
421.468750	11912.118164
420.179688	11979.827148
418.888672	11937.038086
417.599609	11938.832031
416.308594	11876.689453
415.017578	11888.178711
413.728516	11930.652344
412.437500	11787.209961
411.144531	11742.560547
409.853516	11699.861328
408.562500	11597.177734
407.269531	11660.948242
405.978516	11484.785156
404.685547	11556.291016
403.392578	11780.563477
402.099609	11507.783203
400.806641	11594.712891
399.513672	11465.106445
398.220703	11289.159180
396.927734	11219.555664
395.632813	11412.736328
394.337891	11138.371094
393.044922	11169.260742
391.750000	11232.967773
390.455078	11039.866211
389.160156	11109.363281
387.865234	11082.333984
386.568359	10978.125000
385.273438	11020.583984
383.976563	11076.531250
382.681641	11076.526367
381.384766	11012.885742
380.087891	11230.757813
378.791016	10972.414063
377.494141	11005.190430
376.197266	11014.831055
374.898438	11001.347656
373.601563	10962.826172
372.302734	10953.207031
371.005859	10826.125977
369.707031	10791.503906
368.408203	10789.619141
367.109375	10847.399414
365.810547	10957.115234
364.509766	10833.990234
363.210938	10897.500977
361.910156	10943.680664
360.611328	10807.160156
359.310547	10826.420898
358.009766	10980.236328
356.708984	10966.785156
355.408203	10941.809570
354.107422	10705.498047
352.804688	10717.074219
351.503906	10772.820313
350.201172	10817.024414
348.900391	10705.695313
347.597656	10759.493164
346.294922	10809.433594
344.992188	10742.298828
343.689453	10583.094727
342.386719	10738.542969
341.082031	10585.148438
339.779297	10512.345703
338.474609	10742.498047
337.169922	10765.539063
335.867188	10819.238281
334.562500	10526.073242
333.257813	10666.011719
331.951172	10380.636719
330.646484	10656.534180
329.341797	10480.412109
328.035156	10474.749023
326.728516	10493.973633
325.423828	10333.282227
324.117188	10436.721680
322.810547	10381.324219
321.503906	10178.651367
320.195313	10415.943359
318.888672	10060.354492
317.580078	10249.785156
316.273438	10154.324219
314.964844	10196.505859
313.656250	10059.045898
312.347656	10085.944336
311.039063	9944.730469
309.730469	10053.764648
308.421875	9954.616211
307.111328	9887.958984
305.802734	9951.130859
304.492188	10008.554688
303.181641	10029.701172
301.871094	10090.905273
300.560547	9947.978516
299.250000	10020.618164
297.939453	10232.436523
296.628906	9982.790039
295.316406	9982.948242
294.005859	10036.470703
292.693359	10072.824219
291.380859	9848.147461
290.068359	9823.563477
288.755859	9772.323242
287.443359	9822.025391
286.130859	9902.171875
284.816406	9948.026367
283.503906	9877.766602
282.189453	9900.773438
280.875000	9990.361328
279.560547	9773.658203
278.246094	9726.299805
276.931641	9789.249023
275.617188	9816.050781
274.300781	9789.619141
272.986328	9873.427734
271.669922	9710.177734
270.355469	9706.575195
269.039063	9600.397461
267.722656	9737.358398
266.406250	9807.808594
265.089844	9817.480469
263.771484	9760.709961
262.455078	9635.634766
261.136719	9679.486328
259.820313	9656.919922
258.501953	9793.699219
257.183594	9613.704102
255.865234	9813.018555
254.546875	9758.211914
253.228516	9773.560547
251.908203	9701.721680
250.589844	9648.857422
249.269531	9688.844727
247.949219	9751.548828
246.628906	9723.323242
245.310547	9708.362305
243.988281	9894.089844
242.667969	9680.346680
241.347656	9763.814453
240.025391	9686.410156
238.705078	9924.983398
237.382813	9843.794922
236.060547	9879.891602
234.738281	9853.575195
233.416016	9870.750977
232.093750	9869.018555
230.771484	10005.250000
229.449219	9941.136719
228.125000	9965.840820
226.800781	9947.089844
225.478516	9892.461914
224.154297	9766.099609
222.830078	9745.504883
221.505859	9892.914063
220.181641	9930.808594
218.855469	10117.757813
217.531250	9940.526367
216.205078	9827.489258
214.878906	9788.043945
213.554688	9805.180664
212.228516	9810.999023
210.902344	9666.018555
209.574219	9758.551758
208.248047	9852.934570
206.921875	9804.104492
205.593750	9904.097656
204.265625	9776.175781
202.939453	9900.616211
201.611328	9927.115234
200.283203	9763.492188
198.955078	10132.524414
197.625000	9951.987305
196.296875	10002.914063
194.968750	10098.965820
193.638672	10063.338867
192.308594	9926.186523
190.978516	10159.439453
189.648438	10146.374023
188.318359	10319.367188
186.988281	10330.705078
185.658203	10479.181641
184.326172	10255.695313
182.996094	10280.182617
181.664063	10387.279297
180.332031	10379.820313
179.000000	10409.903320
177.667969	10443.728516
176.335938	10468.160156
175.003906	10278.715820
173.669922	10361.313477
172.337891	10276.974609
171.003906	10449.543945
169.669922	10385.838867
168.335938	10333.403320
167.001953	10406.545898
165.667969	10354.124023
164.333984	10327.948242
163.000000	10416.036133
161.664063	10348.657227
160.328125	10459.178711
158.994141	10414.280273
157.658203	10283.296875
156.322266	10494.826172
154.986328	10391.939453
153.650391	10489.259766
152.312500	10468.708008
150.976563	10365.879883
149.638672	10466.890625
148.302734	10588.428711
146.964844	10566.003906
145.626953	10594.042969
144.289063	10769.678711
142.949219	10795.802734
141.611328	10920.909180
140.273438	10848.022461
138.933594	11249.409180
137.595703	10956.207031
136.255859	11116.659180
134.916016	11176.282227
133.576172	11247.079102
132.236328	11398.066406
130.894531	11487.449219
129.554688	11369.805664
128.212891	11425.600586
126.873047	11376.982422
125.531250	11417.845703
124.189453	11481.054688
122.847656	11602.000000
121.505859	11607.406250
120.164063	11379.995117
118.820313	11666.627930
117.478516	11500.726563
116.134766	11602.944336
114.792969	11699.541992
113.449219	11585.825195
112.105469	11634.016602
110.761719	11490.587891
109.417969	11598.294922
108.072266	11629.720703
106.728516	11949.317383
105.382813	11714.845703
104.039063	11604.980469
102.693359	11612.224609
101.347656	11621.323242
100.001953	11812.462891
98.654297	11860.524414
97.308594	11902.998047
95.962891	11960.308594
94.615234	12121.550781
93.269531	12236.336914
91.921875	12141.395508
90.574219	12302.518555
89.226563	12001.695313
87.878906	12105.291992
86.529297	12134.677734
85.181641	12301.249023
83.832031	12258.295898
82.484375	12422.931641
81.134766	12176.140625
79.785156	12107.293945
78.435547	12021.799805
77.085938	12132.650391
75.736328	12393.449219
74.384766	12246.852539
73.035156	12331.688477
71.683594	12140.736328
70.332031	12036.820313
68.982422	12032.842773
67.630859	11690.365234
66.279297	11777.071289
64.925781	11251.698242
63.574219	11301.475586
62.220703	11395.596680
60.869141	11282.696289
59.515625	11219.725586
58.162109	10898.132813
56.808594	10244.170898
55.455078	9930.250000
54.101563	9461.336914
52.748047	9376.587891
51.392578	8974.386719
