#Wave		#Intensity
4002.114258	3772.781006
4001.416016	3844.370850
4000.717773	3754.280273
4000.018555	3893.231934
3999.320313	3860.406494
3998.621094	3920.598145
3997.921875	3769.750244
3997.223633	3812.056885
3996.524414	3789.991699
3995.824219	3717.884766
3995.125000	3799.496582
3994.425781	3763.148438
3993.725586	3791.129150
3993.026367	3858.399170
3992.326172	3875.639160
3991.625977	3785.730225
3990.925781	3817.259766
3990.225586	3691.686035
3989.525391	3855.300049
3988.825195	3954.616699
3988.125000	3786.258301
3987.423828	3935.505859
3986.723633	3738.665039
3986.022461	3877.171631
3985.321289	3865.849854
3984.620117	3936.542725
3983.918945	3647.134277
3983.217773	3771.308105
3982.516602	3931.081543
3981.814453	3876.998779
3981.113281	3776.616211
3980.411133	3861.503906
3979.708984	3843.075195
3979.006836	3870.946777
3978.304688	3802.674316
3977.602539	3940.902588
3976.900391	3854.843750
3976.198242	3726.106201
3975.495117	3956.794922
3974.792969	3828.082275
3974.089844	3791.895996
3973.386719	3976.227539
3972.683594	3847.573486
3971.980469	3694.072754
3971.277344	3867.666504
3970.574219	3827.948242
3969.870117	3941.051758
3969.166992	3823.165283
3968.462891	3740.842529
3967.759766	3846.801025
3967.055664	3810.669189
3966.351563	3849.116211
3965.647461	3816.545410
3964.943359	3957.920654
3964.238281	3893.400635
3963.534180	3818.255371
3962.829102	3828.286133
3962.125000	3799.291748
3961.419922	3827.056396
3960.714844	3886.728516
3960.009766	3804.552734
3959.304688	3857.118896
3958.599609	3821.053711
3957.893555	3763.735840
3957.188477	3738.327393
3956.482422	3819.212891
3955.777344	3719.415039
3955.071289	3796.735840
3954.365234	3934.231445
3953.659180	3763.651123
3952.953125	3748.886719
3952.246094	3872.165527
3951.540039	3758.299316
3950.833008	3793.078857
3950.126953	3895.064697
3949.419922	3890.901855
3948.712891	3685.153320
3948.005859	3804.787354
3947.298828	3896.098877
3946.591797	3775.286133
3945.884766	3767.611084
3945.176758	3880.087158
3944.469727	3964.260986
3943.761719	3762.263916
3943.053711	3899.410645
3942.345703	3845.812012
3941.637695	3972.308350
3940.929688	3777.500000
3940.221680	3759.244385
3939.513672	3804.520996
3938.804688	3775.680664
3938.095703	3736.265137
3937.387695	3735.665283
3936.678711	3847.928711
3935.969727	3688.622559
3935.260742	3804.383057
3934.551758	3803.772217
3933.841797	3856.032227
3933.132813	3746.164795
3932.422852	3742.039795
3931.713867	3723.823975
3931.003906	3783.107666
3930.293945	3831.806641
3929.583984	3690.338867
3928.874023	3820.014160
3928.164063	3784.198975
3927.453125	3846.944580
3926.743164	3737.236328
3926.032227	3750.710449
3925.322266	3795.841309
3924.611328	3886.683350
3923.900391	3646.917236
3923.189453	3751.818848
3922.478516	3772.310547
3921.766602	3898.248779
3921.055664	3869.506592
3920.344727	3844.287598
3919.632813	3847.184082
3918.920898	3955.464600
3918.208984	3803.801758
3917.497070	3739.980225
3916.785156	3834.180908
3916.073242	3826.544434
3915.361328	3983.881348
3914.648438	3867.429688
3913.936523	3824.702148
3913.223633	3806.546631
3912.510742	3756.826660
3911.797852	3850.918457
3911.084961	3808.220459
3910.372070	3758.524170
3909.659180	3694.821533
3908.945313	3624.129150
3908.232422	3742.697021
3907.518555	3696.546631
3906.804688	3892.136719
3906.091797	3937.047119
3905.377930	3792.827148
3904.663086	3750.199463
3903.949219	3777.605957
3903.235352	3692.988525
3902.520508	3790.393066
3901.806641	3789.784668
3901.091797	3831.161865
3900.376953	3715.105957
3899.662109	3777.467529
3898.947266	3647.468750
3898.232422	3933.599121
3897.517578	3887.520264
3896.802734	3747.080078
3896.086914	3722.014893
3895.372070	3784.314697
3894.656250	3703.351807
3893.940430	3877.415771
3893.224609	3838.375000
3892.508789	3900.615967
3891.792969	3756.839111
3891.076172	3843.509277
3890.360352	3801.008301
3889.643555	3866.704590
3888.927734	3890.508789
3888.210938	3736.382568
3887.494141	3732.294922
3886.777344	3822.372559
3886.060547	3849.655518
3885.342773	3852.524170
3884.625977	3830.990723
3883.909180	3750.213379
3883.191406	3930.819824
3882.473633	3780.368164
3881.755859	3734.474121
3881.038086	3914.995605
3880.320313	3754.170898
3879.602539	3840.618164
3878.884766	3878.297363
3878.166016	3714.074951
3877.448242	3765.683594
3876.729492	3751.160400
3876.010742	3851.454834
3875.291992	3694.298828
3874.573242	3672.837891
3873.854492	3780.051270
3873.135742	3869.845703
3872.416016	3862.271973
3871.697266	3802.563232
3870.977539	3739.398193
3870.257813	3860.413574
3869.539063	3759.043457
3868.819336	3970.330322
3868.099609	3796.041016
3867.378906	3757.234619
3866.659180	3704.552979
3865.938477	3749.086670
3865.218750	3797.076660
3864.498047	3709.710938
3863.777344	3854.843506
3863.056641	3746.681641
3862.335938	3725.269043
3861.615234	3884.201172
3860.894531	3855.838135
3860.173828	4011.231201
3859.452148	3757.542969
3858.730469	3829.722412
3858.009766	3790.990234
3857.288086	3669.117676
3856.566406	3786.310059
3855.844727	3861.901611
3855.122070	3837.041016
3854.400391	3794.875732
3853.678711	3905.048584
3852.956055	3952.881348
3852.233398	3889.952637
3851.510742	3937.772461
3850.788086	3944.060303
3850.065430	3877.703857
3849.342773	3794.075684
3848.620117	3914.498535
3847.896484	3740.996582
3847.173828	3819.905762
3846.450195	3874.595215
3845.727539	3787.578369
3845.003906	3869.897217
3844.280273	3814.001221
3843.555664	3830.660156
3842.832031	3888.757080
3842.108398	3884.680420
3841.383789	3825.364990
3840.660156	3807.491699
3839.935547	3696.436768
3839.210938	3792.467285
3838.486328	3750.455811
3837.761719	3839.547119
3837.037109	3763.049561
3836.312500	3855.558838
3835.586914	3768.738770
3834.862305	3799.162109
3834.136719	3815.787598
3833.411133	3894.443115
3832.685547	3831.793213
3831.959961	3855.295898
3831.234375	3844.343262
3830.508789	3771.398682
3829.782227	3743.244629
3829.056641	3790.847900
3828.330078	3814.337646
3827.603516	3930.753662
3826.876953	3806.231689
3826.150391	3788.416748
3825.423828	3887.579102
3824.697266	3708.086914
3823.970703	3731.566895
3823.243164	3885.709229
3822.516602	3840.390625
3821.789063	3846.649902
3821.061523	3749.796387
3820.333984	3759.504395
3819.606445	3652.387939
3818.878906	3954.115234
3818.151367	3785.174805
3817.422852	3757.093750
3816.695313	3698.118164
3815.966797	3563.631592
3815.238281	3672.904053
3814.509766	3799.301758
3813.781250	3860.459717
3813.052734	3894.150635
3812.324219	3715.144287
3811.595703	3738.557861
3810.866211	3974.581543
3810.136719	3881.367432
3809.408203	3801.895996
3808.678711	3835.563232
3807.949219	3968.605957
3807.219727	3834.333252
3806.489258	3713.807861
3805.759766	3791.998291
3805.030273	3825.639648
3804.299805	3759.963135
3803.569336	3851.803711
3802.839844	3923.074951
3802.109375	3867.682373
3801.378906	3733.597168
3800.647461	3739.841797
3799.916992	3742.663330
3799.186523	3837.838379
3798.455078	3864.583008
3797.723633	3987.062988
3796.993164	3866.762695
3796.261719	3862.724609
3795.530273	3817.674072
3794.798828	3755.551514
3794.066406	3888.200684
3793.334961	3815.838379
3792.602539	3893.785400
3791.871094	3770.219238
3791.138672	3861.806396
3790.406250	3673.419678
3789.673828	3833.261230
3788.941406	3846.298096
3788.208984	3886.629395
3787.476563	3824.594482
3786.743164	3868.327148
3786.010742	3775.618896
3785.277344	3792.064209
3784.543945	3921.020508
3783.810547	3862.438477
3783.077148	3814.100342
3782.343750	3769.185791
3781.610352	3898.062744
3780.875977	3798.639160
3780.142578	3716.278809
3779.408203	3858.725098
3778.673828	3837.675293
3777.939453	3826.846191
3777.205078	3846.657471
3776.470703	3818.812256
3775.736328	3825.006104
3775.000977	3848.210449
3774.266602	3803.368408
3773.531250	3918.406250
3772.795898	3679.718506
3772.061523	3917.150146
3771.326172	3807.729980
3770.589844	3892.099854
3769.854492	3799.712158
3769.119141	3809.297363
3768.382813	3761.120605
3767.647461	4039.074707
3766.911133	3946.722168
3766.174805	4024.196289
3765.438477	3870.758301
3764.702148	3931.245117
3763.965820	3872.911865
3763.229492	3851.928467
3762.492188	3773.266846
3761.755859	3779.447510
3761.018555	3914.527100
3760.281250	3920.683105
3759.543945	3865.797852
3758.806641	3824.492188
3758.069336	3891.678467
3757.332031	3921.559570
3756.593750	3846.375732
3755.856445	3879.642578
3755.118164	3929.837646
3754.379883	3875.011719
3753.641602	3850.683838
3752.903320	3829.749756
3752.165039	3900.233887
3751.426758	3930.074463
3750.688477	3888.830322
3749.949219	3925.430908
3749.210938	3914.651611
3748.471680	3947.853271
3747.732422	3754.425537
3746.993164	3922.915039
3746.253906	3973.005615
3745.514648	3975.749756
3744.774414	3937.930420
3744.035156	3903.502686
3743.294922	3980.596680
3742.554688	4006.987305
3741.815430	3918.516357
3741.075195	4019.213135
3740.334961	3907.129639
3739.593750	3855.857422
3738.853516	4007.153564
3738.113281	4104.395996
3737.372070	3850.629150
3736.630859	3914.122803
3735.890625	3832.526611
3735.149414	3821.792969
3734.408203	3999.929443
3733.666016	4097.078613
3732.924805	3900.872803
3732.183594	3923.844727
3731.441406	3970.402344
3730.699219	4023.684814
3729.958008	3982.607422
3729.215820	3948.281006
3728.473633	4062.170410
3727.731445	3832.511719
3726.988281	4165.252441
3726.246094	3976.050781
3725.502930	4066.299561
3724.760742	3924.292725
3724.017578	4213.059082
3723.274414	3993.689941
3722.531250	4114.153320
3721.788086	3999.137207
3721.044922	4089.294678
3720.300781	4108.813477
3719.557617	4212.372070
3718.813477	3936.071289
3718.070313	4012.737793
3717.326172	3978.492676
3716.582031	3897.222900
3715.837891	4135.097168
3715.092773	4067.262451
3714.348633	4140.488281
3713.604492	4176.757324
3712.859375	4108.948242
3712.114258	4212.339844
3711.369141	4161.326172
3710.624023	4221.056152
3709.878906	4263.992676
3709.133789	4155.972168
3708.388672	4182.136230
3707.642578	4164.699707
3706.897461	4140.563965
3706.151367	4210.295410
3705.405273	4202.917480
3704.659180	4175.435547
3703.913086	4231.725586
3703.166992	4234.397461
3702.420898	4176.778320
3701.673828	4293.321289
3700.927734	4282.588379
3700.180664	4198.205566
3699.433594	4261.131836
3698.687500	4300.610840
3697.940430	4273.151367
3697.192383	4188.824219
3696.445313	4221.604980
3695.698242	4291.165527
3694.950195	4481.091797
3694.202148	4403.471680
3693.455078	4342.591797
3692.707031	4298.443848
3691.958984	4287.729004
3691.210938	4420.698730
3690.461914	4406.626953
3689.713867	4382.538574
3688.964844	4371.816895
3688.216797	4364.437988
3687.467773	4306.979980
3686.718750	4479.876953
3685.969727	4509.198242
3685.220703	4538.509766
3684.471680	4467.713867
3683.721680	4403.612793
3682.972656	4529.657715
3682.222656	4475.571777
3681.473633	4644.912598
3680.723633	4614.163086
3679.973633	4526.755371
3679.223633	4586.021484
3678.472656	4751.903320
3677.722656	4531.243652
3676.972656	4667.099121
3676.221680	4696.328125
3675.470703	4712.226563
3674.719727	4758.086914
3673.968750	4747.337402
3673.217773	4739.919434
3672.466797	4629.333984
3671.715820	4841.554199
3670.963867	4621.196777
3670.212891	4889.899902
3669.460938	4939.005371
3668.708984	4718.737793
3667.957031	4887.549805
3667.205078	4953.253418
3666.453125	4862.717285
3665.701172	4921.756836
3664.948242	4824.609375
3664.196289	4933.468750
3663.443359	5005.755371
3662.690430	5024.879883
3661.937500	5123.693359
3661.184570	5126.192383
3660.431641	5075.578125
3659.678711	5234.077148
3658.924805	5000.945313
3658.171875	5202.538574
3657.417969	5085.595703
3656.664063	5224.089844
3655.910156	5193.405762
3655.156250	5361.680664
3654.402344	5271.309082
3653.648438	5356.647949
3652.893555	5216.592285
3652.139648	5272.089355
3651.384766	5562.803223
3650.629883	5455.907715
3649.875000	5325.861816
3649.120117	5470.717773
3648.365234	5363.887695
3647.610352	5422.617676
3646.854492	5603.797852
3646.099609	5589.662598
3645.343750	5621.855957
3644.587891	5554.787598
3643.832031	5762.292969
3643.076172	5562.930176
3642.320313	5783.594238
3641.564453	5660.335938
3640.808594	5722.238281
3640.051758	5810.562012
3639.294922	5793.107910
3638.539063	5993.732910
3637.782227	5649.195801
3637.025391	5839.870117
3636.267578	5928.104004
3635.510742	5996.497070
3634.753906	5985.631836
3633.996094	6146.420898
3633.239258	5772.485352
3632.481445	6032.254395
3631.723633	6037.886719
3630.965820	6205.161621
3630.208008	6092.023926
3629.449219	6087.750000
3628.691406	6212.071289
3627.933594	6290.198242
3627.174805	6308.967773
3626.416016	6205.790527
3625.657227	6273.995117
3624.898438	6233.454102
3624.139648	6248.926270
3623.380859	6083.246094
3622.621094	6365.474121
3621.862305	6219.583008
3621.102539	6389.770508
3620.342773	6296.585938
3619.583984	6338.359375
3618.824219	6376.829102
3618.063477	6418.576172
3617.303711	6647.803223
3616.543945	6689.493164
3615.783203	6662.114746
3615.023438	6388.161621
3614.262695	6682.991211
3613.501953	6665.486816
3612.741211	6431.098633
3611.980469	6525.353027
3611.219727	6688.564941
3610.458008	6891.140137
3609.697266	6578.046875
3608.935547	6767.440430
3608.173828	6566.090332
3607.412109	6807.944824
3606.650391	6885.622070
3605.888672	6874.674805
3605.126953	6807.954590
3604.365234	6865.911621
3603.602539	6769.694824
3602.839844	6742.375000
3602.078125	6872.448730
3601.315430	6776.276367
3600.552734	6703.079590
3599.790039	6728.223633
3599.026367	6743.529785
3598.263672	6778.487793
3597.500000	6872.396973
3596.737305	6828.718750
3595.973633	6870.194824
3595.209961	6849.449707
3594.446289	6818.890137
3593.682617	6755.609375
3592.918945	6970.515137
3592.154297	6939.950195
3591.390625	6909.395020
3590.625977	7029.313965
3589.861328	6962.778809
3589.096680	7017.251953
3588.332031	6895.160156
3587.567383	6838.484375
3586.802734	6915.829590
3586.038086	6823.222168
3585.272461	6792.723633
3584.506836	6883.104980
3583.742188	6859.138672
3582.976563	7060.515137
3582.210938	6925.510742
3581.445313	6957.047852
3580.678711	6841.687500
3579.913086	6834.064453
3579.146484	6904.758301
3578.380859	7040.681152
3577.614258	6987.359863
3576.847656	6969.932617
3576.081055	6998.165527
3575.314453	7147.027344
3574.547852	6911.163574
3573.780273	6854.645508
3573.013672	6993.681641
3572.246094	6943.685059
3571.478516	6906.735840
3570.710938	6817.680176
3569.943359	7112.961426
3569.175781	7040.182617
3568.408203	6762.311035
3567.639648	6969.566406
3566.872070	6965.194824
3566.103516	6827.400879
3565.334961	6894.635254
3564.567383	6916.303223
3563.798828	6882.667969
3563.029297	6982.382324
3562.260742	6906.476074
3561.492188	6791.580566
3560.722656	6849.003418
3559.953125	6834.905762
3559.184570	6827.311523
3558.415039	6761.237305
3557.645508	6672.444336
3556.875000	6772.062988
3556.105469	6835.927246
3555.335938	6704.954102
3554.565430	6606.486816
3553.794922	6696.313965
3553.025391	6623.842773
3552.254883	6437.823730
3551.484375	6433.548340
3550.712891	6695.267578
3549.942383	6830.414063
3549.171875	6621.781250
3548.400391	6750.411133
3547.628906	6619.659668
3546.858398	6683.423828
3546.086914	6724.482422
3545.315430	6736.365723
3544.542969	6783.881348
3543.771484	6594.923828
3543.000000	6720.173828
3542.227539	6686.715820
3541.455078	6523.764648
3540.682617	6652.202637
3539.911133	6774.126465
3539.137695	6608.002930
3538.365234	6496.936035
3537.592773	6761.166016
3536.819336	6682.455078
3536.046875	6577.897461
3535.273438	6657.679688
3534.500000	6469.103027
3533.726563	6526.250000
3532.953125	6667.407715
3532.179688	6604.943359
3531.406250	6536.037109
3530.631836	6534.989746
3529.857422	6537.172852
3529.083984	6484.456543
3528.309570	6515.705566
3527.535156	6614.737793
3526.760742	6800.888184
3525.985352	6602.937012
3525.210938	6637.373047
3524.436523	6536.296875
3523.661133	6509.444336
3522.885742	6437.447266
3522.110352	6562.177734
3521.334961	6545.005371
3520.559570	6337.645020
3519.784180	6597.701172
3519.008789	6474.185547
3518.232422	6334.599121
3517.456055	6565.536621
3516.680664	6287.474609
3515.904297	6428.170410
3515.127930	6588.141113
3514.351563	6522.695801
3513.574219	6392.891602
3512.797852	6324.279297
3512.020508	6349.009766
3511.244141	6521.733887
3510.466797	6392.012207
3509.689453	6436.017578
3508.912109	6370.668457
3508.134766	6358.938965
3507.356445	6347.208984
3506.579102	6335.479492
3505.800781	6323.750000
3505.023438	6312.020020
3504.245117	6300.290527
3503.466797	6395.649414
3502.688477	6285.424805
3501.910156	6306.896484
3501.130859	6366.889648
3500.352539	6414.022949
3499.573242	6329.542969
3498.794922	6402.339844
3498.015625	6285.801758
3497.236328	6297.627441
3496.457031	6280.580078
3495.677734	6173.737793
3494.897461	6297.807129
3494.118164	6360.919922
3493.337891	6343.873047
3492.557617	6240.293945
3491.777344	6329.021973
3490.998047	6183.825195
3490.216797	6253.312012
3489.436523	6290.746582
3488.656250	6456.269043
3487.875000	6285.528809
3487.094727	6278.118652
3486.313477	6321.926270
3485.532227	6167.291016
3484.750977	6281.500977
3483.969727	6123.721680
3483.188477	6445.832031
3482.406250	6172.934082
3481.625000	6091.997559
3480.842773	6135.784668
3480.060547	6348.991699
3479.278320	6095.461914
3478.496094	6209.535645
3477.713867	6071.141113
3476.931641	6143.649414
3476.148438	6123.499023
3475.366211	6279.014160
3474.583008	5837.333496
3473.799805	6142.904785
3473.016602	5995.076172
3472.233398	6083.484863
3471.450195	5977.198730
3470.666992	6138.968262
3469.882813	6055.039063
3469.099609	6079.586426
3468.315430	6212.558105
3467.531250	5946.901855
3466.747070	6086.228516
3465.962891	5884.430176
3465.178711	5998.224609
3464.394531	5987.703613
3463.609375	5913.462891
3462.825195	6055.868164
3462.040039	6230.079102
3461.254883	6184.496094
3460.469727	5814.150391
3459.684570	5972.397461
3458.899414	5968.257324
3458.113281	6062.777832
3457.328125	5998.165039
3456.541992	6057.653320
3455.755859	5977.156738
3454.969727	5988.920898
3454.183594	6061.101074
3453.397461	5945.667969
3452.611328	6017.831543
3451.824219	5762.588867
3451.038086	5945.987305
3450.250977	5906.905273
3449.463867	6007.621094
3448.676758	6101.951660
3447.889648	5669.046387
3447.102539	5922.171875
3446.315430	5895.823242
3445.527344	5917.099121
3444.740234	5789.194824
3443.952148	5747.012695
3443.164063	5873.007324
3442.375977	5700.757813
3441.587891	5823.546875
3440.799805	5901.897461
3440.011719	5821.680176
3439.222656	5763.681152
3438.434570	5927.588379
3437.645508	5704.785645
3436.856445	5855.974609
3436.067383	5848.699219
3435.278320	5949.131836
3434.489258	5675.791016
3433.699219	5760.384277
3432.910156	5791.124023
3432.120117	5628.741211
3431.330078	5722.796875
3430.540039	5737.703613
3429.750000	5758.933594
3428.959961	5913.033691
3428.169922	5817.188965
3427.378906	5715.049316
3426.588867	5888.055664
3425.797852	5773.290039
3425.006836	5848.233398
3424.215820	5701.903809
3423.424805	5710.470703
3422.633789	5545.251465
3421.842773	5566.477051
3421.050781	5764.581055
3420.259766	5668.912109
3419.467773	5734.314453
3418.675781	5641.837402
3417.883789	5757.729004
3417.091797	5725.244629
3416.299805	5695.926270
3415.506836	5641.375977
3414.714844	5735.110352
3413.921875	5481.861816
3413.128906	5733.271973
3412.336914	5662.984375
3411.543945	5381.495117
3410.750000	5478.347656
3409.957031	5704.383789
3409.164063	5590.030273
3408.370117	5661.597656
3407.576172	5591.388184
3406.783203	5615.688477
3405.989258	5602.191895
3405.195313	5415.528809
3404.400391	5468.177734
3403.606445	5423.235352
3402.812500	5529.365723
3402.017578	5468.694824
3401.222656	5543.323242
3400.427734	5482.669434
3399.633789	5462.919922
3398.837891	5672.727539
3398.042969	5458.024414
3397.248047	5447.719238
3396.452148	5352.555176
3395.657227	5427.117188
3394.861328	5476.519531
3394.065430	5337.415527
3393.269531	5333.418457
3392.473633	5357.687500
3391.677734	5441.608398
3390.880859	5217.832031
3390.084961	5342.555176
3389.288086	5511.176758
3388.491211	5428.705566
3387.694336	5346.260742
3386.897461	5502.252441
3386.100586	5338.273926
3385.302734	5375.049316
3384.505859	5324.020020
3383.708008	5360.786133
3382.911133	5322.312988
3382.113281	5274.450195
3381.315430	5474.145996
3380.517578	5385.545410
3379.718750	5409.741699
3378.920898	5390.082520
3378.123047	5314.063477
3377.324219	5350.782715
3376.525391	5240.359375
3375.726563	5374.106445
3374.927734	5291.879395
3374.128906	5287.902344
3373.330078	5506.044434
3372.530273	5201.752441
3371.731445	5379.181641
3370.931641	5368.938477
3370.131836	5352.445313
3369.332031	5201.542969
3368.532227	5360.105469
3367.732422	5174.875488
3366.932617	5058.441895
3366.131836	5232.570313
3365.332031	5272.335938
3364.531250	5252.752930
3363.730469	5395.541992
3362.929688	5132.435547
3362.128906	5162.826660
3361.327148	5289.956543
3360.526367	5261.024414
3359.725586	5163.463379
3358.923828	5231.262207
3358.122070	5136.855957
3357.320313	5276.360840
3356.518555	5160.151855
3355.716797	5212.320313
3354.915039	5289.407715
3354.112305	5366.469727
3353.310547	5253.436035
3352.507813	5380.325684
3351.705078	5310.934570
3350.902344	5191.734863
3350.099609	5137.965820
3349.296875	5149.595703
3348.493164	5189.237793
3347.690430	5101.257813
3346.886719	5072.432129
3346.083008	5037.393066
3345.279297	5108.136230
3344.475586	5175.746582
3343.671875	5209.125488
3342.868164	5142.992188
3342.063477	5179.474609
3341.259766	5187.969238
3340.455078	5152.949707
3339.650391	5015.396484
3338.845703	4940.025391
3338.041016	5035.532715
3337.236328	4978.818359
3336.431641	5204.716797
3335.625977	5054.844727
3334.821289	5137.854004
3334.015625	5214.628418
3333.209961	5427.930176
3332.404297	5113.661621
3331.598633	5022.870117
3330.791992	4997.249023
3329.986328	5136.012695
3329.180664	5054.563965
3328.374023	5224.278809
3327.567383	5176.941406
3326.760742	5151.314941
3325.954102	5122.598145
3325.147461	5050.511719
3324.339844	5074.485352
3323.533203	5244.032715
3322.725586	5097.633301
3321.918945	5140.166504
3321.111328	5018.598145
3320.303711	5064.225586
3319.496094	4970.563477
3318.687500	5201.853516
3317.879883	5046.318848
3317.071289	5082.631348
3316.263672	5156.048340
3315.455078	5043.890625
3314.646484	5117.290039
3313.837891	5029.906250
3313.029297	5029.099609
3312.219727	5071.560059
3311.411133	5209.797852
3310.601563	5032.858398
3309.792969	4985.715332
3308.983398	5006.535645
3308.173828	5067.493164
3307.364258	4958.615723
3306.553711	5090.563965
3305.744141	5102.093750
3304.933594	4946.971680
3304.124023	5162.167969
3303.313477	5238.466797
3302.502930	5003.197754
3301.692383	4953.049805
3300.881836	5100.267578
3300.070313	4976.125488
3299.259766	5123.291992
3298.448242	4956.036133
3297.637695	5201.770508
3296.826172	5006.824707
3296.014648	5320.245605
3295.203125	5085.301758
3294.390625	4905.866699
3293.579102	5200.677734
3292.766602	4876.584961
3291.955078	5035.866699
3291.142578	5136.621582
3290.330078	4929.626953
3289.517578	4968.832520
3288.705078	5198.749023
3287.891602	4948.784180
3287.079102	4892.636230
3286.265625	4898.000488
3285.453125	5063.222168
3284.639648	4890.281250
3283.826172	4883.350098
3283.012695	4913.293945
3282.198242	4930.938965
3281.384766	4927.076172
3280.570313	4828.005371
3279.756836	5011.476074
3278.942383	4986.109863
3278.127930	4844.100098
3277.313477	5021.340820
3276.499023	4989.847168
3275.683594	4881.656250
3274.869141	5021.991699
3274.053711	4772.733398
3273.238281	4891.573242
3272.423828	4930.650879
3271.608398	4715.250977
3270.791992	4929.068359
3269.976563	4824.072266
3269.161133	4893.778320
3268.344727	5015.547363
3267.528320	4821.750000
3266.712891	4824.039063
3265.896484	4884.512695
3265.080078	4908.223633
3264.262695	4882.944824
3263.446289	4802.577148
3262.629883	4853.833496
3261.812500	4880.593750
3260.995117	4922.642578
3260.177734	4778.082031
3259.360352	4630.508789
3258.542969	4834.649902
3257.725586	4962.287598
3256.907227	4952.320313
3256.089844	4801.756836
3255.271484	4767.370117
3254.453125	4742.161133
3253.634766	4759.729980
3252.816406	4743.693359
3251.998047	4776.526367
3251.179688	4940.651367
3250.360352	4891.009277
3249.541992	4816.962402
3248.722656	4779.563965
3247.903320	4815.416016
3247.083984	4738.365234
3246.264648	4841.325684
3245.444336	4703.292969
3244.625000	4781.828125
3243.804688	4753.618652
3242.985352	4710.174316
3242.165039	4938.030273
3241.344727	4778.758301
3240.524414	4863.312500
3239.703125	4807.691406
3238.882813	4794.734375
3238.061523	4757.416016
3237.241211	4823.647461
3236.419922	4719.352051
3235.598633	4782.523438
3234.777344	4839.587402
3233.956055	4729.252441
3233.134766	4637.209473
3232.312500	4885.933105
3231.490234	4702.640137
3230.668945	4717.091797
3229.846680	4777.150879
3229.024414	4797.666504
3228.202148	4723.939453
3227.378906	4814.362305
3226.556641	4853.094727
3225.733398	4806.739746
3224.911133	4760.398926
3224.087891	4850.757324
3223.264648	4689.020996
3222.441406	4776.325195
3221.618164	4863.600586
3220.793945	4732.294922
3219.970703	4728.500000
3219.146484	4667.050781
3218.322266	4890.817871
3217.498047	4720.155273
3216.673828	4652.670410
3215.849609	4657.988770
3215.025391	4711.817383
3214.201172	4529.166504
3213.375977	4773.957031
3212.550781	4661.058594
3211.725586	4666.370117
3210.900391	4692.887207
3210.075195	4722.425293
3209.250000	4782.239746
3208.424805	4754.218262
3207.598633	4880.617188
3206.772461	4704.256348
3205.947266	4851.809082
3205.121094	4569.591797
3204.294922	4771.582031
3203.467773	4740.562988
3202.641602	4736.776855
3201.815430	4784.404785
3200.988281	4559.875488
3200.161133	4943.103027
3199.333984	4694.437988
3198.506836	4729.951660
3197.679688	4810.782227
3196.852539	4683.112305
3196.024414	4836.424805
3195.197266	4681.607910
3194.369141	4602.338379
3193.541016	4788.803223
3192.712891	4579.727539
3191.884766	4539.751953
3191.056641	4605.417969
3190.227539	4761.586914
3189.399414	4676.346191
3188.570313	4669.562012
3187.741211	4795.485352
3186.913086	4806.776855
3186.083008	4793.944824
3185.253906	4645.460449
3184.424805	4747.193359
3183.594727	4665.062988
3182.765625	4643.221680
3181.935547	4585.235840
3181.105469	4683.900391
3180.275391	4809.638184
3179.445313	4848.010742
3178.615234	4597.343750
3177.784180	4641.758301
3176.954102	4634.993164
3176.123047	4814.803711
3175.291992	4771.907227
3174.460938	4656.825684
3173.629883	4638.030762
3172.798828	4817.724609
3171.966797	4699.684082
3171.135742	4786.113281
3170.303711	4797.367676
3169.471680	4616.273438
3168.639648	4720.703613
3167.807617	4909.223633
3166.975586	4641.083984
3166.143555	4610.303711
3165.310547	4633.586914
3164.478516	4539.765137
3163.645508	4617.087891
3162.812500	4625.350586
3161.979492	4627.608398
3161.146484	4608.861328
3160.312500	4728.124023
3159.479492	4622.378418
3158.645508	4612.638184
3157.812500	4662.873535
3156.978516	4797.041016
3156.144531	4685.356445
3155.310547	4648.637207
3154.475586	4830.689453
3153.641602	4599.203613
3152.807617	4739.264648
3151.972656	4570.768066
3151.137695	4683.835449
3150.302734	4572.293457
3149.467773	4742.206055
3148.632813	4469.050293
3147.796875	4501.253418
3146.961914	4626.209961
3146.125977	4508.782715
3145.290039	4651.645508
3144.455078	4612.016113
3143.618164	4629.217285
3142.782227	4514.854492
3141.946289	4487.223145
3141.109375	4698.721680
3140.273438	4650.149902
3139.436523	4694.223145
3138.599609	4609.816895
3137.762695	4456.734375
3136.925781	4485.884277
3136.088867	4789.748047
3135.250977	4490.413574
3134.414063	4552.379883
3133.576172	4485.985352
3132.738281	4658.348145
3131.900391	4457.689453
3131.062500	4546.470215
3130.224609	4626.273926
3129.385742	4497.291992
3128.547852	4535.332520
3127.708984	4555.472656
3126.870117	4465.314941
3126.031250	4327.500000
3125.192383	4508.577637
3124.353516	4534.667480
3123.514648	4471.380859
3122.674805	4464.705078
3121.835938	4568.216309
3120.996094	4561.526855
3120.156250	4626.288086
3119.316406	4438.021973
3118.476563	4529.566406
3117.635742	4546.691895
3116.795898	4438.856934
3115.955078	4631.494141
3115.114258	4505.834961
3114.274414	4466.452637
3113.433594	4379.512207
3112.591797	4551.225098
3111.750977	4410.798340
3110.910156	4499.241699
3110.068359	4459.891602
3109.226563	4560.181641
3108.384766	4621.825195
3107.542969	4701.268066
3106.701172	4462.962402
3105.859375	4557.249023
3105.017578	4411.063965
3104.174805	4635.917969
3103.332031	4614.400391
3102.490234	4527.615723
3101.647461	4571.385254
3100.803711	4508.363281
3099.960938	4504.672852
3099.118164	4391.275391
3098.274414	4541.763672
3097.431641	4549.925781
3096.587891	4347.666016
3095.744141	4426.972168
3094.900391	4580.320313
3094.056641	4514.414551
3093.211914	4495.918457
3092.368164	4474.466309
3091.523438	4565.530762
3090.678711	4307.249512
3089.833984	4460.468262
3088.989258	4575.165527
3088.144531	4512.293457
3087.299805	4573.693848
3086.454102	4354.071289
3085.609375	4536.733398
3084.763672	4459.122070
3083.917969	4396.318359
3083.072266	4605.488770
3082.226563	4501.303711
3081.380859	4556.726074
3080.534180	4499.855469
3079.688477	4372.104492
3078.841797	4519.083496
3077.995117	4409.088867
3077.148438	4402.474121
3076.301758	4336.816895
3075.455078	4480.754883
3074.607422	4527.254395
3073.760742	4426.199219
3072.913086	4561.201660
3072.065430	4477.872070
3071.217773	4494.848145
3070.370117	4429.249023
3069.522461	4463.917480
3068.673828	4392.448242
3067.826172	4347.529297
3066.977539	4305.571777
3066.128906	4481.670898
3065.280273	4377.837891
3064.431641	4424.262695
3063.583008	4420.605469
3062.734375	4358.057129
3061.884766	4528.117188
3061.035156	4539.163086
3060.186523	4470.738770
3059.336914	4358.195313
3058.487305	4492.837891
3057.636719	4548.009277
3056.787109	4509.040039
3055.937500	4305.395996
3055.086914	4460.542969
3054.236328	4221.693359
3053.385742	4388.561035
3052.535156	4379.038086
3051.684570	4457.672363
3050.833984	4348.248535
3049.982422	4473.862793
3049.130859	4473.142578
3048.280273	4525.281250
3047.428711	4433.533203
3046.577148	4415.206055
3045.725586	4443.847168
3044.873047	4372.699219
3044.021484	4404.271484
3043.168945	4230.471191
3042.316406	4300.188965
3041.464844	4276.034668
3040.612305	4448.354004
3039.758789	4368.477539
3038.906250	4364.843262
3038.053711	4396.380371
3037.200195	4436.699219
3036.346680	4362.735352
3035.493164	4271.218750
3034.639648	4305.679199
3033.786133	4176.129395
3032.932617	4421.416992
3032.079102	4347.514648
3031.224609	4297.053223
3030.370117	4272.947754
3029.515625	4386.381836
3028.661133	4330.086914
3027.806641	4437.624512
3026.952148	4232.174316
3026.097656	4278.282227
3025.242188	4488.110840
3024.386719	4335.372559
3023.532227	4270.370117
3022.676758	4328.131348
3021.820313	4403.405762
3020.964844	4317.973145
3020.109375	4320.199219
3019.252930	4480.134277
3018.397461	4368.449219
3017.541016	4338.549805
3016.684570	4273.629883
3015.828125	4232.080078
3014.970703	4210.971191
3014.114258	4370.768555
3013.256836	4323.388672
3012.400391	4261.439453
3011.542969	4371.573730
3010.685547	4443.766113
3009.828125	4343.927246
3008.970703	4325.738281
3008.112305	4374.587402
3007.254883	4231.097656
3006.396484	4227.502930
3005.538086	4290.908691
3004.679688	4264.004395
3003.821289	4318.647949
3002.962891	4326.687012
3002.104492	4311.434570
3001.245117	4246.704590
3000.385742	4342.058105
2999.527344	4207.509766
2998.667969	4352.296875
2997.808594	4424.315918
2996.948242	4350.894531
2996.088867	4350.193848
2995.229492	4279.715332
2994.369141	4322.629883
2993.508789	4292.868652
2992.648438	4245.681152
2991.788086	4303.107910
2990.927734	4328.560547
2990.067383	4316.244629
2989.206055	4269.083008
2988.344727	4454.230469
2987.484375	4250.288574
2986.623047	4179.937988
2985.761719	4295.355469
2984.899414	4245.332520
2984.038086	4230.142090
2983.176758	4264.270996
2982.314453	4330.292969
2981.452148	4413.693359
2980.589844	4383.987305
2979.727539	4278.917480
2978.865234	4202.866211
2978.002930	4312.315430
2977.139648	4160.945313
2976.276367	4337.000000
2975.414063	4397.130859
2974.550781	4268.989746
2973.687500	4276.989258
2972.824219	4215.499512
2971.959961	4368.244141
2971.096680	4321.230957
2970.232422	4320.534668
2969.368164	4206.996094
2968.503906	4452.216797
2967.639648	4275.059082
2966.775391	4216.530273
2965.911133	4302.596680
2965.045898	4261.428223
2964.181641	4220.272949
2963.316406	4239.823730
2962.451172	4337.389160
2961.585938	4368.471191
2960.720703	4298.437500
2959.854492	4280.415039
2958.989258	4285.500977
2958.123047	4203.964355
2957.256836	4232.155762
2956.391602	4263.224121
2955.524414	4302.939941
2954.658203	4333.986816
2953.791992	4310.208008
2952.924805	4332.589355
2952.058594	4282.861816
2951.191406	4541.696777
2950.324219	4399.689941
2949.457031	4300.969727
2948.589844	4481.856445
2947.722656	4515.714844
2946.854492	4301.770996
2945.986328	4327.004883
2945.119141	4173.647949
2944.250977	4337.129395
2943.382813	4278.841309
2942.513672	4376.036621
2941.645508	4283.218750
2940.777344	4308.430664
2939.908203	4362.410156
2939.039063	4373.215332
2938.169922	4493.329102
2937.300781	4320.033691
2936.431641	4371.100098
2935.562500	4249.634277
2934.692383	4513.430176
2933.822266	4374.734375
2932.953125	4382.650391
2932.083008	4410.677734
2931.212891	4297.921875
2930.341797	4300.101074
2929.471680	4270.687500
2928.601563	4292.971191
2927.730469	4487.513184
2926.859375	4328.904785
2925.988281	4394.220703
2925.117188	4425.078613
2924.246094	4395.672363
2923.375000	4366.275879
2922.502930	4443.016113
2921.630859	4410.752930
2920.759766	4303.948242
2919.887695	4443.733398
2919.015625	4474.547852
2918.142578	4453.764160
2917.270508	4539.011719
2916.397461	4429.406738
2915.525391	4503.172363
2914.652344	4350.645996
2913.779297	4518.901855
2912.906250	4400.780273
2912.033203	4391.482422
2911.159180	4436.570801
2910.286133	4435.854980
2909.412109	4443.723633
2908.538086	4545.999512
2907.664063	4413.685059
2906.790039	4478.752930
2905.916016	4435.137695
2905.041992	4431.562988
2904.166992	4439.423828
2903.291992	4484.437988
2902.417969	4389.410645
2901.542969	4385.845215
2900.666992	4587.967773
2899.791992	4287.315430
2898.916992	4417.992676
2898.041016	4257.378418
2897.165039	4316.644531
2896.290039	4361.619629
2895.414063	4443.681641
2894.538086	4403.015137
2893.661133	4376.626953
2892.785156	4338.836426
2891.908203	4318.171387
2891.032227	4360.250000
2890.155273	4279.711426
2889.278320	4350.290527
2888.401367	4261.228516
2887.523438	4377.384766
2886.646484	4388.076172
2885.768555	4233.524902
2884.891602	4204.356934
2884.013672	4252.094727
2883.135742	4362.463379
2882.256836	4256.416504
2881.378906	4250.036133
2880.500977	4283.504395
2879.622070	4356.801758
2878.743164	4287.812012
2877.865234	4287.120117
2876.985352	4294.960938
2876.106445	4311.331055
2875.227539	4250.923340
2874.348633	4196.220703
2873.468750	4300.715820
2872.588867	4228.970703
2871.708984	4299.327637
2870.829102	4275.904297
2869.949219	4334.868164
2869.069336	4160.915527
2868.188477	4285.192871
2867.308594	4304.375977
2866.427734	4454.139648
2865.546875	4217.834961
2864.666016	4160.395508
2863.785156	4264.709961
2862.903320	4264.021484
2862.022461	4263.332520
2861.140625	4220.103027
2860.258789	4222.257324
2859.376953	4196.059082
2858.495117	4206.720215
2857.613281	4305.239746
2856.731445	4177.023438
2855.848633	4284.016113
2854.965820	4274.825684
2854.083984	4293.962402
2853.201172	4474.515137
2852.318359	4235.945313
2851.434570	4240.923340
2850.551758	4237.407715
2849.667969	4349.929199
2848.785156	4332.248535
2847.901367	4300.427246
2847.017578	4387.424805
2846.133789	4273.583496
2845.249023	4320.966797
2844.365234	4215.654785
2843.480469	4277.166992
2842.596680	4364.097168
2841.711914	4258.829102
2840.827148	4388.117676
2839.942383	4268.753906
2839.056641	4248.291504
2838.171875	4196.769531
2837.286133	4371.164063
2836.401367	4316.815430
2835.515625	4208.850098
2834.629883	4312.598145
2833.743164	4388.093750
2832.857422	4285.811523
2831.971680	4242.804199
2831.084961	4298.529785
2830.198242	4221.692383
2829.311523	4113.863770
2828.424805	4361.288086
2827.538086	4281.658691
2826.651367	4140.053223
2825.763672	4297.182129
2824.876953	4231.688477
2823.989258	4214.103027
2823.101563	4196.523438
2822.213867	4249.349609
2821.325195	4268.371582
2820.437500	4419.696777
2819.549805	4292.323730
2818.661133	4136.850098
2817.772461	4288.123047
2816.883789	4211.471680
2815.995117	4154.534668
2815.106445	4308.543457
2814.216797	4260.044434
2813.328125	4332.453613
2812.438477	4227.746582
2811.548828	4342.295410
2810.659180	4335.973633
2809.769531	4444.848633
2808.879883	4371.091309
2807.989258	4333.871582
2807.099609	4282.622070
2806.208984	4366.164551
2805.318359	4253.164063
2804.427734	4196.337891
2803.537109	4364.047363
2802.646484	4436.298340
2801.754883	4300.914551
2800.863281	4227.286621
2799.972656	4192.947266
2799.081055	4265.178711
2798.189453	4253.273926
2797.296875	4319.865234
2796.405273	4417.266113
2795.513672	4304.456543
2794.621094	4275.741211
2793.728516	4289.057617
2792.835938	4408.808105
2791.943359	4394.092285
2791.050781	4320.578613
2790.157227	4367.474609
2789.264648	4417.153809
2788.371094	4444.427246
2787.477539	4410.128906
2786.583984	4403.820313
2785.690430	4456.258789
2784.796875	4357.645020
2783.903320	4309.399902
2783.008789	4437.320801
2782.114258	4268.867676
2781.219727	4243.020996
2780.325195	4348.533203
2779.430664	4579.750977
2778.536133	4333.157715
2777.640625	4446.983398
2776.746094	4264.727051
2775.850586	4392.488770
2774.955078	4361.066406
2774.059570	4226.368164
2773.164063	4289.878906
2772.267578	4319.881836
2771.372070	4366.616211
2770.475586	4360.330566
2769.579102	4409.832031
2768.683594	4370.075195
2767.786133	4282.928711
2766.889648	4438.359375
2765.993164	4367.954590
2765.095703	4372.821777
2764.199219	4402.766602
2763.301758	4463.348633
2762.404297	4228.631348
2761.506836	4406.200684
2760.608398	4528.017090
2759.710938	4482.735352
2758.812500	4459.739258
2757.914063	4222.428223
2757.016602	4424.900879
2756.118164	4329.579590
2755.218750	4431.814941
2754.320313	4436.661133
2753.421875	4335.821777
2752.522461	4443.567383
2751.623047	4373.342285
2750.723633	4444.909180
2749.824219	4380.264648
2748.924805	4465.702148
2748.025391	4462.200684
2747.125000	4405.918457
2746.224609	4363.541992
2745.325195	4368.390137
2744.424805	4239.957031
2743.523438	4328.109375
2742.623047	4307.978516
2741.722656	4412.743164
2740.821289	4320.458496
2739.919922	4350.277832
2739.019531	4335.703613
2738.118164	4429.301270
2737.215820	4264.973633
2736.314453	4425.094727
2735.413086	4404.973145
2734.510742	4440.292480
2733.608398	4361.978027
2732.706055	4330.792969
2731.803711	4385.499512
2730.901367	4287.842285
2729.999023	4469.933105
2729.095703	4347.372559
2728.193359	4371.585938
2727.290039	4442.849609
2726.386719	4478.109863
2725.483398	4521.660645
2724.579102	4382.589355
2723.675781	4271.226074
2722.771484	4417.126465
2721.868164	4322.386230
2720.963867	4388.046387
2720.059570	4395.629395
2719.155273	4276.061523
2718.250000	4377.624023
2717.345703	4346.520020
2716.440430	4373.443359
2715.536133	4422.457031
2714.630859	4344.408691
2713.725586	4166.974121
2712.819336	4378.894043
2711.914063	4416.832031
2711.007813	4399.556152
2710.102539	4357.449219
2709.196289	4376.057617
2708.290039	4339.485352
2707.383789	4366.365234
2706.477539	4384.962891
2705.570313	4387.010254
2704.664063	4380.785645
2703.756836	4374.562988
2702.849609	4288.416504
2701.942383	4284.966309
2701.035156	4380.702637
2700.127930	4374.483887
2699.219727	4318.689941
2698.312500	4381.328125
2697.404297	4474.232910
2696.496094	4426.708008
2695.587891	4423.238281
2694.679688	4386.745605
2693.770508	4284.225586
2692.862305	4415.586426
2691.953125	4335.101074
2691.043945	4392.153809
2690.134766	4286.949219
2689.225586	4332.994141
2688.316406	4491.729004
2687.406250	4287.614258
2686.497070	4295.163574
2685.586914	4357.661621
2684.676758	4477.829590
2683.766602	4424.916992
2682.856445	4358.289551
2681.946289	4407.007813
2681.035156	4367.858887
2680.124023	4408.324219
2679.213867	4476.221680
2678.302734	4390.431641
2677.391602	4414.412109
2676.479492	4265.567383
2675.568359	4407.495605
2674.657227	4445.172852
2673.745117	4414.292480
2672.833008	4336.818848
2671.920898	4462.197754
2671.008789	4384.741211
2670.096680	4466.230957
2669.183594	4347.705566
2668.270508	4522.305176
2667.358398	4425.717773
2666.445313	4378.450195
2665.532227	4385.953613
2664.619141	4541.271973
2663.705078	4272.318359
2662.791992	4367.401855
2661.877930	4380.374023
2660.963867	4297.596191
2660.049805	4253.137207
2659.135742	4482.162109
2658.221680	4563.462402
2657.306641	4472.506836
2656.392578	4343.313965
2655.477539	4405.466797
2654.562500	4396.554688
2653.647461	4466.874512
2652.732422	4490.734375
2651.817383	4421.727539
2650.901367	4445.586914
2649.986328	4409.372559
2649.070313	4465.983398
2648.154297	4454.341797
2647.238281	4532.758301
2646.321289	4392.870117
2645.405273	4520.375977
2644.489258	4445.997070
2643.572266	4475.274902
2642.655273	4460.915527
2641.738281	4501.085938
2640.821289	4388.596680
2639.903320	4494.174805
2638.986328	4441.671875
2638.068359	4443.675781
2637.151367	4412.990234
2636.233398	4330.565430
2635.315430	4376.157227
2634.396484	4386.337891
2633.478516	4374.737305
2632.559570	4439.352051
2631.641602	4433.188965
2630.722656	4522.261719
2629.803711	4388.222168
2628.884766	4382.069824
2627.965820	4386.797852
2627.045898	4522.046875
2626.125977	4488.687500
2625.207031	4447.184570
2624.287109	4383.951172
2623.367188	4432.153809
2622.447266	4455.887695
2621.526367	4550.244141
2620.606445	4362.093262
2619.685547	4548.767578
2618.764648	4379.684082
2617.843750	4463.132324
2616.922852	4367.405273
2616.001953	4429.116699
2615.080078	4414.830566
2614.159180	4321.870605
2613.237305	4595.141602
2612.315430	4442.514648
2611.393555	4496.027832
2610.471680	4487.164063
2609.548828	4527.098145
2608.626953	4417.947754
2607.704102	4514.789063
2606.781250	4598.050781
2605.858398	4475.395996
2604.935547	4474.669434
2604.012695	4503.733398
2603.089844	4549.033691
2602.166016	4445.416992
2601.242188	4528.608887
2600.318359	4500.809082
2599.394531	4440.546387
2598.470703	4569.691895
2597.546875	4579.770508
2596.622070	4476.249023
2595.698242	4470.113770
2594.773438	4504.537109
2593.848633	4628.160645
2592.923828	4538.212402
2591.998047	4640.169922
2591.073242	4404.338379
2590.147461	4487.372559
2589.222656	4581.185059
2588.296875	4502.119629
2587.371094	4509.489258
2586.445313	4435.860840
2585.518555	4410.845703
2584.592773	4426.323242
2583.666016	4552.435547
2582.739258	4459.960449
2581.812500	4456.538574
2580.885742	4439.631348
2579.958984	4430.819824
2579.031250	4395.047363
2578.104492	4475.210938
2577.176758	4415.183105
2576.249023	4546.522949
2575.321289	4599.676270
2574.393555	4518.104004
2573.465820	4452.720703
2572.537109	4538.182129
2571.608398	4478.202148
2570.680664	4517.860840
2569.751953	4611.345703
2568.823242	4500.243652
2567.893555	4442.999512
2566.964844	4549.903809
2566.035156	4498.050293
2565.105469	4467.731445
2564.176758	4563.822266
2563.246094	4517.369141
2562.316406	4403.719238
2561.386719	4454.076172
2560.456055	4399.600098
2559.526367	4425.756836
2558.595703	4564.747070
2557.665039	4456.553711
2556.734375	4638.467285
2555.802734	4597.432129
2554.872070	4602.055176
2553.940430	4603.991699
2553.009766	4573.732422
2552.078125	4543.473633
2551.146484	4513.214844
2550.213867	4482.955566
2549.282227	4533.191895
2548.349609	4553.910156
2547.417969	4566.577148
2546.485352	4490.765625
2545.552734	4666.956055
2544.620117	4561.670410
2543.686523	4547.529785
2542.753906	4503.921387
2541.820313	4578.197754
2540.887695	4526.562988
2539.954102	4520.471191
2539.020508	4484.927734
2538.085938	4556.480957
2537.152344	4507.559570
2536.217773	4589.790527
2535.284180	4562.286133
2534.349609	4609.701172
2533.415039	4611.626465
2532.480469	4648.319824
2531.544922	4668.956543
2530.610352	4732.364746
2529.674805	4587.241211
2528.739258	4533.039551
2527.803711	4647.213379
2526.868164	4667.833008
2525.932617	4589.600586
2524.997070	4738.432617
2524.060547	4540.036621
2523.124023	4389.768555
2522.187500	4511.862305
2521.250977	4513.797852
2520.314453	4670.526855
2519.377930	4573.703613
2518.440430	4666.339844
2517.503906	4753.610352
2516.566406	4712.830078
2515.628906	4613.395020
2514.691406	4636.641113
2513.752930	4507.926758
2512.815430	4555.170410
2511.876953	4679.682617
2510.938477	4585.662598
2510.000000	4742.098145
2509.061523	4626.789063
2508.123047	4535.486328
2507.184570	4603.980957
2506.245117	4568.621094
2505.306641	4645.073730
2504.367188	4654.963379
2503.427734	4611.628906
2502.487305	4626.842285
2501.547852	4647.370605
2500.608398	4681.191406
2499.667969	4597.990234
2498.727539	4597.241699
2497.787109	4601.810547
2496.846680	4550.558594
2495.906250	4472.747559
2494.964844	4487.962402
2494.024414	4444.724121
2493.083008	4454.625977
2492.141602	4700.896973
2491.200195	4487.696289
2490.258789	4733.881836
2489.317383	4464.998535
2488.375000	4745.611328
2487.432617	4723.608887
2486.490234	4759.985840
2485.547852	4584.122559
2484.605469	4668.253906
2483.663086	4611.801758
2482.720703	4555.368164
2481.777344	4726.949707
2480.833984	4530.028809
2479.890625	4603.498535
2478.947266	4555.051758
2478.003906	4739.767578
2477.059570	4720.453125
2476.116211	4664.065430
2475.171875	4689.786621
2474.227539	4591.059082
2473.283203	4616.783691
2472.338867	4608.091309
2471.394531	4575.584473
2470.449219	4551.025879
2469.503906	4579.385254
2468.559570	4697.667969
2467.614258	4651.943848
2466.667969	4630.032227
2465.722656	4663.646973
2464.777344	4591.516602
2463.831055	4529.981445
2462.884766	4595.306152
2461.938477	4750.439453
2460.992188	4665.132813
2460.045898	4582.495605
2459.099609	4621.360840
2458.152344	4615.327148
2457.205078	4664.733398
2456.257813	4558.394043
2455.310547	4541.816895
2454.363281	4546.354004
2453.416016	4535.060547
2452.467773	4576.525879
2451.520508	4599.516113
2450.572266	4619.861816
2449.624023	4598.017090
2448.675781	4649.988770
2447.726563	4591.247559
2446.778320	4680.095703
2445.829102	4818.975098
2444.879883	4815.555176
2443.930664	4696.245117
2442.981445	4692.846191
2442.032227	4702.613281
2441.083008	4783.458008
2440.132813	4795.838867
2439.182617	4768.739746
2438.232422	4678.497559
2437.282227	4701.412598
2436.332031	4732.211914
2435.381836	4715.660156
2434.430664	4764.854004
2433.480469	4835.065430
2432.529297	4534.599121
2431.578125	4752.010742
2430.626953	4638.236328
2429.674805	4763.598633
2428.723633	4754.940918
2427.771484	4604.448730
2426.819336	4556.426758
2425.867188	4637.082031
2424.915039	4662.579102
2423.962891	4664.443848
2423.010742	4479.970215
2422.057617	4704.907227
2421.104492	4748.741699
2420.151367	4656.155762
2419.198242	4484.916992
2418.245117	4615.302246
2417.291992	4436.259766
2416.337891	4592.824707
2415.383789	4620.907227
2414.430664	4552.017578
2413.475586	4546.034668
2412.521484	4519.095215
2411.567383	4544.551758
2410.612305	4567.380371
2409.658203	4438.329590
2408.703125	4359.063965
2407.748047	4541.586914
2406.792969	4485.884766
2405.837891	4411.883301
2404.881836	4411.163574
2403.925781	4358.125488
2402.970703	4370.491699
2402.013672	4296.556641
2401.058594	4376.909668
2400.101563	4386.652344
2399.144531	4412.074707
2398.189453	4424.421387
2397.232422	4353.150391
2396.275391	4334.152344
2395.318359	4278.591309
2394.361328	4353.630859
2393.404297	4292.862305
2392.445313	4234.724121
2391.488281	4406.317871
2390.529297	4324.689941
2389.572266	4337.031738
2388.613281	4226.741699
2387.656250	4210.399902
2386.697266	4162.764160
2385.738281	4211.633301
2384.779297	4294.382813
2383.820313	4171.153809
2382.861328	4251.275879
2381.902344	4167.186035
2380.943359	4137.843262
2379.982422	4215.325684
2379.023438	4331.855469
2378.064453	4164.465820
2377.103516	4273.153320
2376.142578	4290.680664
2375.183594	4196.267090
2374.222656	4075.856689
2373.261719	4129.839355
2372.300781	4209.823242
2371.339844	4099.875000
2370.378906	4221.453613
2369.417969	4236.367676
2368.455078	4079.665527
2367.494141	4185.588867
2366.533203	4135.518555
2365.570313	4142.639648
2364.609375	4100.387695
2363.646484	4177.659180
2362.683594	4008.131348
2361.720703	4116.559082
2360.757813	4017.209229
2359.794922	3985.396973
2358.832031	4015.897217
2357.869141	4072.342041
2356.906250	3970.468994
2355.943359	3959.441650
2354.978516	4049.593018
2354.015625	3924.428711
2353.050781	4066.423584
2352.085938	3982.784668
2351.123047	3987.318848
2350.158203	3981.483154
2349.193359	4001.566162
2348.228516	4133.066895
2347.263672	4103.892578
2346.298828	4020.328369
2345.333984	3998.951660
2344.367188	4114.828613
2343.402344	3971.753174
2342.437500	4020.290039
2341.470703	3918.689209
2340.503906	3902.521484
2339.539063	3966.570313
2338.572266	3940.051514
2337.605469	3949.754150
2336.638672	3974.970459
2335.671875	3963.977783
2334.705078	3965.915039
2333.738281	3996.285889
2332.771484	4202.392578
2331.802734	4191.369141
2330.835938	4281.111816
2329.867188	4487.070313
2328.900391	4460.508789
2327.931641	4271.265625
2326.962891	4203.436523
2325.994141	4189.841309
2325.027344	4034.289307
2324.058594	3971.692871
2323.089844	3798.165039
2322.119141	3954.915283
2321.150391	3920.735840
2320.181641	3974.254150
2319.210938	3744.109863
2318.242188	3833.733398
2317.271484	3825.373291
2316.302734	3981.964355
2315.332031	3919.467529
2314.361328	3890.485352
2313.390625	3797.111084
2312.419922	3726.947754
2311.449219	3873.125488
2310.478516	3916.263672
2309.507813	3804.925049
2308.537109	4053.976074
2307.564453	3780.518555
2306.593750	3749.022949
2305.621094	3846.171875
2304.650391	3832.681396
2303.677734	3814.051514
2302.705078	3687.427490
2301.732422	3851.368896
2300.759766	3809.609375
2299.787109	3801.275635
2298.814453	3816.072266
2297.841797	3882.250244
2296.869141	3714.636230
2295.896484	3860.432129
2294.921875	3751.941895
2293.949219	3959.307129
2292.974609	3709.638428
2292.000000	3737.266357
2291.027344	3726.389160
2290.052734	3769.400635
2289.078125	3879.102295
2288.103516	3727.125244
2287.128906	3729.079834
2286.154297	3923.355225
2285.177734	3745.806396
2284.203125	3778.518066
2283.228516	3803.529785
2282.251953	3820.845703
2281.277344	3727.981445
2280.300781	3742.741943
2279.324219	3737.006592
2278.347656	3715.907227
2277.371094	3802.356445
2276.394531	3768.452637
2275.417969	3760.156738
2274.441406	3782.574463
2273.464844	3894.543945
2272.488281	3730.167725
2271.509766	3839.550781
2270.533203	3836.364502
2269.554688	3863.865234
2268.578125	3791.643799
2267.599609	3783.354004
2266.621094	3782.734375
2265.642578	3738.671875
2264.664063	3768.720215
2263.685547	3880.507568
2262.707031	3826.233398
2261.728516	3736.223389
2260.750000	3687.096924
2259.769531	3763.082275
2258.791016	3831.385010
2257.810547	3738.880615
2256.832031	3804.612793
2255.851563	3837.156494
2254.871094	3831.426270
2253.890625	3795.092041
2252.910156	3738.369385
2251.929688	3702.062256
2250.949219	3821.268555
2249.968750	3703.398193
2248.988281	3791.984619
2248.005859	3806.651123
2247.025391	3849.335693
2246.042969	3825.780762
2245.062500	3725.832520
2244.080078	3692.120117
2243.097656	3760.253662
2242.115234	3802.910400
2241.132813	3753.931396
2240.150391	3750.771729
2239.167969	3762.877930
2238.185547	3726.648438
2237.203125	3896.443359
2236.218750	3748.313477
2235.236328	3829.060547
2234.253906	3706.411133
2233.269531	3644.802734
2232.285156	3817.012939
2231.300781	3877.368164
2230.318359	3828.463867
2229.333984	3738.935059
2228.349609	3644.356201
2227.365234	3783.415039
2226.378906	3759.945801
2225.394531	3683.178223
2224.410156	3659.732666
2223.423828	3646.445068
2222.439453	3772.703369
2221.453125	3774.621582
2220.468750	3761.321289
2219.482422	3755.632813
2218.496094	3686.559570
2217.509766	3711.305420
2216.523438	3670.142822
2215.537109	3661.938477
2214.550781	3755.088379
2213.564453	3734.205566
2212.576172	3670.269043
2211.589844	3677.264648
2210.601563	3709.579346
2209.615234	3784.922607
2208.626953	3761.520020
2207.638672	3730.532471
2206.650391	3694.493896
2205.664063	3676.177490
2204.675781	3716.048828
2203.685547	3667.383789
2202.697266	3742.646729
2201.708984	3686.407959
2200.720703	3713.611084
2199.730469	3685.198486
2198.742188	3687.121094
2197.751953	3671.355713
2196.763672	3577.279297
2195.773438	3649.943848
2194.783203	3720.058838
2193.792969	3686.622559
2192.802734	3655.721436
2191.812500	3645.024658
2190.822266	3679.760254
2189.832031	3656.445557
2188.839844	3726.489990
2187.849609	3657.768066
2186.857422	3682.389648
2185.867188	3724.655518
2184.875000	3686.223877
2183.882813	3589.822998
2182.892578	3755.588623
2181.900391	3576.044189
2180.908203	3764.434814
2179.916016	3726.027588
2178.921875	3722.896973
2177.929688	3697.101318
2176.937500	3724.192871
2175.943359	3622.876221
2174.951172	3672.625732
2173.957031	3722.359131
2172.964844	3762.010254
2171.970703	3711.072998
2170.976563	3655.121094
2169.982422	3694.763428
2168.988281	3739.422119
2167.994141	3766.465820
2167.000000	3740.708008
2166.005859	3717.472412
2165.009766	3666.600098
2164.015625	3751.428955
2163.019531	3713.128906
2162.025391	3745.173096
2161.029297	3556.199951
2160.033203	3681.167480
2159.039063	3597.712402
2158.042969	3697.529785
2157.046875	3782.255371
2156.050781	3736.465088
2155.052734	3632.983887
2154.056641	3695.100830
2153.060547	3717.067139
2152.062500	3686.363770
2151.066406	3675.729004
2150.068359	3665.097412
2149.072266	3777.287598
2148.074219	3716.520996
2147.076172	3705.887695
2146.078125	3640.142090
2145.080078	3591.951904
2144.082031	3686.530273
2143.083984	3781.077393
2142.085938	3767.937988
2141.085938	3744.790039
2140.087891	3781.716553
2139.087891	3733.549805
2138.089844	3762.959717
2137.089844	3684.793213
2136.089844	3656.674805
2135.089844	3723.593750
2134.089844	3705.479492
2133.089844	3734.869385
2132.089844	3779.246582
2131.089844	3721.146240
2130.089844	3755.516113
2129.089844	3729.916016
2128.087891	3781.757813
2127.087891	3751.166748
2126.085938	3907.863525
2125.083984	3657.558350
2124.082031	3736.835938
2123.082031	3666.338867
2122.080078	3725.625732
2121.078125	3645.173584
2120.076172	3736.873535
2119.072266	3731.270752
2118.070313	3688.263184
2117.068359	3607.869629
2116.064453	3702.008057
2115.062500	3731.309570
2114.058594	3710.758789
2113.054688	3725.098877
2112.052734	3851.542236
2111.048828	3875.817627
2110.044922	3827.861084
2109.041016	3750.039551
2108.037109	3677.222656
2107.031250	3748.805908
2106.027344	3678.501709
2105.023438	3730.153809
2104.017578	3639.971436
2103.013672	3718.976074
2102.007813	3656.184326
2101.001953	3648.122314
2099.998047	3732.059082
2098.992188	3636.978271
2097.986328	3668.692139
2096.980469	3682.999512
2095.972656	3617.790039
2094.966797	3820.910400
2093.960938	3715.956543
2092.955078	3630.905518
2091.947266	3771.845215
2090.939453	3729.018555
2089.933594	3639.042480
2088.925781	3630.997803
2087.917969	3620.474365
2086.910156	3684.386230
2085.902344	3651.531250
2084.894531	3769.982178
2083.886719	3590.812988
2082.878906	3706.755371
2081.871094	3666.480713
2080.861328	3670.834473
2079.853516	3603.318359
2078.843750	3654.759033
2077.833984	3681.408691
2076.826172	3710.526611
2075.816406	3727.251709
2074.806641	3644.924316
2073.796875	3624.518066
2072.787109	3594.217041
2071.777344	3704.998047
2070.765625	3640.049805
2069.755859	3538.010986
2068.744141	3750.168701
2067.734375	3660.511719
2066.722656	3600.559082
2065.712891	3711.228760
2064.701172	3663.647705
2063.689453	3640.799072
2062.677734	3630.314209
2061.666016	3543.235596
2060.654297	3720.525879
2059.642578	3742.143555
2058.628906	3600.756836
2057.617188	3570.532715
2056.605469	3555.131348
2055.591797	3574.293213
2054.578125	3563.832275
2053.566406	3605.194824
2052.552734	3639.141846
2051.539063	3645.942627
2050.525391	3591.081055
2049.511719	3760.643066
2048.498047	3649.072021
2047.484375	3584.375977
2046.468750	3512.306641
2045.455078	3595.516602
2044.439453	3567.820313
2043.425781	3618.967285
2042.410156	3618.370850
2041.394531	3558.668457
2040.380859	3656.575684
2039.365234	3587.038818
2038.349609	3598.755127
2037.333984	3755.673828
2036.316406	3572.961670
2035.300781	3663.404297
2034.285156	3525.045654
2033.267578	3561.357178
2032.251953	3632.083740
2031.234375	3592.145996
2030.218750	3608.761719
2029.201172	3664.697998
2028.183594	3528.932861
2027.166016	3614.348389
2026.148438	3643.232422
2025.130859	3696.669434
2024.113281	3588.002197
2023.093750	3614.420410
2022.076172	3581.908936
2021.056641	3613.228516
2020.039063	3548.822510
2019.019531	3771.535889
2018.001953	3689.950684
2016.982422	3498.006592
2015.962891	3521.955811
2014.943359	3560.610352
2013.923828	3640.932617
2012.904297	3647.686279
2011.882813	3531.887695
2010.863281	3641.581787
2009.843750	3636.080811
2008.822266	3574.236328
2007.802734	3551.602295
2006.781250	3492.240723
2005.759766	3508.804688
2004.738281	3549.844727
2003.716797	3571.288818
2002.695313	3543.778564
2001.673828	3540.746826
2000.652344	3537.716064
1999.630859	3617.855225
1998.609375	3546.331543
1997.585938	3428.369873
1996.564453	3520.711914
1995.541016	3488.351807
1994.517578	3443.781738
1993.494141	3479.869385
1992.472656	3562.368164
1991.449219	3508.035889
1990.425781	3421.968506
1989.400391	3558.162354
1988.376953	3386.655029
1987.353516	3491.072266
1986.328125	3507.582275
1985.304688	3433.788086
1984.279297	3540.585693
1983.255859	3357.023926
1982.230469	3336.955322
1981.205078	3468.104492
1980.179688	3362.676758
1979.154297	3410.883301
1978.128906	3493.201416
1977.103516	3304.953857
1976.078125	3409.194092
1975.050781	3359.901367
1974.025391	3393.451660
1972.998047	3373.405762
1971.972656	3441.036377
1970.945313	3238.374023
1969.917969	3298.700684
1968.892578	3468.540283
1967.865234	3460.666504
1966.837891	3438.195557
1965.808594	3359.776123
1964.781250	3385.978271
1963.753906	3448.652344
1962.724609	3414.039307
1961.697266	3369.712891
1960.667969	3274.353027
1959.640625	3354.016846
1958.611328	3341.312500
1957.582031	3423.368408
1956.552734	3240.609619
1955.523438	3427.094971
1954.494141	3307.534912
1953.464844	3328.840820
1952.435547	3391.409424
1951.404297	3500.074463
1950.375000	3399.995850
1949.343750	3474.653320
1948.314453	3391.593994
1947.283203	3468.653809
1946.251953	3429.276611
1945.222656	3433.559570
1944.191406	3321.468262
1943.158203	3340.311523
1942.126953	3490.024170
1941.095703	3462.791748
1940.064453	3433.145508
1939.031250	3435.000488
1938.000000	3441.698486
1936.966797	3366.059082
1935.935547	3312.235596
1934.902344	3418.204346
1933.869141	3446.684326
1932.835938	3339.633301
1931.802734	3348.759521
1930.769531	3495.778564
1929.736328	3362.165039
1928.703125	3419.651367
1927.667969	3377.979492
1926.634766	3300.056885
1925.599609	3338.186523
1924.566406	3361.802734
1923.531250	3484.484375
1922.496094	3454.915771
1921.460938	3384.291016
1920.425781	3473.094727
1919.390625	3453.201660
1918.355469	3375.368652
1917.320313	3430.333008
1916.285156	3432.179199
1915.248047	3441.264160
1914.212891	3409.328125
1913.175781	3326.741455
1912.138672	3427.496338
1911.103516	3414.871094
1910.066406	3399.838623
1909.029297	3420.973633
1907.992188	3427.638672
1906.955078	3342.720215
1905.917969	3361.444336
1904.878906	3411.481934
1903.841797	3297.701904
1902.802734	3364.592529
1901.765625	3424.236572
1900.726563	3389.962891
1899.687500	3488.098877
1898.650391	3485.114746
1897.611328	3371.434814
1896.572266	3459.900391
1895.533203	3278.903809
1894.494141	3376.976563
1893.453125	3306.676514
1892.414063	3414.329834
1891.375000	3452.229492
1890.333984	3336.282227
1889.292969	3330.923096
1888.253906	3527.406738
1887.212891	3459.553467
1886.171875	3338.877197
1885.130859	3424.784424
1884.089844	3304.153564
1883.048828	3387.637207
1882.007813	3307.860352
1880.964844	3415.316162
1879.923828	3347.559326
1878.880859	3363.800049
1877.839844	3468.793945
1876.796875	3403.460205
1875.753906	3362.128662
1874.712891	3423.911865
1873.669922	3459.304199
1872.626953	3394.014893
1871.583984	3438.986328
1870.539063	3380.909912
1869.496094	3284.521240
1868.453125	3432.486572
1867.408203	3381.624756
1866.365234	3323.595947
1865.320313	3385.292480
1864.275391	3379.944092
1863.230469	3448.790527
1862.187500	3335.751221
1861.142578	3270.599854
1860.095703	3358.567139
1859.050781	3312.567383
1858.005859	3386.150146
1856.960938	3426.235107
1855.914063	3394.590088
1854.869141	3257.788330
1853.822266	3362.397949
1852.775391	3292.548828
1851.730469	3330.226563
1850.683594	3332.063232
1849.636719	3202.549072
1848.589844	3311.856201
1847.541016	3294.595459
1846.494141	3282.114258
1845.447266	3279.183594
1844.400391	3252.391602
1843.351563	3111.089844
1842.302734	3244.156982
1841.255859	3198.303711
1840.207031	3173.927246
1839.158203	3311.685791
1838.109375	3220.551270
1837.060547	3222.400635
1836.011719	3207.567871
1834.962891	3252.306152
1833.912109	3142.183350
1832.863281	3267.900391
1831.814453	3219.729248
1830.763672	3200.146484
1829.712891	3199.615723
1828.664063	3111.014893
1827.613281	3070.041016
1826.562500	3114.741943
1825.511719	3099.950684
1824.460938	3175.554443
1823.408203	3227.350098
1822.357422	3222.058838
1821.306641	3233.411865
1820.253906	3185.333008
1819.203125	3106.372803
1818.150391	3172.394287
1817.097656	3150.484619
1816.046875	3152.337158
1814.994141	3199.316895
1813.941406	3118.044678
1812.888672	3186.383301
1811.833984	3128.879395
1810.781250	3061.900391
1809.728516	3073.257813
1808.673828	3084.611572
1807.621094	3240.677002
1806.566406	3166.607422
1805.511719	3313.120605
1804.458984	3239.063477
1803.404297	3262.233887
1802.349609	3159.764404
1801.294922	3197.160156
1800.238281	3220.325439
1799.183594	3252.960205
1798.128906	3228.731445
1797.072266	3301.617432
1796.017578	3296.333008
1794.960938	3267.373535
1793.906250	3207.649414
1792.849609	3138.477295
1791.792969	3204.217529
1790.736328	3255.739258
1789.679688	3285.952637
1788.623047	3221.543701
1787.564453	3273.036621
1786.507813	3312.689697
1785.451172	3229.395020
1784.392578	3172.129150
1783.335938	3221.232178
1782.277344	3208.882324
1781.218750	3357.190186
1780.160156	3205.454102
1779.101563	3318.286377
1778.042969	3289.398682
1776.984375	3312.461914
1775.925781	3288.305664
1774.865234	3292.479736
1773.806641	3277.773682
1772.746094	3322.057861
1771.687500	3231.862793
1770.626953	3259.629395
1769.566406	3202.489990
1768.507813	3348.144287
1767.447266	3321.655762
1766.386719	3372.958984
1765.324219	3353.544922
1764.263672	3305.862061
1763.203125	3347.718506
1762.140625	3314.185059
1761.080078	3337.185059
1760.017578	3402.562256
1758.957031	3246.611328
1757.894531	3328.459229
1756.832031	3316.138184
1755.769531	3256.758057
1754.707031	3279.744141
1753.644531	3267.436768
1752.582031	3255.133789
1751.517578	3311.030518
1750.455078	3348.098877
1749.390625	3314.630859
1748.328125	3267.071289
1747.263672	3275.928223
1746.199219	3308.278076
1745.136719	3281.886230
1744.072266	3295.433350
1743.007813	3290.188477
1741.941406	3280.248779
1740.876953	3336.047363
1739.812500	3288.546631
1738.748047	3259.836914
1737.681641	3386.005859
1736.615234	3336.174072
1735.550781	3302.778809
1734.484375	3351.481445
1733.417969	3261.815918
1732.351563	3315.197998
1731.285156	3335.743652
1730.218750	3330.501221
1729.152344	3372.127686
1728.085938	3322.363770
1727.017578	3267.930908
1725.951172	3419.630859
1724.882813	3308.996094
1723.814453	3334.201172
1722.748047	3265.755859
1721.679688	3283.937500
1720.611328	3440.188721
1719.542969	3250.086182
1718.474609	3265.921631
1717.404297	3256.021484
1716.335938	3157.253662
1715.267578	3217.524414
1714.197266	3277.774902
1713.128906	3263.203857
1712.058594	3281.357666
1710.988281	3187.340820
1709.917969	3287.274170
1708.847656	3244.678955
1707.777344	3185.749023
1706.707031	3152.525635
1705.636719	3250.062744
1704.566406	3265.862549
1703.494141	3213.969727
1702.423828	3155.093262
1701.351563	3198.899658
1700.281250	3259.021484
1699.208984	3195.501709
1698.136719	3232.282959
1697.064453	3110.495605
1695.992188	3203.230225
1694.919922	3144.423340
1693.847656	3164.874268
1692.773438	3255.223145
1691.701172	3096.256836
1690.626953	3179.598389
1689.554688	3139.475830
1688.480469	3071.423340
1687.406250	3031.331787
1686.332031	3107.645020
1685.257813	3095.489746
1684.183594	3183.401855
1683.109375	3173.564697
1682.035156	3126.510254
1680.960938	3137.618652
1679.884766	3106.864258
1678.810547	3124.947266
1677.734375	3177.895020
1676.658203	3188.986816
1675.583984	3023.455078
1674.507813	3013.656738
1673.431641	3082.849609
1672.355469	3191.506592
1671.279297	3139.881592
1670.201172	3069.697754
1669.125000	3110.975342
1668.048828	3064.031738
1666.970703	3198.130127
1665.892578	3181.353516
1664.816406	3139.061768
1663.738281	3152.456299
1662.660156	3242.383301
1661.582031	3091.113281
1660.503906	3178.701660
1659.425781	3085.446045
1658.347656	2996.856689
1657.267578	3091.368896
1656.189453	3120.973877
1655.109375	3050.955566
1654.031250	3092.138428
1652.951172	3191.202881
1651.871094	3044.798096
1650.791016	3123.001709
1649.710938	3006.747559
1648.630859	3052.531494
1647.550781	3216.308350
1646.470703	3065.393799
1645.388672	3157.407227
1644.308594	3048.181885
1643.226563	2982.927490
1642.146484	3061.036377
1641.064453	3072.083252
1639.982422	3011.479736
1638.900391	3168.111816
1637.818359	3065.924561
1636.736328	3063.102783
1635.654297	3069.520508
1634.570313	3022.822998
1633.488281	3003.847412
1632.406250	3044.898682
1631.322266	2935.909424
1630.238281	3090.036621
1629.156250	3068.754639
1628.072266	3040.558838
1626.988281	2977.773926
1625.904297	3009.563232
1624.820313	3080.540527
1623.734375	3059.277344
1622.650391	3014.970947
1621.566406	2956.851563
1620.480469	3030.093994
1619.396484	3068.753662
1618.310547	2976.101807
1617.224609	2954.876709
1616.138672	2977.410400
1615.052734	3004.541016
1613.966797	3001.737305
1612.880859	3005.839111
1611.794922	2934.000488
1610.708984	2958.819092
1609.621094	3091.748291
1608.535156	2914.130127
1607.447266	2961.935547
1606.359375	2995.929443
1605.273438	2908.071777
1604.185547	3024.808838
1603.097656	2964.552734
1602.009766	2924.996094
1600.921875	2979.643311
1599.832031	2960.769775
1598.744141	2955.681885
1597.654297	2950.595459
1596.566406	2913.369629
1595.476563	2942.723145
1594.388672	2976.656738
1593.298828	3022.052246
1592.208984	2973.367432
1591.119141	3000.396973
1590.029297	2919.623047
1588.939453	2932.893555
1587.847656	2982.843262
1586.757813	3053.407471
1585.666016	3066.648682
1584.576172	2917.183105
1583.484375	2914.404297
1582.392578	2973.478027
1581.302734	3032.532227
1580.210938	3043.475342
1579.119141	2960.538330
1578.025391	2976.068359
1576.933594	2932.081543
1575.841797	2972.784424
1574.750000	2876.185547
1573.656250	2951.200195
1572.562500	2930.120361
1571.470703	3000.526855
1570.376953	2984.018555
1569.283203	2937.794922
1568.189453	2930.446045
1567.095703	3071.654053
1566.001953	2961.456787
1564.908203	2892.420410
1563.812500	3008.436279
1562.718750	2850.342041
1561.623047	2936.639648
1560.529297	3016.059082
1559.433594	3008.706055
1558.337891	3033.308838
1557.242188	3105.825928
1556.146484	3123.559082
1555.050781	3139.005127
1553.955078	3079.177246
1552.859375	3051.295898
1551.761719	3016.583496
1550.666016	3054.833984
1549.568359	3175.127930
1548.472656	3040.137695
1547.375000	2975.828369
1546.277344	2957.104492
1545.179688	2974.832031
1544.082031	2910.565674
1542.984375	3023.931152
1541.886719	3055.298340
1540.787109	2986.498047
1539.689453	2901.789063
1538.589844	3103.825684
1537.492188	3023.675537
1536.392578	3039.092529
1535.292969	2890.748291
1534.193359	3035.800781
1533.095703	2914.790039
1531.994141	2962.040039
1530.894531	2988.818115
1529.794922	2879.238281
1528.695313	2981.000732
1527.593750	2950.968994
1526.494141	2923.218506
1525.392578	3063.528564
1524.291016	3015.333008
1523.189453	2992.125732
1522.089844	2943.958252
1520.988281	3031.973145
1519.884766	3065.500977
1518.783203	3135.316406
1517.681641	2976.010010
1516.580078	2989.118896
1515.476563	2999.955566
1514.373047	2861.156006
1513.271484	2928.679932
1512.167969	2876.062012
1511.064453	3018.339111
1509.960938	3022.364502
1508.857422	3006.001221
1507.753906	3007.762207
1506.650391	2873.652344
1505.544922	2877.698730
1504.441406	2954.183594
1503.335938	2899.367676
1502.232422	2969.034180
1501.126953	2954.960693
1500.021484	2970.300781
1498.916016	2996.944824
1497.810547	2973.827637
1496.705078	2980.112305
1495.599609	2927.616211
1494.494141	2789.245117
1493.386719	2881.435303
1492.281250	2869.654297
1491.173828	2869.172852
1490.068359	2879.985840
1488.960938	2834.333984
1487.853516	2788.697510
1486.746094	2892.082764
1485.638672	2839.679932
1484.531250	2825.661865
1483.423828	2863.549072
1482.314453	2822.457764
1481.207031	2991.167969
1480.097656	2884.662109
1478.990234	2818.782227
1477.880859	2863.402344
1476.771484	2851.650391
1475.662109	2851.171875
1474.552734	2861.960938
1473.443359	2911.049805
1472.333984	2883.528076
1471.224609	2894.306152
1470.113281	2785.724365
1469.003906	2828.037598
1467.892578	2874.838867
1466.783203	2750.558838
1465.671875	2907.631104
1464.560547	2781.136963
1463.449219	2827.914307
1462.337891	2935.408691
1461.226563	2741.503906
1460.115234	2880.456787
1459.001953	2846.249756
1457.890625	2917.702881
1456.777344	3058.803467
1455.666016	2930.205566
1454.552734	2857.818848
1453.439453	2868.570557
1452.326172	2767.020752
1451.212891	2885.571777
1450.099609	2734.658447
1448.986328	2835.216309
1447.873047	2886.362549
1446.757813	2775.917969
1445.644531	2744.040039
1444.529297	2822.095215
1443.414063	2803.677490
1442.300781	2857.028076
1441.185547	2782.555908
1440.070313	2831.408203
1438.955078	2739.033691
1437.839844	2769.948242
1436.722656	2769.482910
1435.607422	2827.265381
1434.492188	2737.193359
1433.375000	2790.482422
1432.257813	2781.056885
1431.142578	2800.738770
1430.025391	2777.883789
1428.908203	2813.225586
1427.791016	2900.021973
1426.673828	2816.754639
1425.556641	2809.570313
1424.437500	2889.613525
1423.320313	2880.183105
1422.201172	2792.503174
1421.083984	2901.569092
1419.964844	2889.906006
1418.845703	2775.452148
1417.726563	2897.871338
1416.607422	2774.519043
1415.488281	2747.250000
1414.369141	2809.316650
1413.250000	2855.732666
1412.128906	2846.322754
1411.009766	2732.010254
1409.888672	2780.647217
1408.769531	2737.785156
1407.648438	2757.402832
1406.527344	2761.400146
1405.406250	2698.491211
1404.285156	2702.496826
1403.164063	2809.053955
1402.042969	2781.833008
1400.919922	2721.191162
1399.798828	2841.060547
1398.675781	2702.452393
1397.554688	2802.236572
1396.431641	2835.172607
1395.308594	2747.850830
1394.185547	2742.935791
1393.062500	2746.926270
1391.939453	2677.468506
1390.816406	2770.479736
1389.693359	2747.764404
1388.568359	2794.017334
1387.445313	2793.546875
1386.320313	2777.510254
1385.197266	2845.968506
1384.072266	2654.308105
1382.947266	2702.760010
1381.822266	2724.527832
1380.697266	2746.288330
1379.572266	2668.072021
1378.445313	2685.392090
1377.320313	2744.901367
1376.195313	2700.030762
1375.068359	2710.676514
1373.941406	2696.901855
1372.816406	2707.544434
1371.689453	2751.466797
1370.562500	2775.407471
1369.435547	2757.194580
1368.308594	2761.166016
1367.179688	2720.787109
1366.052734	2749.150635
1364.923828	2781.937744
1363.796875	2830.228027
1362.667969	2599.293701
1361.541016	2742.867432
1360.412109	2693.671387
1359.283203	2730.869385
1358.154297	2721.551514
1357.025391	2685.667725
1355.894531	2700.711182
1354.765625	2735.669189
1353.636719	2781.680176
1352.505859	2745.810303
1351.376953	2796.228271
1350.246094	2720.554688
1349.115234	2717.884766
1347.984375	2741.748535
1346.853516	2741.286621
1345.722656	2798.293457
1344.591797	2777.931885
1343.460938	2724.433350
1342.328125	2606.885254
1341.197266	2769.900879
1340.064453	2765.016846
1338.933594	2698.307373
1337.800781	2777.331055
1336.667969	2734.922852
1335.535156	2685.907959
1334.402344	2705.314453
1333.269531	2689.414551
1332.134766	2823.519531
1331.001953	2805.399414
1329.869141	2701.285156
1328.734375	2738.310303
1327.599609	2726.826660
1326.466797	2796.895264
1325.332031	2763.368652
1324.197266	2661.552246
1323.062500	2808.697510
1321.927734	2768.578125
1320.791016	2739.483154
1319.656250	2692.783447
1318.519531	2714.343262
1317.384766	2749.102051
1316.248047	2691.420654
1315.113281	2829.585449
1313.976563	2796.109131
1312.839844	2778.040771
1311.703125	2691.803711
1310.566406	2704.542236
1309.427734	2657.918457
1308.291016	2675.054443
1307.154297	2687.789307
1306.015625	2660.967529
1304.878906	2722.033447
1303.740234	2620.530762
1302.601563	2624.480957
1301.462891	2632.821289
1300.324219	2704.827393
1299.185547	2669.249268
1298.046875	2631.488037
1296.906250	2683.708496
1295.767578	2687.643311
1294.626953	2595.057373
1293.488281	2737.180664
1292.347656	2618.302734
1291.207031	2648.555664
1290.066406	2648.108398
1288.925781	2614.784668
1287.785156	2625.300049
1286.644531	2622.665527
1285.503906	2560.884033
1284.361328	2582.354492
1283.220703	2658.565430
1282.078125	2585.861084
1280.937500	2605.126953
1279.794922	2589.365234
1278.652344	2610.812012
1277.509766	2608.182861
1276.367188	2616.493164
1275.224609	2657.610352
1274.080078	2598.113281
1272.937500	2599.860840
1271.794922	2715.291260
1270.650391	2507.176270
1269.505859	2587.615479
1268.363281	2661.472168
1267.218750	2615.142578
1266.074219	2662.756836
1264.929688	2601.154541
1263.783203	2574.511230
1262.638672	2508.577881
1261.494141	2656.591064
1260.347656	2627.769043
1259.203125	2653.510742
1258.056641	2552.699707
1256.910156	2685.334961
1255.763672	2711.053711
1254.617188	2677.885010
1253.470703	2646.907715
1252.324219	2681.339355
1251.177734	2689.604248
1250.031250	2595.443115
1248.882813	2673.442627
1247.734375	2675.168945
1246.587891	2637.688721
1245.439453	2659.020020
1244.291016	2658.570068
1243.142578	2679.890381
1241.994141	2640.257813
1240.845703	2722.509277
1239.697266	2739.455811
1238.546875	2738.992432
1237.398438	2768.981201
1236.248047	2803.309326
1235.099609	2702.811523
1233.949219	2811.057129
1232.798828	2793.191895
1231.648438	2827.492188
1230.498047	2890.029541
1229.347656	2817.844971
1228.197266	2797.818115
1227.044922	2827.750488
1225.894531	2916.302734
1224.742188	2794.226563
1223.591797	2902.291016
1222.439453	2934.355469
1221.287109	2892.628418
1220.134766	2855.254883
1218.982422	3006.620850
1217.830078	2891.159668
1216.677734	2940.546631
1215.523438	3022.439453
1214.371094	2976.403564
1213.216797	3066.932373
1212.064453	3029.572510
1210.910156	2964.058350
1209.755859	3015.548584
1208.601563	3017.203857
1207.447266	3060.004883
1206.292969	3100.626221
1205.136719	2976.703125
1203.982422	3062.779297
1202.828125	2975.694824
1201.671875	3037.940186
1200.515625	3238.622559
1199.361328	3251.052246
1198.205078	3222.386475
1197.048828	3055.342773
1195.892578	3216.970703
1194.736328	3168.871094
1193.578125	3211.558350
1192.421875	3202.370605
1191.265625	3203.988525
1190.107422	3207.765625
1188.949219	3302.250977
1187.792969	3254.184814
1186.634766	3277.382324
1185.476563	3276.826904
1184.318359	3269.796631
1183.160156	3381.454102
1182.000000	3452.079834
1180.841797	3393.250732
1179.681641	3455.223145
1178.523438	3435.229248
1177.363281	3479.924805
1176.203125	3548.317871
1175.044922	3448.569824
1173.884766	3493.239746
1172.724609	3486.183594
1171.562500	3476.975342
1170.402344	3465.616211
1169.242188	3564.090820
1168.080078	3645.306396
1166.919922	3610.243408
1165.757813	3540.753174
1164.595703	3632.691650
1163.433594	3873.066162
1162.271484	3786.355469
1161.109375	3785.713135
1159.947266	3748.510742
1158.785156	3814.532227
1157.621094	3835.383789
1156.458984	3821.835938
1155.294922	3902.855225
1154.132813	3889.300293
1152.968750	3985.319092
1151.804688	4029.751953
1150.640625	4054.840332
1149.476563	4060.594238
1148.312500	4014.818848
1147.146484	4132.200195
1145.982422	4213.055664
1144.818359	4289.591797
1143.652344	4230.935059
1142.486328	4165.862793
1141.320313	4291.697266
1140.156250	4451.799805
1138.990234	4474.628418
1137.822266	4533.891602
1136.656250	4436.672363
1135.490234	4453.062988
1134.324219	4570.149414
1133.156250	4700.049316
1131.988281	4705.676758
1130.822266	4593.519531
1129.654297	4594.880371
1128.486328	4724.687012
1127.318359	4841.607422
1126.150391	4896.426270
1124.982422	4874.197266
1123.812500	4973.917480
1122.644531	4934.571289
1121.474609	5017.138184
1120.306641	5076.156250
1119.136719	5152.256836
1117.966797	5234.744141
1116.796875	5321.477539
1115.626953	5312.026367
1114.457031	5341.033203
1113.287109	5333.717773
1112.115234	5610.450684
1110.945313	5746.157715
1109.773438	5691.807129
1108.603516	5786.896484
1107.431641	5820.061035
1106.259766	5910.828125
1105.087891	5956.760742
1103.916016	6128.533203
1102.744141	6146.686523
1101.572266	6346.088867
1100.398438	6302.369141
1099.226563	6354.589844
1098.052734	6581.562500
1096.880859	6646.503418
1095.707031	6585.716309
1094.533203	6799.751465
1093.359375	6875.270996
1092.185547	6891.137695
1091.011719	7013.457031
1089.837891	7152.765137
1088.662109	7181.346680
1087.488281	7235.455078
1086.312500	7429.974121
1085.138672	7424.455566
1083.962891	7429.573730
1082.787109	7604.819824
1081.611328	7682.197754
1080.435547	7904.110840
1079.259766	7783.735352
1078.082031	8016.181152
1076.906250	8127.432617
1075.728516	8191.907715
1074.552734	8177.769043
1073.375000	8265.574219
1072.197266	8465.887695
1071.019531	8419.864258
1069.841797	8724.092773
1068.664063	8775.665039
1067.486328	8876.023438
1066.308594	8908.458008
1065.128906	8919.668945
1063.951172	8701.824219
1062.771484	8997.210938
1061.591797	9133.486328
1060.412109	9193.405273
1059.232422	9280.854492
1058.052734	9262.322266
1056.873047	9379.390625
1055.693359	9447.698242
1054.513672	9410.083984
1053.332031	9289.896484
1052.152344	9309.486328
1050.970703	9337.537109
1049.789063	9513.734375
1048.607422	9596.759766
1047.425781	9601.472656
1046.244141	9760.609375
1045.062500	9655.308594
1043.880859	9816.497070
1042.697266	9662.590820
1041.515625	9540.447266
1040.332031	9792.457031
1039.150391	9733.730469
1037.966797	9641.216797
1036.783203	9764.214844
1035.599609	9640.043945
1034.416016	9794.676758
1033.232422	9588.194336
1032.046875	9757.560547
1030.863281	9692.575195
1029.677734	9633.942383
1028.494141	9712.481445
1027.308594	9584.245117
1026.123047	9555.190430
1024.937500	9618.939453
1023.751953	9486.566406
1022.566406	9529.222656
1021.380859	9358.967773
1020.193359	9327.866211
1019.007813	9355.776367
1017.820313	9248.840820
1016.634766	9200.922852
1015.447266	9372.051758
1014.259766	9248.322266
1013.072266	9177.267578
1011.884766	9314.632813
1010.697266	9031.021484
1009.509766	9012.647461
1008.320313	9044.772461
1007.132813	8898.083984
1005.943359	8907.082031
1004.753906	8787.802734
1003.566406	8899.837891
1002.376953	8837.358398
1001.187500	8711.845703
999.998047	8725.069336
998.806641	8620.628906
997.617188	8539.331055
996.427734	8418.154297
995.236328	8271.819336
994.046875	8364.890625
992.855469	8256.400391
991.664063	8183.628906
990.472656	8146.556641
989.281250	8174.541016
988.089844	8057.765137
986.898438	8173.848145
985.705078	7939.672852
984.513672	7787.351074
983.320313	7664.430664
982.126953	7763.731934
980.935547	7733.066895
979.742188	7658.410156
978.548828	7569.113770
977.355469	7630.659180
976.162109	7583.282715
974.966797	7625.959473
973.773438	7526.260742
972.578125	7388.918945
971.384766	7270.458984
970.189453	7311.066406
968.994141	7257.514648
967.798828	7319.027344
966.603516	7372.153320
965.408203	7178.519043
964.212891	7173.111328
963.015625	7027.653320
961.820313	7122.591309
960.623047	7148.539063
959.427734	7195.370117
958.230469	6958.095703
957.033203	6958.995605
955.835938	6936.924316
954.638672	6891.894531
953.441406	6823.917969
952.244141	6883.277832
951.044922	6767.330078
949.847656	6801.641602
948.648438	6831.769531
947.449219	6755.517090
946.251953	6743.936035
945.052734	6724.018066
943.853516	6593.622559
942.654297	6477.861328
941.453125	6533.019043
940.253906	6600.658691
939.054688	6545.367188
937.853516	6425.526855
936.652344	6468.159668
935.453125	6398.343750
934.251953	6366.022949
933.050781	6367.015625
931.849609	6245.225586
930.646484	6308.659180
929.445313	6328.383301
928.244141	6154.662109
927.041016	6164.007324
925.839844	5977.897949
924.636719	6124.478027
923.433594	6058.995117
922.230469	5887.545410
921.027344	6137.957520
919.824219	5925.003418
918.621094	5986.303223
917.417969	5785.908203
916.212891	5776.612305
915.009766	5680.124512
913.804688	5583.669434
912.599609	5545.356934
911.394531	5594.208008
910.189453	5522.712402
908.984375	5498.949707
907.779297	5421.272461
906.574219	5327.033203
905.367188	5355.146484
904.162109	5372.885254
902.955078	5218.599121
901.750000	5172.118164
900.542969	5121.508789
899.335938	5151.703613
898.128906	4983.062500
896.921875	5013.270020
895.712891	4896.469727
894.505859	4930.821777
893.298828	4805.796387
892.089844	4757.378906
890.880859	4818.632813
889.673828	4768.160645
888.464844	4719.773926
887.255859	4681.742676
886.046875	4643.724609
884.835938	4562.308594
883.626953	4584.261719
882.417969	4544.212891
881.207031	4632.278320
879.998047	4604.629395
878.787109	4374.577637
877.576172	4421.324707
876.365234	4383.401855
875.154297	4357.877930
873.943359	4301.402832
872.732422	4251.137695
871.519531	4318.498047
870.308594	4315.694824
869.095703	4213.887695
867.884766	4204.916016
866.671875	4187.700195
865.458984	4224.089844
864.246094	4165.652344
863.033203	4171.120605
861.820313	4090.046631
860.605469	4112.006836
859.392578	4057.747559
858.177734	3970.555908
856.964844	4046.060303
855.750000	3915.667725
854.535156	4057.022705
853.320313	3978.122559
852.105469	3928.056641
850.890625	3923.268066
849.675781	3996.645020
848.458984	3839.658447
847.244141	3921.249023
846.027344	3976.085205
844.810547	3874.681885
843.595703	3837.023682
842.378906	3912.394043
841.162109	3952.812012
839.943359	3911.051270
838.726563	3963.778076
837.509766	3973.364746
836.291016	3892.613281
835.074219	3787.256592
833.855469	3901.538818
832.636719	3927.545166
831.417969	3859.166260
830.199219	4016.454102
828.980469	4021.917480
827.761719	3992.518555
826.542969	3952.878174
825.322266	3984.997803
824.103516	3959.718994
822.882813	4032.809814
821.664063	4013.677734
820.443359	4174.818848
819.222656	4075.791504
818.001953	4249.153320
816.779297	4146.051758
815.558594	4147.386719
814.337891	4130.300293
813.115234	4158.240234
811.894531	4284.379395
810.671875	4365.470215
809.449219	4170.414551
808.226563	4327.160645
807.003906	4299.837402
805.781250	4421.754395
804.558594	4298.359375
803.333984	4444.757813
802.111328	4499.160645
800.886719	4359.472656
799.664063	4556.847168
798.439453	4578.527832
797.214844	4545.071777
795.990234	4619.824707
794.765625	4482.275879
793.541016	4534.565430
792.314453	4570.513184
791.089844	4577.887207
789.863281	4664.807617
788.638672	4594.667480
787.412109	4561.253418
786.185547	4589.504883
784.958984	4617.756836
783.732422	4646.008301
782.505859	4674.259766
781.279297	4663.270020
780.050781	4764.312988
778.824219	4679.994629
777.595703	4707.696289
776.367188	4672.277344
775.140625	4665.367188
773.912109	4748.005371
772.683594	4728.875488
771.453125	4864.370117
770.224609	4879.805664
768.996094	4742.705078
767.765625	4711.387695
766.537109	4757.337402
765.306641	4730.093262
764.076172	4776.023438
762.845703	4756.913574
761.615234	4733.746582
760.384766	4846.684570
759.154297	4795.076660
757.921875	4708.965820
756.691406	4834.031250
755.458984	4790.570801
754.228516	4883.105469
752.996094	4896.469238
751.763672	4958.520996
750.531250	4813.643066
749.298828	4820.926758
748.066406	4980.293457
746.832031	4878.062988
745.599609	4903.575195
744.365234	5030.416504
743.132813	4986.995605
741.898438	5065.152832
740.664063	5039.972168
739.429688	5122.143555
738.195313	5074.686035
736.960938	5112.280762
735.724609	5247.028809
734.490234	5201.597656
733.255859	5200.701660
732.019531	5149.223633
730.783203	5174.634277
729.546875	5175.765137
728.310547	5176.895508
727.074219	5196.222168
725.837891	5237.778809
724.601563	5317.723145
723.363281	5300.640137
722.126953	5342.156738
720.888672	5375.578125
719.650391	5467.561523
718.414063	5240.441895
717.175781	5504.039551
715.937500	5432.434570
714.697266	5465.810547
713.458984	5531.463867
712.220703	5530.509766
710.980469	5648.580078
709.742188	5716.184082
708.501953	5743.431152
707.261719	5708.163574
706.021484	5664.843750
704.781250	5669.913574
703.541016	5636.691406
702.300781	5859.375000
701.058594	5771.737793
699.818359	5811.026367
698.576172	5749.607910
697.335938	5953.995605
696.093750	6007.324219
694.851563	6020.377441
693.609375	6256.811523
692.367188	6157.137207
691.123047	6039.391113
689.880859	6052.429199
688.638672	6268.582520
687.394531	6327.823242
686.150391	6403.126465
684.908203	6205.036133
683.664063	6431.061523
682.419922	6347.567871
681.175781	6454.958984
679.929688	6421.706055
678.685547	6675.653809
677.439453	6545.990723
676.195313	6689.409668
674.949219	6607.963379
673.703125	6801.495117
672.458984	6796.307617
671.212891	6933.564453
669.964844	6952.425781
668.718750	6905.097656
667.472656	6925.961914
666.224609	6980.901855
664.978516	7033.817871
663.730469	7032.602539
662.482422	7077.475586
661.234375	7114.318848
659.986328	7089.052246
658.738281	7065.796875
657.490234	7298.860352
656.242188	7351.655762
654.992188	7394.423828
653.744141	7375.133301
652.494141	7399.872559
651.244141	7478.621582
649.994141	7517.336426
648.744141	7506.037109
647.494141	7390.758789
646.244141	7701.375000
644.994141	7532.129883
643.742188	7616.769043
642.492188	7761.326660
641.240234	7909.830078
639.988281	7670.749512
638.738281	7711.365234
637.486328	7688.065918
636.232422	7724.671387
634.980469	7799.191406
633.728516	8047.325684
632.474609	7936.180664
631.222656	7946.778809
629.968750	7915.481934
628.714844	8009.848145
627.462891	8120.134766
626.208984	8001.096191
624.953125	7971.803711
623.699219	8141.831543
622.445313	8210.169922
621.191406	8131.044922
619.935547	8219.281250
618.679688	8251.718750
617.425781	8230.376953
616.169922	8350.406250
614.914063	8542.057617
613.658203	8600.290039
612.400391	8469.451172
611.144531	8631.137695
609.888672	8478.456055
608.630859	8691.796875
607.373047	8692.281250
606.117188	8732.530273
604.859375	8947.703125
603.601563	8993.856445
602.343750	9097.624023
601.083984	9096.048828
599.826172	9150.097656
598.568359	9186.250977
597.308594	9256.151367
596.048828	9280.360352
594.791016	9489.182617
593.531250	9304.934570
592.271484	9442.237305
591.011719	9541.793945
589.750000	9571.881836
588.490234	9728.901367
587.230469	9778.777344
585.968750	9715.617188
584.707031	9753.582031
583.447266	9805.409180
582.185547	10063.319336
580.923828	10002.132813
579.662109	9982.570313
578.398438	10151.182617
577.136719	10218.736328
575.875000	10343.687500
574.611328	10383.468750
573.347656	10254.990234
572.085938	10261.128906
570.822266	10593.744141
569.558594	10324.834961
568.292969	10586.115234
567.029297	10416.181641
565.765625	10483.581055
564.500000	10521.301758
563.236328	10580.752930
561.970703	10655.992188
560.705078	10711.446289
559.439453	10743.172852
558.173828	10895.377930
556.908203	10814.493164
555.642578	10960.708008
554.376953	10881.813477
553.109375	11031.913086
551.843750	10998.423828
550.576172	11174.101563
549.308594	11219.510742
548.041016	11367.473633
546.773438	11491.719727
545.505859	11404.937500
544.238281	11292.556641
542.968750	11523.190430
541.701172	11672.940430
540.431641	11932.983398
539.164063	11883.629883
537.894531	12127.787109
536.625000	12180.826172
535.355469	12233.845703
534.085938	12403.001953
532.814453	12392.975586
531.544922	12440.025391
530.273438	12624.797852
529.003906	12421.934570
527.732422	12704.996094
526.460938	12954.525391
525.189453	13160.708008
523.917969	13158.422852
522.646484	13183.657227
521.375000	13375.933594
520.101563	13267.502930
518.830078	13567.751953
517.556641	13453.430664
516.283203	13633.741211
515.011719	13878.788086
513.738281	13799.809570
512.462891	13879.855469
511.189453	13916.695313
509.916016	14106.578125
508.642578	14057.041016
507.367188	14246.832031
506.091797	14081.575195
504.818359	14212.467773
503.542969	14396.249023
502.267578	14307.499023
500.992188	14412.804688
499.714844	14224.145508
498.439453	14433.264648
497.164063	14311.266602
495.886719	14277.443359
494.609375	14380.701172
493.333984	14170.672852
492.056641	14356.126953
490.779297	14259.688477
489.501953	14214.160156
488.222656	14184.297852
486.945313	14168.138672
485.666016	14077.665039
484.388672	14161.255859
483.109375	13863.574219
481.830078	14064.458008
480.550781	13944.747070
479.271484	14084.968750
477.992188	14178.251953
476.712891	14183.598633
475.433594	14278.784180
474.152344	14143.515625
472.871094	13750.580078
471.591797	13707.194336
470.310547	13468.654297
469.029297	13589.246094
467.748047	13551.763672
466.466797	13262.655273
465.183594	13406.623047
463.902344	13193.690430
462.619141	13238.185547
461.337891	13155.958984
460.054688	13091.301758
458.771484	13114.355469
457.488281	12847.103516
456.205078	12837.075195
454.921875	13111.403320
453.638672	12762.503906
452.353516	12701.873047
451.070313	12612.064453
449.785156	12744.160156
448.500000	12492.862305
447.214844	12691.083008
445.929688	12558.541016
444.644531	12673.047852
443.359375	12456.937500
442.072266	12480.042969
440.787109	12225.163086
439.500000	12368.799805
438.214844	12230.620117
436.927734	12337.291016
435.640625	12158.370117
434.353516	12233.939453
433.066406	12132.773438
431.777344	12089.886719
430.490234	11907.250000
429.203125	11986.690430
427.914063	12031.173828
426.625000	11860.282227
425.335938	11906.710938
424.046875	11935.666992
422.757813	11757.123047
421.468750	11933.445313
420.179688	11925.549805
418.888672	12008.749023
417.599609	11958.210938
416.308594	11762.378906
415.017578	11870.744141
413.728516	11647.879883
412.437500	11709.751953
411.144531	11696.092773
409.853516	11752.126953
408.562500	11560.404297
407.269531	11612.570313
405.978516	11622.154297
404.685547	11740.061523
403.392578	11650.979492
402.099609	11341.479492
400.806641	11451.639648
399.513672	11204.140625
398.220703	11320.083008
396.927734	11275.594727
395.632813	11263.966797
394.337891	11134.507813
393.044922	11231.065430
391.750000	11298.624023
390.455078	11219.422852
389.160156	11051.452148
387.865234	11057.243164
386.568359	11113.205078
385.273438	11020.583984
383.976563	10856.621094
382.681641	11009.022461
381.384766	11007.100586
380.087891	10835.511719
378.791016	10876.029297
377.494141	10947.370117
376.197266	10985.925781
374.898438	11005.201172
373.601563	10862.656250
372.302734	11093.805664
371.005859	10847.308594
369.707031	10847.338867
368.408203	10870.469727
367.109375	10864.721680
365.810547	10701.179688
364.509766	11045.628906
363.210938	10899.424805
361.910156	10847.514648
360.611328	10849.465820
359.310547	10857.182617
358.009766	10726.491211
356.708984	10716.928711
355.408203	10788.078125
354.107422	10851.517578
352.804688	10613.341797
351.503906	10759.375977
350.201172	10774.777344
348.900391	10722.975586
347.597656	10694.226563
346.294922	10788.321289
344.992188	10700.082031
343.689453	10650.246094
342.386719	10656.057617
341.082031	10715.568359
339.779297	10604.390625
338.474609	10525.845703
337.169922	10508.668945
335.867188	10662.076172
334.562500	10742.611328
333.257813	10510.820313
331.951172	10430.442383
330.646484	10465.007813
329.341797	10488.071289
328.035156	10336.898438
326.728516	10344.661133
325.423828	10383.043945
324.117188	10274.066406
322.810547	10101.989258
321.503906	10220.735352
320.195313	10169.219727
318.888672	10098.599609
317.580078	10249.785156
316.273438	10142.854492
314.964844	10028.315430
313.656250	10112.551758
312.347656	9938.829102
311.039063	10086.088867
309.730469	9950.629883
308.421875	9933.611328
307.111328	10054.063477
305.802734	9920.588867
304.492188	9878.771484
303.181641	9873.225586
301.871094	9793.272461
300.560547	9906.011719
299.250000	9719.275391
297.939453	9795.755859
296.628906	9855.050781
295.316406	9807.574219
294.005859	9811.574219
292.693359	9952.773438
291.380859	9815.757813
290.068359	9886.424805
288.755859	9898.024414
287.443359	9797.270508
286.130859	9951.673828
284.816406	9919.472656
283.503906	9900.605469
282.189453	9912.191406
280.875000	9817.228516
279.560547	9815.507813
278.246094	9912.686523
276.931641	9869.114258
275.617188	9865.483398
274.300781	9774.412109
272.986328	9730.885742
271.669922	9904.000977
270.355469	9786.371094
269.039063	9801.750977
267.722656	9737.358398
266.406250	9758.437500
265.089844	9692.174805
263.771484	9768.302734
262.455078	9684.980469
261.136719	9706.052734
259.820313	9586.721680
258.501953	9721.617188
257.183594	9651.635742
255.865234	9596.847656
254.546875	9741.149414
253.228516	9674.991211
251.908203	9633.493164
250.589844	9760.657227
249.269531	9594.116211
247.949219	9725.030273
246.628906	9715.748047
245.310547	9778.424805
243.988281	9657.433594
242.667969	9790.135742
241.347656	9777.062500
240.025391	9741.285156
238.705078	9817.144531
237.382813	9836.228516
236.060547	9707.788086
234.738281	9851.684570
233.416016	9834.830078
232.093750	9825.541992
230.771484	9886.184570
229.449219	9854.214844
228.125000	9986.622070
226.800781	9969.756836
225.478516	9820.695313
224.154297	9811.417969
222.830078	9711.522461
221.505859	9979.743164
220.181641	9817.572266
218.855469	9815.847656
217.531250	9776.391602
216.205078	9785.992188
214.878906	9878.569336
213.554688	9829.693359
212.228516	9611.159180
210.902344	9811.160156
209.574219	9709.550781
208.248047	9883.083984
206.921875	9736.282227
205.593750	9890.912109
204.265625	9789.359375
202.939453	9693.490234
201.611328	9883.814453
200.283203	9867.018555
198.955078	9801.296875
197.625000	9833.443359
196.296875	9839.240234
194.968750	10050.060547
193.638672	10076.502930
192.308594	10046.526367
190.978516	10057.919922
189.648438	10063.669922
188.318359	10197.210938
186.988281	10112.742188
185.658203	9975.699219
184.326172	10306.410156
182.996094	10360.936523
181.664063	10293.395508
180.332031	10239.019531
179.000000	10393.009766
177.667969	10545.069336
176.335938	10325.557617
175.003906	10436.301758
173.669922	10258.150391
172.337891	10445.756836
171.003906	10335.166992
169.669922	10458.953125
168.335938	10384.011719
167.001953	10472.137695
165.667969	10196.732422
164.333984	10421.617188
163.000000	10369.209961
161.664063	10382.366211
160.328125	10612.714844
158.994141	10369.350586
157.658203	10348.807617
156.322266	10487.339844
154.986328	10429.361328
153.650391	10640.790039
152.312500	10676.324219
150.976563	10380.839844
149.638672	10558.508789
148.302734	10487.480469
146.964844	10760.389648
145.626953	10807.082031
144.289063	10715.493164
142.949219	10694.924805
141.611328	10857.405273
140.273438	10904.045898
138.933594	11122.445313
137.595703	11103.683594
136.255859	11109.193359
134.916016	11232.266602
133.576172	11196.702148
132.236328	11202.191406
130.894531	11267.362305
129.554688	11500.342773
128.212891	11488.993164
126.873047	11285.638672
125.531250	11397.342773
124.189453	11581.684570
122.847656	11620.631836
121.505859	11475.143555
120.164063	11514.095703
118.820313	11445.027344
117.478516	11526.791992
116.134766	11513.590820
114.792969	11749.793945
113.449219	11619.321289
112.105469	11460.985352
110.761719	11466.405273
109.417969	11523.899414
108.072266	11720.839844
106.728516	12032.983398
105.382813	11865.416992
104.039063	11584.536133
102.693359	11721.861328
101.347656	11680.776367
100.001953	11864.475586
98.654297	11986.818359
97.308594	12053.410156
95.962891	11869.333984
94.615234	11999.036133
93.269531	12143.539063
91.921875	12380.771484
90.574219	12161.515625
89.226563	11972.015625
87.878906	12112.709961
86.529297	12021.564453
85.181641	12062.083984
83.832031	12389.906250
82.484375	12435.905273
81.134766	12298.439453
79.785156	12090.620117
78.435547	11951.410156
77.085938	12145.614258
75.736328	12187.910156
74.384766	12346.827148
73.035156	12120.668945
71.683594	12279.541016
70.332031	11979.458008
68.982422	11827.485352
67.630859	11947.478516
66.279297	11582.882813
64.925781	11379.285156
63.574219	11188.701172
62.220703	11236.631836
60.869141	11319.658203
59.515625	11228.964844
58.162109	10877.810547
56.808594	10122.259766
55.455078	9813.901367
54.101563	9546.274414
52.748047	9057.204102
51.392578	8906.090820
