#Wave		#Intensity
4002.114258	3983.970947
4001.416016	3787.099121
4000.717773	3782.911377
4000.018555	3957.642090
3999.320313	4085.805420
3998.621094	3852.631592
3997.921875	3866.318848
3997.223633	4030.195313
3996.524414	3897.255371
3995.824219	3939.527832
3995.125000	4031.826904
3994.425781	3870.360596
3993.725586	3905.470459
3993.026367	3933.423584
3992.326172	3964.939697
3991.625977	4007.159668
3990.925781	4056.508057
3990.225586	3888.052246
3989.525391	3915.985352
3988.825195	3843.973145
3988.125000	3989.666992
3987.423828	3899.825928
3986.723633	3963.412842
3986.022461	3816.535156
3985.321289	3851.584717
3984.620117	3833.137207
3983.918945	3885.998291
3983.217773	3842.599365
3982.516602	4045.129395
3981.814453	3823.547607
3981.113281	3862.124512
3980.411133	4093.051758
3979.708984	3981.981445
3979.006836	3977.780518
3978.304688	3781.310791
3977.602539	3940.902588
3976.900391	3961.625977
3976.198242	3722.547363
3975.495117	4059.984863
3974.792969	3952.601563
3974.089844	4104.922852
3973.386719	3869.531006
3972.683594	3940.029053
3971.980469	4035.392334
3971.277344	3888.995605
3970.574219	3970.118896
3969.870117	3969.481201
3969.166992	4004.375000
3968.462891	3865.181885
3967.759766	3932.048828
3967.055664	3831.977539
3966.351563	4055.065186
3965.647461	3983.408447
3964.943359	3975.669189
3964.238281	4038.915039
3963.534180	4016.974854
3962.829102	4002.137695
3962.125000	3902.166992
3961.419922	3954.743164
3960.714844	3868.997070
3960.009766	3886.104248
3959.304688	3928.021973
3958.599609	3920.301758
3957.893555	3930.304199
3957.188477	3922.586182
3956.482422	3865.270264
3955.777344	3882.360840
3955.071289	3970.280762
3954.365234	3877.572998
3953.659180	3869.868896
3952.953125	3982.528320
3952.246094	3981.888672
3951.540039	4034.332520
3950.833008	4086.759521
3950.126953	3979.970703
3949.419922	3922.736572
3948.712891	4017.595215
3948.005859	3910.868652
3947.298828	3744.073242
3946.591797	3920.217529
3945.884766	3795.885986
3945.176758	3848.283203
3944.469727	3762.868164
3943.761719	3988.353027
3943.053711	3970.052246
3942.345703	3997.666748
3941.637695	4000.555908
3940.929688	3904.593506
3940.221680	3949.854004
3939.513672	3885.693359
3938.804688	3899.184326
3938.095703	3951.479736
3937.387695	3767.413330
3936.678711	3978.426758
3935.969727	3900.207031
3935.260742	3906.632568
3934.551758	3835.499756
3933.841797	3813.735840
3933.132813	3897.702881
3932.422852	3999.260986
3931.713867	3973.957764
3931.003906	4015.589111
3930.293945	3983.247559
3929.583984	3968.522705
3928.874023	3911.553711
3928.164063	3780.678955
3927.453125	3984.209961
3926.743164	3839.289063
3926.032227	3989.967773
3925.322266	3781.769531
3924.611328	3918.339600
3923.900391	3861.441895
3923.189453	3815.111084
3922.478516	3803.951660
3921.766602	3810.371094
3921.055664	3799.215820
3920.344727	3854.829590
3919.632813	3889.344971
3918.920898	3878.182129
3918.208984	3923.219238
3917.497070	3908.542725
3916.785156	3967.604980
3916.073242	3910.798584
3915.361328	3997.921631
3914.648438	3884.977051
3913.936523	3905.406738
3913.223633	3774.971436
3912.510742	3918.184326
3911.797852	3826.367920
3911.084961	3892.380127
3910.372070	3986.419678
3909.659180	3835.042480
3908.945313	3960.605469
3908.232422	3763.723633
3907.518555	3906.776611
3906.804688	3836.084229
3906.091797	3803.944092
3905.377930	3957.428223
3904.663086	3816.729736
3903.949219	3833.622314
3903.235352	3959.023682
3902.520508	4042.385986
3901.806641	3978.749023
3901.091797	3897.638672
3900.376953	3987.966797
3899.662109	3927.866699
3898.947266	3958.710205
3898.232422	3853.178955
3897.517578	3838.576660
3896.802734	3747.080078
3896.086914	3861.808838
3895.372070	3875.166260
3894.656250	3892.012939
3893.940430	3926.320068
3893.224609	3796.463623
3892.508789	3764.426025
3891.792969	3854.600586
3891.076172	3787.654541
3890.360352	4076.747070
3889.643555	4006.296875
3888.927734	3873.062744
3888.210938	3792.201416
3887.494141	3979.951660
3886.777344	3892.124023
3886.060547	3926.369629
3885.342773	3852.524170
3884.625977	3837.962402
3883.909180	3980.245117
3883.191406	3787.944336
3882.473633	3884.894287
3881.755859	3811.114258
3881.038086	3901.063232
3880.320313	3938.745361
3879.602539	4042.572510
3878.884766	3906.148682
3878.166016	3846.347412
3877.448242	3918.816650
3876.729492	3939.066406
3876.010742	3771.433594
3875.291992	3878.666016
3874.573242	3884.999756
3873.854492	3766.141357
3873.135742	3977.631104
3872.416016	3824.031738
3871.697266	3913.789795
3870.977539	3909.686768
3870.257813	3766.595947
3869.539063	3922.329102
3868.819336	3914.752686
3868.099609	3823.825439
3867.378906	3850.991943
3866.659180	3978.835693
3865.938477	3995.554199
3865.218750	3772.781006
3864.498047	3931.807861
3863.777344	4024.859131
3863.056641	3923.608154
3862.335938	3843.201172
3861.615234	3925.817627
3860.894531	3984.135010
3860.173828	3824.017334
3859.452148	3944.726807
3858.730469	3892.106934
3858.009766	3905.343750
3857.288086	3946.293701
3856.566406	3956.052979
3855.844727	3931.173340
3855.122070	4065.601074
3854.400391	3888.362549
3853.678711	3932.743896
3852.956055	3814.426758
3852.233398	3824.197266
3851.510742	3944.692871
3850.788086	3833.349854
3850.065430	3971.100830
3849.342773	3863.247559
3848.620117	4032.071777
3847.896484	3817.061035
3847.173828	4030.778564
3846.450195	3974.830078
3845.727539	3873.973633
3845.003906	3956.278809
3844.280273	3941.825439
3843.555664	3913.560059
3842.832031	3902.571533
3842.108398	3960.647461
3841.383789	3915.129883
3840.660156	3845.463135
3839.935547	3927.679688
3839.210938	3820.073975
3838.486328	4005.776611
3837.761719	3874.044434
3837.037109	4070.026123
3836.312500	3821.072754
3835.586914	3954.934570
3834.862305	3885.350098
3834.136719	3867.492188
3833.411133	3959.925049
3832.685547	3942.060547
3831.959961	3920.756592
3831.234375	3837.453857
3830.508789	3881.613037
3829.782227	3925.758057
3829.056641	3914.799316
3828.330078	3972.694580
3827.603516	3978.941650
3826.876953	3868.177490
3826.150391	3957.020264
3825.423828	3921.982422
3824.697266	3907.594482
3823.970703	3968.874023
3823.243164	3768.794189
3822.516602	3871.333740
3821.789063	3973.840332
3821.061523	3839.158936
3820.333984	3893.527100
3819.606445	4033.775635
3818.878906	3988.468994
3818.151367	3774.870361
3817.422852	3956.281494
3816.695313	3941.912354
3815.966797	3934.414063
3815.238281	3957.811523
3814.509766	3929.720215
3813.781250	4011.446777
3813.052734	3907.874512
3812.324219	3773.461426
3811.595703	3947.779785
3810.866211	3796.256836
3810.136719	3908.797607
3809.408203	3935.596680
3808.678711	3910.971924
3807.949219	3927.480469
3807.219727	3978.249268
3806.489258	3837.144531
3805.759766	3764.594482
3805.030273	3897.562988
3804.299805	3890.089355
3803.569336	3865.498779
3802.839844	3984.693848
3802.109375	3973.786865
3801.378906	3997.104980
3800.647461	3839.069092
3799.916992	3920.559570
3799.186523	3967.818604
3798.455078	3915.882813
3797.723633	3987.062988
3796.993164	3907.789551
3796.261719	3955.019775
3795.530273	3920.207764
3794.798828	3964.003418
3794.066406	3970.201416
3793.334961	3836.335205
3792.602539	3958.681885
3791.871094	3985.367676
3791.138672	3923.267578
3790.406250	3936.294434
3789.673828	4017.585449
3788.941406	3952.096924
3788.208984	3971.937256
3787.476563	3872.359131
3786.743164	3871.738525
3786.010742	4021.187500
3785.277344	3747.732666
3784.543945	3975.573975
3783.810547	3848.802246
3783.077148	3889.087158
3782.343750	3953.214600
3781.610352	3925.321777
3780.875977	3778.197998
3780.142578	3821.874268
3779.408203	3984.738037
3778.673828	4069.229736
3777.939453	3956.223389
3777.205078	3928.356201
3776.470703	3954.955322
3775.736328	3913.484863
3775.000977	4018.334717
3774.266602	3922.436279
3773.531250	4023.849365
3772.795898	3985.794922
3772.061523	3974.955322
3771.326172	3933.520996
3770.589844	3922.692871
3769.854492	4071.605469
3769.119141	3985.999756
3768.382813	3876.638428
3767.647461	3957.545898
3766.911133	3960.308105
3766.174805	3915.525879
3765.438477	3972.620361
3764.702148	4060.249756
3763.965820	4059.599121
3763.229492	3909.622559
3762.492188	3912.389160
3761.755859	3999.971680
3761.018555	3958.625000
3760.281250	3893.550293
3759.543945	4048.914551
3758.806641	3943.159912
3758.069336	3925.578125
3757.332031	3999.516113
3756.593750	4012.430664
3755.856445	4015.176025
3755.118164	3997.593506
3754.379883	3983.403809
3753.641602	4020.019043
3752.903320	3985.513184
3752.165039	4083.057373
3751.426758	4126.409180
3750.688477	4186.669434
3749.949219	3942.350830
3749.210938	4263.146973
3748.471680	3981.682373
3747.732422	4085.897461
3746.993164	4078.479004
3746.253906	4044.012451
3745.514648	4033.222168
3744.774414	4066.377930
3744.035156	3944.058594
3743.294922	4210.376465
3742.554688	4142.130371
3741.815430	3921.894531
3741.075195	4130.670410
3740.334961	4086.107910
3739.593750	4082.076660
3738.853516	3936.260254
3738.113281	3986.259521
3737.372070	4110.487793
3736.630859	4076.086426
3735.890625	4132.786133
3735.149414	4078.153320
3734.408203	4252.875977
3733.666016	4063.357910
3732.924805	4180.710938
3732.183594	4045.200684
3731.441406	4125.443359
3730.699219	3942.806885
3729.958008	4076.950195
3729.215820	4032.501953
3728.473633	4109.326660
3727.731445	4098.564941
3726.988281	4097.908203
3726.246094	4191.518555
3725.502930	4136.988281
3724.760742	4270.949707
3724.017578	4192.868652
3723.274414	4081.167725
3722.531250	4198.252930
3721.788086	4221.124512
3721.044922	4126.286621
3720.300781	4108.813477
3719.557617	4151.858887
3718.813477	4235.226074
3718.070313	4224.465332
3717.326172	4227.148438
3716.582031	4186.154785
3715.837891	4225.793945
3715.092773	4241.909668
3714.348633	4221.081543
3713.604492	4183.472656
3712.859375	4182.802246
3712.114258	4202.270508
3711.369141	4211.665039
3710.624023	4221.056152
3709.878906	4421.669922
3709.133789	4360.583984
3708.388672	4309.579102
3707.642578	4268.649902
3706.897461	4294.787109
3706.151367	4330.972656
3705.405273	4300.114258
3704.659180	4229.052734
3703.913086	4335.592285
3703.166992	4318.147461
3702.420898	4374.396484
3701.673828	4243.087402
3700.927734	4306.026855
3700.180664	4325.424316
3699.433594	4431.845215
3698.687500	4360.852539
3697.940430	4376.885254
3697.192383	4493.283691
3696.445313	4378.827637
3695.698242	4528.634766
3694.950195	4434.274414
3694.202148	4343.287598
3693.455078	4295.789551
3692.707031	4512.363281
3691.958984	4565.111328
3691.210938	4500.893066
3690.461914	4603.739258
3689.713867	4512.812012
3688.964844	4498.729980
3688.216797	4381.134277
3687.467773	4443.868652
3686.718750	4610.066895
3685.969727	4449.120117
3685.220703	4598.578125
3684.471680	4697.939453
3683.721680	4620.457520
3682.972656	4589.697266
3682.222656	4558.946777
3681.473633	4651.581543
3680.723633	4604.161133
3679.973633	4733.426270
3679.223633	4726.001953
3678.472656	4685.256836
3677.722656	4714.492188
3676.972656	4650.442871
3676.221680	4756.281250
3675.470703	4752.188965
3674.719727	4791.383301
3673.968750	4797.273926
3673.217773	4829.791504
3672.466797	4785.752930
3671.715820	4814.934082
3670.963867	4837.451172
3670.212891	4923.164551
3669.460938	4889.116211
3668.708984	4901.634766
3667.957031	5003.919922
3667.205078	4949.929199
3666.453125	4949.136230
3665.701172	5087.920410
3664.948242	5060.523438
3664.196289	5013.201660
3663.443359	5215.020508
3662.690430	5260.680664
3661.937500	5153.578613
3661.184570	5265.635254
3660.431641	5165.205566
3659.678711	5104.635742
3658.924805	5292.971191
3658.171875	5069.820801
3657.417969	5297.910156
3656.664063	5323.596680
3655.910156	5349.274414
3655.156250	5391.522949
3654.402344	5526.585938
3653.648438	5273.779297
3652.893555	5428.703125
3652.139648	5523.930176
3651.384766	5516.418945
3650.629883	5495.659668
3649.875000	5352.358398
3649.120117	5566.753418
3648.365234	5506.262695
3647.610352	5670.906250
3646.854492	5660.067871
3646.099609	5540.020508
3645.343750	5635.091797
3644.587891	5726.823730
3643.832031	5835.065918
3643.076172	5830.823730
3642.320313	5760.446777
3641.564453	5799.199219
3640.808594	5923.888184
3640.051758	5903.107910
3639.294922	5855.896484
3638.539063	6158.940430
3637.782227	5863.931641
3637.025391	5879.507324
3636.267578	6050.298828
3635.510742	6161.598633
3634.753906	6018.646973
3633.996094	6110.109863
3633.239258	6247.750000
3632.481445	6170.851074
3631.723633	5978.497559
3630.965820	6142.482910
3630.208008	6151.394043
3629.449219	6170.195313
3628.691406	6357.151855
3627.933594	6455.035645
3627.174805	6450.705566
3626.416016	6317.844238
3625.657227	6267.404785
3624.898438	6226.864746
3624.139648	6344.455566
3623.380859	6356.613281
3622.621094	6385.232422
3621.862305	6433.597168
3621.102539	6389.770508
3620.342773	6507.240234
3619.583984	6456.833496
3618.824219	6600.577148
3618.063477	6734.405273
3617.303711	6756.352051
3616.543945	6505.318359
3615.783203	6655.538086
3615.023438	6657.759766
3614.262695	6824.343262
3613.501953	6527.444336
3612.741211	6657.846680
3611.980469	6719.208008
3611.219727	6596.581055
3610.458008	6786.032227
3609.697266	6676.569824
3608.935547	6774.007324
3608.173828	6825.451172
3607.412109	6742.294434
3606.650391	6826.546387
3605.888672	6861.548828
3605.126953	6762.021484
3604.365234	6856.070313
3603.602539	6753.295410
3602.839844	7011.283203
3602.078125	6708.506836
3601.315430	6868.069336
3600.552734	6945.636230
3599.790039	6888.810059
3599.026367	7133.461914
3598.263672	6955.403320
3597.500000	6816.709961
3596.737305	6959.725098
3595.973633	6883.293457
3595.209961	7052.444824
3594.446289	7034.947266
3593.682617	6837.436035
3592.918945	6999.967773
3592.154297	7195.167480
3591.390625	6987.910645
3590.625977	7052.210449
3589.861328	7116.489746
3589.096680	6984.552734
3588.332031	7127.287109
3587.567383	7034.617188
3586.802734	7079.247070
3586.038086	7342.806641
3585.272461	7116.186523
3584.506836	6932.106934
3583.742188	7087.776855
3582.976563	7165.018555
3582.210938	7029.997070
3581.445313	6973.371582
3580.678711	7213.802246
3579.913086	6997.246582
3579.146484	6953.705078
3578.380859	7242.961914
3577.614258	6961.263184
3576.847656	7100.394531
3576.081055	6955.771973
3575.314453	6977.480957
3574.547852	6907.903809
3573.780273	7128.440430
3573.013672	6918.726074
3572.246094	7315.144531
3571.478516	7040.309570
3570.710938	6840.481934
3569.943359	7080.393066
3569.175781	7170.436035
3568.408203	6938.125000
3567.639648	6972.821289
3566.872070	7101.895020
3566.103516	6931.536621
3565.334961	7024.784180
3564.567383	6922.809570
3563.798828	7055.060059
3563.029297	6927.095703
3562.260742	7052.799805
3561.492188	6941.131836
3560.722656	6777.490234
3559.953125	6701.652832
3559.184570	6876.054688
3558.415039	7040.653809
3557.645508	6864.106445
3556.875000	6700.606934
3556.105469	6946.341309
3555.335938	6954.969238
3554.565430	6609.733398
3553.794922	6667.101074
3553.025391	6743.922363
3552.254883	6655.229980
3551.484375	6586.032715
3550.712891	6769.875977
3549.942383	6749.331543
3549.171875	6732.036133
3548.400391	6779.591797
3547.628906	6694.219727
3546.858398	6845.485352
3546.086914	6737.445313
3545.315430	6853.012695
3544.542969	6958.824219
3543.771484	6863.773438
3543.000000	6933.923828
3542.227539	6952.241699
3541.455078	6620.892578
3540.682617	6684.573730
3539.911133	6787.072754
3539.137695	6766.568848
3538.365234	6684.596680
3537.592773	6722.345703
3536.819336	6769.786133
3536.046875	6742.830078
3535.273438	6906.655762
3534.500000	6718.039063
3533.726563	6758.983887
3532.953125	6699.727051
3532.179688	6763.281250
3531.406250	6626.501465
3530.631836	6625.439453
3529.857422	6750.341309
3529.083984	6419.870117
3528.309570	6644.856934
3527.535156	6617.966309
3526.760742	6616.905762
3525.985352	6735.253906
3525.210938	6801.936035
3524.436523	6639.535645
3523.661133	6780.402344
3522.885742	6721.262695
3522.110352	6575.076172
3521.334961	6628.833008
3520.559570	6514.944336
3519.784180	6700.840820
3519.008789	6467.740723
3518.232422	6508.591309
3517.456055	6385.129395
3516.680664	6493.621582
3515.904297	6479.699219
3515.127930	6507.641113
3514.351563	6532.354004
3513.574219	6624.657715
3512.797852	6533.479492
3512.020508	6439.112305
3511.244141	6486.341797
3510.466797	6536.773438
3509.689453	6452.099609
3508.912109	6573.269531
3508.134766	6433.955078
3507.356445	6532.584961
3506.579102	6402.964844
3505.800781	6440.504395
3505.023438	6407.339355
3504.245117	6306.716309
3503.466797	6363.526855
3502.688477	6494.189453
3501.910156	6538.106445
3501.130859	6463.211914
3500.352539	6568.113770
3499.573242	6473.979492
3498.794922	6556.381348
3498.015625	6497.574707
3497.236328	6406.704590
3496.457031	6328.694824
3495.677734	6484.830078
3494.897461	6320.253418
3494.118164	6261.530762
3493.337891	6414.395996
3492.557617	6355.676758
3491.777344	6460.409180
3490.998047	6199.845215
3490.216797	6163.612793
3489.436523	6438.085938
3488.656250	6180.853027
3487.875000	6400.800781
3487.094727	6249.305176
3486.313477	6161.877441
3485.532227	6186.493652
3484.750977	6291.100586
3483.969727	6338.083984
3483.188477	6173.923340
3482.406250	6240.100586
3481.625000	6101.590820
3480.842773	6365.996582
3480.060547	6390.551270
3479.278320	6293.636230
3478.496094	6276.648438
3477.713867	6266.056641
3476.931641	6297.000977
3476.148438	6379.043945
3475.366211	6189.587402
3474.583008	6293.974121
3473.799805	6270.616211
3473.016602	6215.342773
3472.233398	6284.565430
3471.450195	6079.318848
3470.666992	6343.175293
3469.882813	6153.935547
3469.099609	6239.071777
3468.315430	6206.179688
3467.531250	6227.506348
3466.747070	6114.921875
3465.962891	6311.577148
3465.178711	6144.833984
3464.394531	6131.102539
3463.609375	6009.046875
3462.825195	6036.754395
3462.040039	6000.750977
3461.254883	6012.527344
3460.469727	6005.195801
3459.684570	5978.764648
3458.899414	5987.355957
3458.113281	6180.532715
3457.328125	6109.537109
3456.541992	6003.566895
3455.755859	6072.587402
3454.969727	6170.210449
3454.183594	6156.501465
3453.397461	6031.514160
3452.611328	6208.571289
3451.824219	5959.654785
3451.038086	6076.284668
3450.250977	5941.856934
3449.463867	5931.374023
3448.676758	6155.951172
3447.889648	5958.056152
3447.102539	5931.698242
3446.315430	5991.070801
3445.527344	6174.226563
3444.740234	5871.716309
3443.952148	5785.093750
3443.164063	5949.156250
3442.375977	6059.235840
3441.587891	5991.655762
3440.799805	6063.636719
3440.011719	6059.494141
3439.222656	5906.346191
3438.434570	5927.588379
3437.645508	5844.235840
3436.856445	5925.688477
3436.067383	6076.817871
3435.278320	5911.118164
3434.489258	5903.835938
3433.699219	6077.062988
3432.910156	5749.962402
3432.120117	5831.350586
3431.330078	6188.090820
3430.540039	5940.248047
3429.750000	5970.938477
3428.959961	5903.542480
3428.169922	5902.596191
3427.378906	5888.999512
3426.588867	5900.704102
3425.797852	5729.025879
3425.006836	5715.462891
3424.215820	5705.064453
3423.424805	5865.319824
3422.633789	5880.178223
3421.842773	5945.578613
3421.050781	5811.961426
3420.259766	5880.509277
3419.467773	5737.471680
3418.675781	5761.809570
3417.883789	5846.115234
3417.091797	5722.088867
3416.299805	5866.331055
3415.506836	5732.875000
3414.714844	5741.419922
3413.921875	5721.574707
3413.128906	5711.196777
3412.336914	5669.291016
3411.543945	5750.349609
3410.750000	5755.731934
3409.957031	5786.325195
3409.164063	5624.692383
3408.370117	5784.470215
3407.576172	5651.239746
3406.783203	5770.017578
3405.989258	5655.726074
3405.195313	5601.293945
3404.400391	5710.578125
3403.606445	5634.121582
3402.812500	5718.188477
3402.017578	5648.047852
3401.222656	5735.231445
3400.427734	5605.345215
3399.633789	5563.561035
3398.837891	5575.247070
3398.042969	5637.233887
3397.248047	5466.580078
3396.452148	5638.569824
3395.657227	5763.366211
3394.861328	5564.495605
3394.065430	5453.650879
3393.269531	5484.186523
3392.473633	5561.819824
3391.677734	5655.127930
3390.880859	5381.085449
3390.084961	5593.673828
3389.288086	5599.054199
3388.491211	5613.846191
3387.694336	5587.846680
3386.897461	5533.622070
3386.100586	5479.415039
3385.302734	5359.369629
3384.505859	5505.877441
3383.708008	5570.828613
3382.911133	5428.884766
3382.113281	5569.042480
3381.315430	5505.480469
3380.517578	5329.152344
3379.718750	5494.317871
3378.920898	5480.909180
3378.123047	5658.522461
3377.324219	5519.854004
3376.525391	5431.316406
3375.726563	5389.756348
3374.927734	5504.681152
3374.128906	5441.220215
3373.330078	5493.530762
3372.530273	5426.963379
3371.731445	5463.622559
3370.931641	5512.777344
3370.131836	5480.628906
3369.332031	5451.616699
3368.532227	5406.986816
3367.732422	5452.993652
3366.932617	5267.778320
3366.131836	5332.536133
3365.332031	5441.000488
3364.531250	5412.021973
3363.730469	5451.745605
3362.929688	5385.311035
3362.128906	5434.390137
3361.327148	5377.342285
3360.526367	5292.228516
3359.725586	5612.731445
3358.923828	5377.875000
3358.122070	5461.223145
3357.320313	5195.282227
3356.518555	5549.891602
3355.716797	5299.608398
3354.915039	5488.890137
3354.112305	5316.606934
3353.310547	5306.406738
3352.507813	5467.557617
3351.705078	5466.680664
3350.902344	5238.451172
3350.099609	5440.016113
3349.296875	5292.812988
3348.493164	5354.222656
3347.690430	5216.416992
3346.886719	5312.050293
3346.083008	5140.069824
3345.279297	5195.242188
3344.475586	5337.488770
3343.671875	5255.774414
3342.868164	5357.542480
3342.063477	5446.842285
3341.259766	5362.041016
3340.455078	5295.914551
3339.650391	5338.569336
3338.845703	5194.793945
3338.041016	5346.176270
3337.236328	5199.339844
3336.431641	5431.413574
3335.625977	5331.184570
3334.821289	5352.060547
3334.015625	5258.083496
3333.209961	5182.757813
3332.404297	5268.809082
3331.598633	5379.652344
3330.791992	5229.895508
3329.986328	5229.056641
3329.180664	5191.006348
3328.374023	5283.187500
3327.567383	5418.738770
3326.760742	5241.199707
3325.954102	5361.218750
3325.147461	5146.564453
3324.339844	5263.461914
3323.533203	5213.057617
3322.725586	5240.094238
3321.918945	5288.797852
3321.111328	5269.373535
3320.303711	5358.297363
3319.496094	5187.212891
3318.687500	5313.255371
3317.879883	5238.146973
3317.071289	5101.192383
3316.263672	5239.559570
3315.455078	5251.088867
3314.646484	5111.105957
3313.837891	5218.489258
3313.029297	5211.470215
3312.219727	5346.617188
3311.411133	5129.457031
3310.601563	5039.037598
3309.792969	5143.256836
3308.983398	5404.958008
3308.173828	5367.034180
3307.364258	5184.007324
3306.553711	5183.175781
3305.744141	5086.660645
3304.933594	5237.062012
3304.124023	5214.623047
3303.313477	5324.849121
3302.502930	5228.372559
3301.692383	5335.477051
3300.881836	5229.778809
3300.070313	5216.607422
3299.259766	5200.357422
3298.448242	5242.672363
3297.637695	5220.259766
3296.826172	5179.367676
3296.014648	5428.067871
3295.203125	5153.064941
3294.390625	5235.388184
3293.579102	5302.289551
3292.766602	5092.090332
3291.955078	5251.337402
3291.142578	5225.873535
3290.330078	5191.186035
3289.517578	5107.283203
3288.705078	5244.891602
3287.891602	5234.823242
3287.079102	5101.749512
3286.265625	5119.379395
3285.453125	4995.589355
3284.639648	5083.925781
3283.826172	5187.599121
3283.012695	5168.330566
3282.198242	4930.938965
3281.384766	5129.811035
3280.570313	4938.570313
3279.756836	5146.589355
3278.942383	5151.903809
3278.127930	5062.053711
3277.313477	5196.289551
3276.499023	5134.080078
3275.683594	5065.753906
3274.869141	5000.517090
3274.053711	5091.733887
3273.238281	4959.043457
3272.423828	5022.640625
3271.608398	4960.517578
3270.791992	4996.505859
3269.976563	4925.212402
3269.161133	5004.095215
3268.344727	5040.058594
3267.528320	4993.298828
3266.712891	4909.799805
3265.896484	5059.068848
3265.080078	5003.142578
3264.262695	5057.444824
3263.446289	5218.861816
3262.629883	5089.486328
3261.812500	4972.392090
3260.995117	5093.971680
3260.177734	5001.385254
3259.360352	4801.782715
3258.542969	4752.084473
3257.725586	4855.275879
3256.907227	5230.506348
3256.089844	5018.768555
3255.271484	4993.514648
3254.453125	5011.046387
3253.634766	4918.591309
3252.816406	5049.146484
3251.998047	5170.498047
3251.179688	4937.597656
3250.360352	5034.503418
3249.541992	5058.115723
3248.722656	4941.324707
3247.903320	5080.904785
3247.083984	5067.884766
3246.264648	4996.907227
3245.444336	4919.851563
3244.625000	4757.431152
3243.804688	4970.107910
3242.985352	4758.952637
3242.165039	4953.271484
3241.344727	4961.619141
3240.524414	4820.651855
3239.703125	4883.858887
3238.882813	4797.780762
3238.061523	4979.753906
3237.241211	4997.225586
3236.419922	4993.378906
3235.598633	4819.054688
3234.777344	4839.587402
3233.956055	4924.021973
3233.134766	5020.600586
3232.312500	5120.190430
3231.490234	4927.734375
3230.668945	4966.480469
3229.846680	4941.355957
3229.024414	4770.303223
3228.202148	5006.646484
3227.378906	4850.834473
3226.556641	4913.872559
3225.733398	4855.354004
3224.911133	4918.370117
3224.087891	4914.542969
3223.264648	4925.901855
3222.441406	4943.329590
3221.618164	5054.866211
3220.793945	4911.387207
3219.970703	4831.688965
3219.146484	4830.913086
3218.322266	4878.681641
3217.498047	4871.831055
3216.673828	4868.015625
3215.849609	5052.219238
3215.025391	4975.606445
3214.201172	4883.860352
3213.375977	4707.273438
3212.550781	4948.965332
3211.725586	5084.525391
3210.900391	4853.457520
3210.075195	4952.639648
3209.250000	4797.382813
3208.424805	4872.316406
3207.598633	5086.499023
3206.772461	4870.751953
3205.947266	4821.541992
3205.121094	4881.292480
3204.294922	4804.864746
3203.467773	4903.926270
3202.641602	4800.296875
3201.815430	4890.254395
3200.988281	4919.706543
3200.161133	4797.984375
3199.333984	4824.418945
3198.506836	4808.532715
3197.679688	4952.809082
3196.852539	4819.073242
3196.024414	4757.881836
3195.197266	4790.341797
3194.369141	4997.946289
3193.541016	4803.900391
3192.712891	4905.772461
3191.884766	4914.040039
3191.056641	4874.017090
3190.227539	4776.674805
3189.399414	4923.740234
3188.570313	5025.510742
3187.741211	5000.575195
3186.913086	4821.854980
3186.083008	4815.050293
3185.253906	4720.824707
3184.424805	4876.799316
3183.594727	4770.539551
3182.765625	4923.442383
3181.935547	4796.120605
3181.105469	4807.398438
3180.275391	4893.964844
3179.445313	4881.133789
3178.615234	4907.445801
3177.784180	4831.401855
3176.954102	4689.168457
3176.123047	4823.831055
3175.291992	4862.170410
3174.460938	5008.794922
3173.629883	4896.701660
3172.798828	4847.797852
3171.966797	4798.909668
3171.135742	4906.367188
3170.303711	4842.455566
3169.471680	4835.666992
3168.639648	4907.007324
3167.807617	4912.228027
3166.975586	4872.387207
3166.143555	4850.580566
3165.310547	4798.750488
3164.478516	4695.894531
3163.645508	4761.184082
3162.812500	4712.395020
3161.979492	4909.706543
3161.146484	4872.910645
3160.312500	4902.128418
3159.479492	4895.341797
3158.645508	4816.578125
3157.812500	4722.846191
3156.978516	4904.974609
3156.144531	4856.223633
3155.310547	4915.386719
3154.475586	4797.725586
3153.641602	4922.795898
3152.807617	4724.285645
3151.972656	4747.488770
3151.137695	4794.642090
3150.302734	4742.968262
3149.467773	4736.218750
3148.632813	4819.270996
3147.796875	4600.018066
3146.961914	4707.003906
3146.125977	4796.004395
3145.290039	4861.044434
3144.455078	4761.562500
3143.618164	4730.892578
3142.782227	4766.011719
3141.946289	4798.130371
3141.109375	4686.765625
3140.273438	4751.759766
3139.436523	4742.032227
3138.599609	4741.270020
3137.762695	4755.443359
3136.925781	4766.625000
3136.088867	4789.748047
3135.250977	4815.849121
3134.414063	4728.504883
3133.576172	4921.749512
3132.738281	4753.842773
3131.900391	4678.485352
3131.062500	4767.230469
3130.224609	4712.774414
3129.385742	4703.069824
3128.547852	4612.859375
3127.708984	4805.904297
3126.870117	4733.591309
3126.031250	4798.398438
3125.192383	4586.054688
3124.353516	4546.584961
3123.514648	4739.484863
3122.674805	4658.304688
3121.835938	4812.410645
3120.996094	4573.437012
3120.156250	4679.874512
3119.316406	4741.629395
3118.476563	4618.848145
3117.635742	4650.836914
3116.795898	4736.367188
3115.955078	4655.291016
3115.114258	4595.059570
3114.274414	4490.242188
3113.433594	4789.812500
3112.591797	4747.424316
3111.750977	4630.743652
3110.910156	4618.112305
3110.068359	4682.737793
3109.226563	4693.868164
3108.384766	4684.202148
3107.542969	4692.358398
3106.701172	4745.052734
3105.859375	4684.911621
3105.017578	4749.463379
3104.174805	4624.046387
3103.332031	4676.716797
3102.490234	4699.700684
3101.647461	4583.250977
3100.803711	4514.295410
3099.960938	4738.951172
3099.118164	4631.446289
3098.274414	4645.524414
3097.431641	4751.485840
3096.587891	4581.793945
3095.744141	4699.583496
3094.900391	4686.977051
3094.056641	4641.790039
3093.211914	4721.010254
3092.368164	4693.599609
3091.523438	4689.883789
3090.678711	4585.518555
3089.833984	4537.423828
3088.989258	4743.849121
3088.144531	4704.620605
3087.299805	4700.905273
3086.454102	4596.621582
3085.609375	4501.243652
3084.763672	4544.874512
3083.917969	4505.708496
3083.072266	4528.632324
3082.226563	4554.503418
3081.380859	4624.692871
3080.534180	4671.222168
3079.688477	4649.791992
3078.841797	4592.924805
3077.995117	4666.015137
3077.148438	4582.588867
3076.301758	4664.513672
3075.455078	4601.776855
3074.607422	4698.428223
3073.760742	4541.280273
3072.913086	4646.761230
3072.065430	4607.665527
3071.217773	4542.038086
3070.370117	4570.796387
3069.522461	4496.350098
3068.673828	4645.972168
3067.826172	4542.062988
3066.977539	4629.742188
3066.128906	4679.088379
3065.280273	4719.580078
3064.431641	4701.147461
3063.583008	4491.288086
3062.734375	4570.070801
3061.884766	4510.452148
3061.035156	4509.726074
3060.186523	4541.375977
3059.336914	4761.350586
3058.487305	4642.893555
3057.636719	4615.670410
3056.787109	4609.044922
3055.937500	4655.356934
3055.086914	4560.515625
3054.236328	4462.765137
3053.385742	4559.047852
3052.535156	4578.886719
3051.684570	4733.889160
3050.833984	4662.615234
3049.982422	4594.301758
3049.130859	4622.932617
3048.280273	4572.266602
3047.428711	4545.105957
3046.577148	4482.725586
3045.725586	4484.939453
3044.873047	4704.319824
3044.021484	4527.509277
3043.168945	4515.045410
3042.316406	4558.317871
3041.464844	4660.232422
3040.612305	4603.768066
3039.758789	4362.613770
3038.906250	4555.383789
3038.053711	4572.235840
3037.200195	4553.916992
3036.346680	4556.113770
3035.493164	4520.226563
3034.639648	4416.982422
3033.786133	4530.485352
3032.932617	4450.697754
3032.079102	4423.632813
3031.224609	4440.483398
3030.370117	4457.328613
3029.515625	4500.503906
3028.661133	4493.928223
3027.806641	4542.934082
3026.952148	4679.667969
3026.097656	4564.865723
3025.242188	4382.852051
3024.386719	4542.932129
3023.532227	4480.819824
3022.676758	4532.702148
3021.820313	4523.206543
3020.964844	4598.437012
3020.109375	4615.222656
3019.252930	4386.676270
3018.397461	4514.453613
3017.541016	4560.440430
3016.684570	4492.565918
3015.828125	4535.622559
3014.970703	4447.346191
3014.114258	4504.984375
3013.256836	4384.651367
3012.400391	4474.365723
3011.542969	4540.720703
3010.685547	4481.672363
3009.828125	4577.158203
3008.970703	4389.866699
3008.112305	4333.785156
3007.254883	4484.613770
3006.396484	4440.188965
3005.538086	4503.561035
3004.679688	4523.223633
3003.821289	4478.813477
3002.962891	4539.236328
3002.104492	4416.236328
3001.245117	4444.631836
3000.385742	4519.582031
2999.527344	4495.576172
2998.667969	4433.756836
2997.808594	4505.763184
2996.948242	4467.228516
2996.088867	4492.680176
2995.229492	4445.437988
2994.369141	4430.187012
2993.508789	4490.509277
2992.648438	4390.981445
2991.788086	4564.606934
2990.927734	4357.611328
2990.067383	4406.287598
2989.206055	4536.263672
2988.344727	4579.087891
2987.484375	4488.351074
2986.623047	4600.834473
2985.761719	4489.807129
2984.899414	4332.386719
2984.038086	4488.360840
2983.176758	4432.520996
2982.314453	4399.902344
2981.452148	4506.491211
2980.589844	4488.368164
2979.727539	4510.836914
2978.865234	4489.820313
2978.002930	4474.606934
2977.139648	4494.168945
2976.276367	4502.136230
2975.414063	4484.030762
2974.550781	4410.903320
2973.687500	4508.646973
2972.824219	4426.853516
2971.959961	4460.877441
2971.096680	4448.581543
2970.232422	4534.680176
2969.368164	4502.122070
2968.503906	4408.822754
2967.639648	4402.327637
2966.775391	4520.189941
2965.911133	4455.847656
2965.045898	4504.277832
2964.181641	4457.302246
2963.316406	4499.935547
2962.451172	4504.989746
2961.585938	4489.817871
2960.720703	4451.540527
2959.854492	4453.711426
2958.989258	4548.291016
2958.123047	4501.360352
2957.256836	4506.408691
2956.391602	4534.546387
2955.524414	4530.929199
2954.658203	4371.498047
2953.791992	4457.343750
2952.924805	4560.468750
2952.058594	4510.704102
2951.191406	4628.205078
2950.324219	4451.586914
2949.457031	4618.064941
2948.589844	4594.262695
2947.722656	4630.984863
2946.854492	4523.630859
2945.986328	4485.450684
2945.119141	4602.822266
2944.250977	4607.840332
2943.382813	4489.040527
2942.513672	4600.596680
2941.645508	4536.527344
2940.777344	4440.820801
2939.908203	4434.349609
2939.039063	4591.875977
2938.169922	4487.576172
2937.300781	4567.385742
2936.431641	4555.146484
2935.562500	4620.542969
2934.692383	4542.178223
2933.822266	4391.980469
2932.953125	4632.677246
2932.083008	4468.145996
2931.212891	4562.232422
2930.341797	4613.201660
2929.471680	4483.216797
2928.601563	4476.750977
2927.730469	4674.133789
2926.859375	4587.261230
2925.988281	4540.599121
2925.117188	4597.260742
2924.246094	4576.434570
2923.375000	4590.040527
2922.502930	4606.509766
2921.630859	4605.767090
2920.759766	4593.554688
2919.887695	4641.551270
2919.015625	4689.532715
2918.142578	4728.899902
2917.270508	4653.633301
2916.397461	4598.446289
2915.525391	4643.538574
2914.652344	4705.800781
2913.779297	4544.674805
2912.906250	4678.513672
2912.033203	4660.582031
2911.159180	4502.403809
2910.286133	4473.059082
2909.412109	4629.713379
2908.538086	4714.793945
2907.664063	4642.521973
2906.790039	4567.413086
2905.916016	4641.023926
2905.041992	4588.812012
2904.166992	4616.657715
2903.291992	4604.479980
2902.417969	4720.902344
2901.542969	4648.709961
2900.666992	4536.546387
2899.791992	4630.072266
2898.916992	4515.091309
2898.041016	4597.168945
2897.165039	4470.810547
2896.290039	4607.103516
2895.414063	4532.155762
2894.538086	4531.424805
2893.661133	4533.546387
2892.785156	4347.394531
2891.908203	4643.317383
2891.032227	4491.428223
2890.155273	4564.835449
2889.278320	4578.353027
2888.401367	4449.349609
2887.523438	4400.183594
2886.646484	4445.063965
2885.768555	4546.908691
2884.891602	4455.023438
2884.013672	4485.632324
2883.135742	4459.280273
2882.256836	4370.300781
2881.378906	4497.693848
2880.500977	4371.735840
2879.622070	4496.242188
2878.743164	4435.766113
2877.865234	4520.394043
2876.985352	4502.598145
2876.106445	4607.095215
2875.227539	4435.746094
2874.348633	4466.302734
2873.468750	4459.896484
2872.588867	4479.070801
2871.708984	4324.901855
2870.829102	4500.354004
2869.949219	4471.220703
2869.069336	4402.333496
2868.188477	4574.848145
2867.308594	4406.590820
2866.427734	4465.495117
2865.546875	4373.945801
2864.666016	4498.108398
2863.785156	4329.971680
2862.903320	4442.752441
2862.022461	4240.640137
2861.140625	4322.202148
2860.258789	4434.929688
2859.376953	4349.158203
2858.495117	4430.662598
2857.613281	4463.958496
2856.731445	4403.727539
2855.848633	4488.017090
2854.965820	4436.300293
2854.083984	4410.091797
2853.201172	4497.170898
2852.318359	4547.412109
2851.434570	4478.731934
2850.551758	4478.008789
2849.667969	4471.625488
2848.785156	4414.309570
2847.901367	4591.837891
2847.017578	4350.650391
2846.133789	4516.818359
2845.249023	4547.195313
2844.365234	4320.269043
2843.480469	4554.207520
2842.596680	4547.818848
2841.711914	4428.391113
2840.827148	4560.477539
2839.942383	4421.310059
2839.056641	4482.738281
2838.171875	4349.276855
2837.286133	4506.704102
2836.401367	4452.333496
2835.515625	4527.830566
2834.629883	4431.138184
2833.743164	4326.011230
2832.857422	4483.314453
2831.971680	4428.991211
2831.084961	4462.122070
2830.198242	4498.062500
2829.311523	4522.712891
2828.424805	4499.428223
2827.538086	4402.864258
2826.651367	4438.790527
2825.763672	4488.794434
2824.876953	4513.425293
2823.989258	4380.301270
2823.101563	4447.188477
2822.213867	4438.021484
2821.325195	4490.799805
2820.437500	4501.334473
2819.549805	4503.421875
2818.661133	4482.994629
2817.772461	4569.496094
2816.883789	4523.745117
2815.995117	4438.629395
2815.106445	4440.724609
2814.216797	4614.345215
2813.328125	4534.878418
2812.438477	4418.894531
2811.548828	4505.307129
2810.659180	4352.833984
2809.769531	4439.229492
2808.879883	4612.681152
2807.989258	4538.908691
2807.099609	4459.543457
2806.208984	4587.982422
2805.318359	4421.605957
2804.427734	4541.588379
2803.537109	4552.080078
2802.646484	4489.612305
2801.754883	4508.525391
2800.863281	4420.838379
2799.972656	4605.230469
2799.081055	4520.360352
2798.189453	4530.844238
2797.296875	4496.472168
2796.405273	4554.604980
2795.513672	4542.659180
2794.621094	4488.687988
2793.728516	4479.557617
2792.835938	4534.854004
2791.943359	4595.733398
2791.050781	4603.390625
2790.157227	4630.642578
2789.264648	4618.697266
2788.371094	4506.000000
2787.477539	4681.564453
2786.583984	4633.244141
2785.690430	4548.572754
2784.796875	4637.339355
2783.903320	4530.322754
2783.008789	4655.412109
2782.114258	4643.477051
2781.219727	4488.993164
2780.325195	4611.233398
2779.430664	4479.158691
2778.536133	4570.628906
2777.640625	4578.270020
2776.746094	4557.979492
2775.850586	4568.411621
2774.955078	4500.665527
2774.059570	4678.595215
2773.164063	4669.464844
2772.267578	4568.247559
2771.372070	4441.950684
2770.475586	4603.036133
2769.579102	4630.184082
2768.683594	4579.236328
2767.786133	4695.606934
2766.889648	4452.298828
2765.993164	4655.063477
2765.095703	4459.219238
2764.199219	4581.106445
2763.301758	4482.851563
2762.404297	4679.908203
2761.506836	4623.446777
2760.608398	4686.748047
2759.710938	4502.225586
2758.812500	4523.768066
2757.914063	4628.805664
2757.016602	4525.087402
2756.118164	4627.307617
2755.218750	4576.481934
2754.320313	4575.741699
2753.421875	4408.131836
2752.522461	4629.875000
2751.623047	4640.246582
2750.723633	4622.816895
2749.824219	4644.303711
2748.924805	4612.983887
2748.025391	4501.099121
2747.125000	4694.831543
2746.224609	4671.851074
2745.325195	4709.974609
2744.424805	4562.049316
2743.523438	4558.534668
2742.623047	4643.845215
2741.722656	4523.755371
2740.821289	4525.798340
2739.919922	4436.284180
2739.019531	4565.942383
2738.118164	4504.186035
2737.215820	4603.287598
2736.314453	4621.950684
2735.413086	4643.379883
2734.510742	4609.367188
2733.608398	4600.307617
2732.706055	4521.979492
2731.803711	4701.321777
2730.901367	4659.011719
2729.999023	4575.173340
2729.095703	4549.511230
2728.193359	4534.932129
2727.290039	4534.197754
2726.386719	4644.170898
2725.483398	4635.117188
2724.579102	4576.264160
2723.675781	4683.410645
2722.771484	4585.845703
2721.868164	4576.807129
2720.963867	4576.065918
2720.059570	4619.557617
2719.155273	4599.460938
2718.250000	4501.988281
2717.345703	4672.578125
2716.440430	4577.887695
2715.536133	4635.154785
2714.630859	4650.975098
2713.725586	4600.516602
2712.819336	4583.205566
2711.914063	4579.702637
2711.007813	4432.677246
2710.102539	4547.863281
2709.196289	4646.457520
2708.290039	4452.593262
2707.383789	4542.895508
2706.477539	4531.128418
2705.570313	4577.270020
2704.664063	4457.979980
2703.756836	4526.170410
2702.849609	4632.923340
2701.942383	4734.130371
2701.035156	4609.380859
2700.127930	4627.917480
2699.219727	4533.522461
2698.312500	4546.557129
2697.404297	4625.668457
2696.496094	4545.083984
2695.587891	4626.922363
2694.679688	4461.050293
2693.770508	4575.894531
2692.862305	4544.890137
2691.953125	4505.644043
2691.043945	4565.419922
2690.134766	4658.173340
2689.225586	4605.180664
2688.316406	4469.737793
2687.406250	4567.958008
2686.497070	4671.643066
2685.586914	4679.128418
2684.676758	4554.749512
2683.766602	4666.625488
2682.856445	4484.617188
2681.946289	4593.722168
2681.035156	4631.412598
2680.124023	4798.101563
2679.213867	4437.798828
2678.302734	4634.649414
2677.391602	4461.052734
2676.479492	4567.312012
2675.568359	4544.629883
2674.657227	4521.955566
2673.745117	4567.833008
2672.833008	4671.264160
2671.920898	4527.979492
2671.008789	4587.535645
2670.096680	4636.112305
2669.183594	4643.579590
2668.270508	4557.913574
2667.358398	4677.676758
2666.445313	4589.294922
2665.532227	4470.825684
2664.619141	4650.766113
2663.705078	4622.643066
2662.791992	4676.623047
2661.877930	4593.783691
2660.963867	4546.534180
2660.049805	4677.083496
2659.135742	4616.162109
2658.221680	4590.805176
2657.306641	4644.736816
2656.392578	4619.383301
2655.477539	4599.503906
2654.562500	4546.840820
2653.647461	4737.346191
2652.732422	4569.950684
2651.817383	4681.186523
2650.901367	4617.621094
2649.986328	4616.872559
2649.070313	4646.151367
2648.154297	4653.585938
2647.238281	4617.355469
2646.321289	4523.837891
2645.405273	4640.410156
2644.489258	4514.187500
2643.572266	4674.357910
2642.655273	4591.797852
2641.738281	4708.283203
2640.821289	4650.276855
2639.903320	4720.382813
2638.986328	4651.493164
2638.068359	4590.799316
2637.151367	4655.432129
2636.233398	4709.149414
2635.315430	4574.949707
2634.396484	4568.761719
2633.478516	4638.800293
2632.559570	4553.669922
2631.641602	4634.573730
2630.722656	4677.357422
2629.803711	4611.305664
2628.884766	4673.119629
2627.965820	4691.398926
2627.045898	4666.165039
2626.125977	4736.095703
2625.207031	4604.847168
2624.287109	4729.123047
2623.367188	4774.552246
2622.447266	4662.379883
2621.526367	4677.922852
2620.606445	4611.976563
2619.685547	4817.620117
2618.764648	4583.327637
2617.843750	4642.309082
2616.922852	4668.699219
2616.001953	4629.946777
2615.080078	4873.408203
2614.159180	4650.147949
2613.237305	4660.243652
2612.315430	4654.062988
2611.393555	4772.623047
2610.471680	4682.375977
2609.548828	4651.796875
2608.626953	4550.756836
2607.704102	4758.685059
2606.781250	4671.208008
2605.858398	4767.976563
2604.935547	4764.493652
2604.012695	4603.936523
2603.089844	4765.654297
2602.166016	4797.368652
2601.242188	4799.296387
2600.318359	4617.186035
2599.394531	4583.964355
2598.470703	4772.609375
2597.546875	4687.975586
2596.622070	4711.556152
2595.698242	4686.453125
2594.773438	4699.210938
2593.848633	4849.836426
2592.923828	4711.199707
2591.998047	4615.847656
2591.073242	4658.330566
2590.147461	4808.864258
2589.222656	4659.519043
2588.296875	4677.667480
2587.371094	4701.209961
2586.445313	4659.948730
2585.518555	4756.371094
2584.592773	4642.241211
2583.666016	4757.524414
2582.739258	4727.072754
2581.812500	4780.257813
2580.885742	4668.895508
2579.958984	4552.175293
2579.031250	4699.734863
2578.104492	4742.105957
2577.176758	4846.458984
2576.249023	4829.501465
2575.321289	4653.567871
2574.393555	4782.131348
2573.465820	4595.487793
2572.537109	4864.069336
2571.608398	4666.701660
2570.680664	4768.254883
2569.751953	4640.957520
2568.823242	4683.268066
2567.893555	4760.548828
2566.964844	4714.034180
2566.035156	4804.735352
2565.105469	4704.432617
2564.176758	4744.008301
2563.246094	4778.193359
2562.316406	4790.859375
2561.386719	4714.815430
2560.456055	4649.546875
2559.526367	4651.476074
2558.595703	4653.405273
2557.665039	4655.334473
2556.734375	4657.263672
2555.802734	4659.192871
2554.872070	4661.122070
2553.940430	4663.051270
2553.009766	4742.816895
2552.078125	4841.341797
2551.146484	4754.690918
2550.213867	4796.842773
2549.282227	4661.945313
2548.349609	4760.418457
2547.417969	4832.044922
2546.485352	4724.017090
2545.552734	4755.416504
2544.620117	4853.810059
2543.686523	4713.674316
2542.753906	4849.552734
2541.820313	4781.792480
2540.887695	4762.265625
2539.954102	4777.559570
2539.020508	4693.777832
2538.085938	4826.871582
2537.152344	4735.078613
2536.217773	4753.042480
2535.284180	4875.357910
2534.349609	4914.695801
2533.415039	4777.473633
2532.480469	4677.739746
2531.544922	4711.741699
2530.610352	4997.056641
2529.674805	4691.497070
2528.739258	4888.520020
2527.803711	4885.052246
2526.868164	4889.601563
2525.932617	4910.178223
2524.997070	4866.643066
2524.060547	4732.320801
2523.124023	4811.656250
2522.187500	4704.083984
2521.250977	4788.736328
2520.314453	4782.619629
2519.377930	4899.252930
2518.440430	4919.799805
2517.503906	4753.610352
2516.566406	4992.879395
2515.628906	4832.064941
2514.691406	4900.601563
2513.752930	4886.475098
2512.815430	5040.273438
2511.876953	4839.580566
2510.938477	4745.534668
2510.000000	4867.311035
2509.061523	4885.164551
2508.123047	4868.390137
2507.184570	4878.249023
2506.245117	4794.921875
2505.306641	4804.789551
2504.367188	4841.268555
2503.427734	4856.447266
2502.487305	4829.050293
2501.547852	4889.449219
2500.608398	4909.931641
2499.667969	4776.165527
2498.727539	4714.233398
2497.787109	4702.832520
2496.846680	4808.388184
2495.906250	4850.127441
2494.964844	4838.708984
2494.024414	4699.770996
2493.083008	4882.291016
2492.141602	4852.281738
2491.200195	4803.693848
2490.258789	4895.837402
2489.317383	4764.965820
2488.375000	4811.964844
2487.432617	4874.870605
2486.490234	4884.689941
2485.547852	4844.102051
2484.605469	4949.409668
2483.663086	4922.083984
2482.720703	4886.812500
2481.777344	4790.576660
2480.833984	4890.522461
2479.890625	4955.982910
2478.947266	4984.323730
2478.003906	4880.185547
2477.059570	4773.432617
2476.116211	4772.655273
2475.171875	4867.209473
2474.227539	4831.997070
2473.283203	4942.394043
2472.338867	4867.478516
2471.394531	4824.343750
2470.449219	4947.917480
2469.503906	4756.634277
2468.559570	4829.921875
2467.614258	4855.582031
2466.667969	4994.934570
2465.722656	4814.343262
2464.777344	4887.573242
2463.831055	4923.777832
2462.884766	4848.985840
2461.938477	4911.605469
2460.992188	4852.689453
2460.045898	4880.952148
2459.099609	4816.778320
2458.152344	4921.607422
2457.205078	4886.486328
2456.257813	4724.681641
2455.310547	4758.219727
2454.363281	4794.385254
2453.416016	4856.920410
2452.467773	4840.302734
2451.520508	5003.028809
2450.572266	4867.730957
2449.624023	4740.386719
2448.675781	4953.134277
2447.726563	4799.461426
2446.778320	4830.301270
2445.829102	5071.912109
2444.879883	4897.219727
2443.930664	4933.295898
2442.981445	5019.396484
2442.032227	4902.724609
2441.083008	4959.842773
2440.132813	4864.275879
2439.182617	4897.695801
2438.232422	4915.316895
2437.282227	5056.583984
2436.332031	5026.824219
2435.381836	5028.634766
2434.430664	4875.297852
2433.480469	5055.916504
2432.529297	4939.427246
2431.578125	4985.931641
2430.626953	4901.025879
2429.674805	4942.266602
2428.723633	4923.071289
2427.771484	4987.934082
2426.819336	4968.737305
2425.867188	4941.669434
2424.915039	4725.586914
2423.962891	4811.437988
2423.010742	4876.265137
2422.057617	4857.102051
2421.104492	4782.848633
2420.151367	4695.503418
2419.198242	4865.216797
2418.245117	4764.774902
2417.291992	4740.400879
2416.337891	4844.486328
2415.383789	4827.970215
2414.430664	4740.702148
2413.475586	4695.385742
2412.521484	4692.000000
2411.567383	4675.518555
2410.612305	4753.323242
2409.658203	4605.912598
2408.703125	4652.286621
2407.748047	4688.174316
2406.792969	4705.729980
2405.837891	4736.363281
2404.881836	4591.691406
2403.925781	4522.928711
2402.970703	4647.734375
2402.013672	4529.297852
2401.058594	4525.944336
2400.101563	4668.987793
2399.144531	4587.198242
2398.189453	4623.037109
2397.232422	4711.122070
2396.275391	4587.565430
2395.318359	4568.532227
2394.361328	4604.350098
2393.404297	4553.985352
2392.445313	4534.966309
2391.488281	4612.537598
2390.529297	4499.557129
2389.572266	4595.375000
2388.613281	4435.469727
2387.656250	4450.397949
2386.697266	4535.743652
2385.738281	4480.239258
2384.779297	4518.618652
2383.820313	4533.522949
2382.861328	4582.307129
2381.902344	4513.800293
2380.943359	4403.624023
2379.982422	4580.063477
2379.023438	4495.960938
2378.064453	4448.347168
2377.103516	4411.165039
2376.142578	4446.895020
2375.183594	4362.868164
2374.222656	4252.841797
2373.261719	4390.068848
2372.300781	4324.305176
2371.339844	4222.143066
2370.378906	4434.736816
2369.417969	4405.406250
2368.455078	4292.879395
2367.494141	4292.178711
2366.533203	4249.888184
2365.570313	4280.380859
2364.609375	4243.303223
2363.646484	4330.943848
2362.683594	4376.993652
2361.720703	4290.571289
2360.757813	4274.290039
2359.794922	4135.985352
2358.832031	4246.934570
2357.869141	4165.780273
2356.906250	4341.564941
2355.943359	4304.530762
2354.978516	4337.552246
2354.015625	4222.716309
2353.050781	4211.652832
2352.085938	4195.407227
2351.123047	4212.869629
2350.158203	4152.562500
2349.193359	4348.852539
2348.228516	4169.344727
2347.263672	4241.207031
2346.298828	4188.705566
2345.333984	4250.181152
2344.367188	4265.023926
2343.402344	4207.365723
2342.437500	4173.024902
2341.470703	4216.343750
2340.503906	4282.939941
2339.539063	4287.414551
2338.572266	4196.167969
2337.605469	4211.001953
2336.638672	4114.624512
2335.671875	4181.182129
2334.705078	4196.010742
2333.738281	4327.155762
2332.771484	4298.019043
2331.802734	4305.068359
2330.835938	4449.049316
2329.867188	4660.146973
2328.900391	4599.980469
2327.931641	4557.910645
2326.962891	4373.845703
2325.994141	4362.804688
2325.027344	4282.076660
2324.058594	4095.566406
2323.089844	4061.353271
2322.119141	4055.529541
2321.150391	4158.043457
2320.181641	4185.732910
2319.210938	4084.483398
2318.242188	4037.408691
2317.271484	4126.969238
2316.302734	4020.624268
2315.332031	4123.042969
2314.361328	3970.356201
2313.390625	4111.390137
2312.419922	3984.511475
2311.449219	4040.514648
2310.478516	3934.287109
2309.507813	4018.598145
2308.537109	4059.124023
2307.564453	3916.915771
2306.593750	4104.112305
2305.621094	4044.269043
2304.650391	4087.336182
2303.677734	3942.644043
2302.705078	3831.427490
2301.732422	4072.475342
2300.759766	3917.573975
2299.787109	4035.160645
2298.814453	4085.895508
2297.841797	3995.300537
2296.869141	4053.731689
2295.896484	4104.437988
2294.921875	3967.659180
2293.949219	4059.445068
2292.974609	3979.197021
2292.000000	3978.545898
2291.027344	4018.956787
2290.052734	4115.805664
2289.078125	4043.297119
2288.103516	3932.334961
2287.128906	3965.032715
2286.154297	4007.976563
2285.177734	4020.139893
2284.203125	3937.451660
2283.228516	4003.445801
2282.251953	4013.041016
2281.277344	4030.319580
2280.300781	4060.400879
2279.324219	4039.245605
2278.347656	3946.390869
2277.371094	4027.681152
2276.394531	3986.060303
2275.417969	4036.601318
2274.441406	3900.300049
2273.464844	4012.250244
2272.488281	4096.020996
2271.509766	3995.588379
2270.533203	4063.988770
2269.554688	3981.494385
2268.578125	3957.831787
2267.599609	4077.330811
2266.621094	3994.874268
2265.642578	3889.445313
2264.664063	3893.918457
2263.685547	3949.482910
2262.707031	4030.571533
2261.728516	3932.866699
2260.750000	3988.397217
2259.769531	4013.273682
2258.791016	4010.063721
2257.810547	3991.541992
2256.832031	4039.370850
2255.851563	4064.222412
2254.871094	4086.514404
2253.890625	4050.138672
2252.910156	4074.975586
2251.929688	3916.230957
2250.949219	4040.500977
2249.968750	3971.021484
2248.988281	3990.758057
2248.005859	3951.884766
2247.025391	3905.381592
2246.042969	3930.212891
2245.062500	4033.983887
2244.080078	4012.952637
2243.097656	4019.932861
2242.115234	3983.637695
2241.132813	4010.980225
2240.150391	3959.430664
2239.167969	4055.461426
2238.185547	3856.381592
2237.203125	3982.917969
2236.218750	3972.093506
2235.236328	3867.198486
2234.253906	4011.465576
2233.269531	4010.808105
2232.285156	3903.416504
2231.300781	4055.229004
2230.318359	3937.703369
2229.333984	3985.318604
2228.349609	3971.967285
2227.365234	3844.355957
2226.378906	4023.979736
2225.394531	3926.861816
2224.410156	3961.749512
2223.423828	3846.910645
2222.439453	3935.079346
2221.453125	3916.677246
2220.468750	3921.107666
2219.482422	4039.650879
2218.496094	3983.208496
2217.509766	4033.256104
2216.523438	4042.733398
2215.537109	4021.796631
2214.550781	3993.265381
2213.564453	3931.809326
2212.576172	3979.291016
2211.589844	3887.466553
2210.601563	3929.875244
2209.615234	3959.611328
2208.626953	3971.618408
2207.638672	3998.806885
2206.650391	3970.315674
2205.664063	4037.976074
2204.675781	3880.475830
2203.685547	3867.193115
2202.697266	4033.460449
2201.708984	3954.418457
2200.720703	3857.706299
2199.730469	3958.176270
2198.742188	3952.472656
2197.751953	3929.083496
2196.763672	3890.543945
2195.773438	3927.794189
2194.783203	3838.757324
2193.792969	3974.481934
2192.802734	3877.892334
2191.812500	3998.420410
2190.822266	3952.335205
2189.832031	3936.545898
2188.839844	3718.920898
2187.849609	3869.666504
2186.857422	3964.874512
2185.867188	3954.136719
2184.875000	3928.274170
2183.882813	3973.006348
2182.892578	3881.615234
2181.900391	3833.095947
2180.908203	3847.584961
2179.916016	3867.107666
2178.921875	3954.633545
2177.929688	3795.321289
2176.937500	3734.265137
2175.943359	3844.427979
2174.951172	3886.589600
2173.957031	4039.476807
2172.964844	3968.354492
2171.970703	4030.602539
2170.976563	3833.726563
2169.982422	3918.612305
2168.988281	3930.542480
2167.994141	3887.153564
2167.000000	3906.616699
2166.005859	3926.080078
2165.009766	3945.543457
2164.015625	3965.006592
2163.019531	3966.867676
2162.025391	3976.263672
2161.029297	3920.358887
2160.033203	3927.248047
2159.039063	3841.242188
2158.042969	3870.733643
2157.046875	3895.195801
2156.050781	3957.290527
2155.052734	3888.898438
2154.056641	3780.391846
2153.060547	3995.470947
2152.062500	3869.427979
2151.066406	3964.070557
2150.068359	4013.557373
2149.072266	3937.703125
2148.074219	3942.068359
2147.076172	3989.028564
2146.078125	3930.752197
2145.080078	3857.465576
2144.082031	3959.513672
2143.083984	3996.423584
2142.085938	3843.046387
2141.085938	3827.395752
2140.087891	3931.883789
2139.087891	3886.194824
2138.089844	3893.062012
2137.089844	3944.955078
2136.089844	3841.759766
2135.089844	4061.192871
2134.089844	3940.509766
2133.089844	3954.861572
2132.089844	3894.223633
2131.089844	3896.082520
2130.089844	3880.449951
2129.089844	3909.791504
2128.087891	3794.247070
2127.087891	4085.824707
2126.085938	3942.822021
2125.083984	3862.281738
2124.082031	4036.381836
2123.082031	3890.961426
2122.080078	3945.220459
2121.078125	3969.521729
2120.076172	4021.255127
2119.072266	4010.617188
2118.070313	3999.982666
2117.068359	3827.284180
2116.064453	3913.907471
2115.062500	3878.368408
2114.058594	3817.919922
2113.054688	3941.877197
2112.052734	3943.720215
2111.048828	3953.035156
2110.044922	3994.722900
2109.041016	3991.575928
2108.037109	3951.084717
2107.031250	4042.537109
2106.027344	3959.740479
2105.023438	3954.112305
2104.017578	3819.108643
2103.013672	4002.563477
2102.007813	3922.314697
2101.001953	4026.114502
2099.998047	3928.483398
2098.992188	3937.781006
2097.986328	3919.734131
2096.980469	3851.989990
2095.972656	3759.420410
2094.966797	3880.534424
2093.960938	3919.638672
2092.955078	3881.740967
2091.947266	3987.875977
2090.939453	4009.563965
2089.933594	3926.988525
2088.925781	3961.088623
2087.917969	3836.362793
2086.910156	3897.758057
2085.902344	3867.348633
2084.894531	3918.797363
2083.886719	3880.954590
2082.878906	3813.371094
2081.871094	3842.491699
2080.861328	3774.936523
2079.853516	3925.485840
2078.843750	3840.594238
2077.833984	3976.218750
2076.826172	3987.949219
2075.816406	3841.174316
2074.806641	3912.350830
2073.796875	3943.891602
2072.787109	3809.572998
2071.777344	3905.468750
2070.765625	3825.640381
2069.755859	3958.613525
2068.744141	3794.695801
2067.734375	3816.330811
2066.722656	3894.835449
2065.712891	3916.446533
2064.701172	3821.861816
2063.689453	3841.005859
2062.677734	3793.418945
2061.666016	3829.857178
2060.654297	3821.814941
2059.642578	3877.996826
2058.628906	3916.872559
2057.617188	3785.357178
2056.605469	3752.638672
2055.591797	3932.216309
2054.578125	3837.783447
2053.566406	3881.568359
2052.552734	3848.854980
2051.539063	3882.756104
2050.525391	3719.333984
2049.511719	3918.466797
2048.498047	3930.149170
2047.484375	3855.545898
2046.468750	3877.093750
2045.455078	3918.349121
2044.439453	3789.577148
2043.425781	3801.270508
2042.410156	3847.443848
2041.394531	3846.809814
2040.380859	3924.970703
2039.365234	3899.704590
2038.349609	3899.061768
2037.333984	3790.129639
2036.316406	3826.415771
2035.300781	3968.482910
2034.285156	3810.394775
2033.267578	3856.497314
2032.251953	3740.283936
2031.234375	3786.382568
2030.218750	3731.676025
2029.201172	3686.818848
2028.183594	3831.202148
2027.166016	3862.512207
2026.148438	3881.528809
2025.130859	3787.551025
2024.113281	3880.248779
2023.093750	3864.876221
2022.076172	3827.413330
2021.056641	3841.510010
2020.039063	3791.791748
2019.019531	3862.327393
2018.001953	3822.435791
2016.982422	3802.181152
2015.962891	3779.480469
2014.943359	3722.456299
2013.923828	3763.522949
2012.904297	3811.930176
2011.882813	3870.125488
2010.863281	3759.210205
2009.843750	3851.697266
2008.822266	3875.559814
2007.802734	3727.957520
2006.781250	3705.301758
2005.759766	3692.447510
2004.738281	3726.112793
2003.716797	3713.259277
2002.695313	3798.304199
2001.673828	3736.503418
2000.652344	3708.974854
1999.630859	3842.901123
1998.609375	3778.677490
1997.585938	3716.920410
1996.564453	3701.637451
1995.541016	3759.695313
1994.517578	3766.407227
1993.494141	3853.759766
1992.472656	3733.400879
1991.449219	3771.871338
1990.425781	3729.726074
1989.400391	3668.057373
1988.376953	3767.562256
1987.353516	3632.668213
1986.328125	3712.618408
1985.304688	3653.433594
1984.279297	3672.351074
1983.255859	3762.013672
1982.230469	3622.352783
1981.205078	3563.221191
1980.179688	3650.418701
1979.154297	3618.120850
1978.128906	3605.334961
1977.103516	3592.553223
1976.078125	3652.881836
1975.050781	3693.698730
1974.025391	3607.826172
1972.998047	3539.031494
1971.972656	3574.976074
1970.945313	3586.560059
1969.917969	3542.147217
1968.892578	3563.468750
1967.865234	3577.482178
1966.837891	3642.589355
1965.808594	3639.554688
1964.781250	3648.683350
1963.753906	3455.948486
1962.724609	3649.909668
1961.697266	3595.819092
1960.667969	3553.900635
1959.640625	3626.227051
1958.611328	3586.747070
1957.582031	3595.873047
1956.552734	3405.798096
1955.523438	3597.113770
1954.494141	3530.951416
1953.464844	3544.936279
1952.435547	3588.047852
1951.404297	3635.999756
1950.375000	3720.338135
1949.343750	3651.782959
1948.314453	3687.570068
1947.283203	3580.232666
1946.251953	3584.491455
1945.222656	3656.644043
1944.191406	3595.428711
1943.158203	3606.954590
1942.126953	3642.712891
1941.095703	3613.031982
1940.064453	3694.810791
1939.031250	3611.837402
1938.000000	3594.286133
1936.966797	3719.616455
1935.935547	3629.416260
1934.902344	3645.761963
1933.869141	3635.477295
1932.835938	3550.175537
1931.802734	3718.962158
1930.769531	3619.158936
1929.736328	3601.628662
1928.703125	3644.564697
1927.667969	3728.592773
1926.634766	3694.129395
1925.599609	3640.339600
1924.566406	3634.903809
1923.531250	3624.636963
1922.496094	3756.918945
1921.460938	3616.191162
1920.425781	3688.049805
1919.390625	3491.838867
1918.355469	3696.487549
1917.320313	3741.742432
1916.285156	3683.196289
1915.248047	3554.686035
1914.212891	3725.408691
1913.175781	3700.667969
1912.138672	3615.634766
1911.103516	3728.383301
1910.066406	3522.811523
1909.029297	3611.429443
1907.992188	3485.489258
1906.955078	3588.543945
1905.917969	3592.769287
1904.878906	3734.319824
1903.841797	3632.530518
1902.802734	3718.633301
1901.765625	3737.282227
1900.726563	3758.332520
1899.687500	3666.235107
1898.650391	3706.544678
1897.611328	3626.518311
1896.572266	3683.663086
1895.533203	3584.421631
1894.494141	3530.912598
1893.453125	3585.639893
1892.414063	3534.552734
1891.375000	3466.653809
1890.333984	3588.666504
1889.292969	3532.797363
1888.253906	3611.507080
1887.212891	3632.531250
1886.171875	3641.538086
1885.130859	3691.370117
1884.089844	3585.102783
1883.048828	3630.125732
1882.007813	3562.311035
1880.964844	3655.324219
1879.923828	3637.921143
1878.880859	3654.113525
1877.839844	3547.957275
1876.796875	3643.309326
1875.753906	3553.976318
1874.712891	3639.704834
1873.669922	3725.404541
1872.626953	3552.210449
1871.583984	3637.896240
1870.539063	3531.864746
1869.496094	3540.862549
1868.453125	3616.926025
1867.408203	3561.243652
1866.365234	3522.341064
1865.320313	3548.093018
1864.275391	3537.930176
1863.230469	3597.177246
1862.187500	3524.792969
1861.142578	3610.340332
1860.095703	3664.761230
1859.050781	3508.690430
1858.005859	3508.108887
1856.960938	3691.630859
1855.914063	3554.757324
1854.869141	3578.069824
1853.822266	3462.768066
1852.775391	3481.308838
1851.730469	3459.231201
1850.683594	3477.766357
1849.636719	3403.156250
1848.589844	3648.533691
1847.541016	3392.478271
1846.494141	3470.686768
1845.447266	3510.683350
1844.400391	3512.487549
1843.351563	3499.976074
1842.302734	3501.781250
1841.255859	3451.115234
1840.207031	3514.927734
1839.158203	3321.222656
1838.109375	3492.307617
1837.060547	3360.639648
1836.011719	3479.234131
1834.962891	3330.933350
1833.912109	3420.906250
1832.863281	3391.756592
1831.814453	3465.019287
1830.763672	3381.107178
1829.712891	3323.410400
1828.664063	3344.281494
1827.613281	3274.710449
1826.562500	3350.310547
1825.511719	3430.643799
1824.460938	3411.044922
1823.408203	3415.235596
1822.357422	3314.797119
1821.306641	3414.102539
1820.253906	3368.370850
1819.203125	3455.750488
1818.150391	3457.553467
1817.097656	3402.333252
1816.046875	3373.262207
1814.994141	3365.576904
1813.941406	3270.028564
1812.888672	3378.706055
1811.833984	3297.430664
1810.781250	3346.728271
1809.728516	3360.411865
1808.673828	3279.179443
1807.621094	3406.743896
1806.566406	3486.826172
1805.511719	3407.984619
1804.458984	3359.994873
1803.404297	3271.717041
1802.349609	3344.656738
1801.294922	3429.422119
1800.238281	3300.892822
1799.183594	3513.575928
1798.128906	3406.394775
1797.072266	3559.778320
1796.017578	3419.471924
1794.960938	3480.463135
1793.906250	3494.088867
1792.849609	3318.359863
1791.792969	3405.368652
1790.736328	3362.213379
1789.679688	3520.156738
1788.623047	3476.996582
1787.564453	3455.134766
1786.507813	3445.102783
1785.451172	3411.432861
1784.392578	3486.505615
1783.335938	3474.109619
1782.277344	3520.791504
1781.218750	3432.791992
1780.160156	3460.567627
1779.101563	3526.122314
1778.042969	3473.586182
1776.984375	3598.141113
1775.925781	3597.543213
1774.865234	3488.376221
1773.806641	3372.166016
1772.746094	3444.747559
1771.687500	3411.148682
1770.626953	3384.636963
1769.566406	3483.120361
1768.507813	3411.806152
1767.447266	3448.958252
1766.386719	3514.382813
1765.324219	3520.868652
1764.263672	3503.789551
1763.203125	3585.663330
1762.140625	3450.803955
1761.080078	3537.369141
1760.017578	3525.007568
1758.957031	3538.547363
1757.894531	3392.015381
1756.832031	3549.138428
1755.769531	3565.020508
1754.707031	3493.844971
1753.644531	3396.817139
1752.582031	3537.370605
1751.517578	3379.226318
1750.455078	3515.033691
1749.390625	3502.695068
1748.328125	3511.514160
1747.263672	3482.729980
1746.199219	3442.207031
1745.136719	3486.270020
1744.072266	3473.945801
1743.007813	3553.215576
1741.941406	3526.795898
1740.876953	3483.950928
1739.812500	3422.342041
1738.748047	3475.751221
1737.681641	3451.708008
1736.615234	3552.016602
1735.550781	3438.830811
1734.484375	3546.144043
1733.417969	3503.344971
1732.351563	3430.081055
1731.285156	3483.426025
1730.218750	3562.534668
1729.152344	3545.538086
1728.085938	3469.972412
1727.017578	3577.154541
1725.951172	3562.505859
1724.882813	3618.116699
1723.814453	3535.564453
1722.748047	3588.820068
1721.679688	3480.552490
1720.611328	3510.396484
1719.542969	3549.590088
1718.474609	3511.567383
1717.404297	3389.349854
1716.335938	3374.753418
1715.267578	3425.634521
1714.197266	3413.374512
1713.128906	3557.733643
1712.058594	3536.106934
1710.988281	3493.456543
1709.917969	3418.110840
1708.847656	3345.126221
1707.777344	3351.575928
1706.707031	3460.772461
1705.636719	3471.870117
1704.566406	3361.573975
1703.494141	3309.665283
1702.423828	3388.458008
1701.351563	3397.226807
1700.281250	3417.656738
1699.208984	3473.067139
1698.136719	3395.529541
1697.064453	3376.310059
1695.992188	3347.771973
1694.919922	3365.861572
1693.847656	3498.141602
1692.773438	3336.778320
1691.701172	3434.072510
1690.626953	3340.325439
1689.554688	3409.638428
1688.480469	3306.611816
1687.406250	3329.343018
1686.332031	3456.818604
1685.257813	3384.091797
1684.183594	3327.678711
1683.109375	3282.917725
1682.035156	3303.306885
1680.960938	3277.171631
1679.884766	3509.175293
1678.810547	3420.236084
1677.734375	3273.208496
1676.658203	3288.933350
1675.583984	3283.737061
1674.507813	3290.160400
1673.431641	3308.197266
1672.355469	3312.291260
1671.279297	3253.679199
1670.201172	3350.661133
1669.125000	3384.926758
1668.048828	3122.062744
1666.970703	3360.589600
1665.892578	3308.979004
1664.816406	3282.906494
1663.738281	3363.548096
1662.660156	3284.130859
1661.582031	3260.394043
1660.503906	3213.479736
1659.425781	3233.806885
1658.347656	3277.304932
1657.267578	3343.961914
1656.189453	3343.404297
1655.109375	3393.811523
1654.031250	3353.869873
1652.951172	3295.414795
1651.871094	3243.925537
1650.791016	3236.439209
1649.710938	3138.683350
1648.630859	3242.302002
1647.550781	3348.200195
1646.470703	3171.815186
1645.388672	3178.225098
1644.308594	3233.200439
1643.226563	3244.222656
1642.146484	3243.681152
1641.064453	3180.727295
1639.982422	3159.395752
1638.900391	3181.976563
1637.818359	3241.516357
1636.736328	3250.215576
1635.654297	3258.911621
1634.570313	3237.584229
1633.488281	3167.777588
1632.406250	3206.492920
1631.322266	3229.038818
1630.238281	3304.654541
1629.156250	3186.428711
1628.072266	3218.194092
1626.988281	3141.540039
1625.904297	3230.956543
1624.820313	3147.408447
1623.734375	3213.739746
1622.650391	3130.222168
1621.566406	3194.229492
1620.480469	3138.393799
1619.396484	3181.643311
1618.310547	3171.897949
1617.224609	3215.126953
1616.138672	3163.930420
1615.052734	3220.960205
1613.966797	3158.269531
1612.880859	3139.329590
1611.794922	3136.503906
1610.708984	3140.581543
1609.621094	3273.480469
1608.535156	3217.733154
1607.447266	3226.394043
1606.359375	3246.548340
1605.273438	3119.568115
1604.185547	3123.643799
1603.097656	3132.314209
1602.009766	3147.874756
1600.921875	2968.156738
1599.832031	3146.822754
1598.744141	3130.220947
1597.654297	3129.697754
1596.566406	3085.554688
1595.476563	3101.106689
1594.388672	3247.470459
1593.298828	3104.659424
1592.208984	3111.023438
1591.119141	3135.736084
1590.029297	3121.450684
1588.939453	3134.687744
1587.847656	3223.580078
1586.757813	3090.084961
1585.666016	3243.130127
1584.576172	3180.715088
1583.484375	3134.359375
1582.392578	3200.268799
1581.302734	3151.634521
1580.210938	3215.229004
1579.119141	3173.477295
1578.025391	3186.682373
1576.933594	3064.837646
1575.841797	3094.075928
1574.750000	3095.846436
1573.656250	3257.759033
1572.562500	3113.109863
1571.470703	3119.450195
1570.376953	3150.940674
1569.283203	3223.572754
1568.189453	3140.743408
1567.095703	3094.508789
1566.001953	3139.692383
1564.908203	3255.686523
1563.812500	3115.798828
1562.718750	3124.413330
1561.623047	3091.920898
1560.529297	3159.898438
1559.433594	3161.652344
1558.337891	3241.007324
1557.242188	3233.618896
1556.146484	3296.963623
1555.050781	3344.318115
1553.955078	3284.455566
1552.859375	3324.954834
1551.761719	3290.196533
1550.666016	3232.652588
1549.568359	3090.792236
1548.472656	3304.497314
1547.375000	3240.143799
1546.277344	3282.887207
1545.179688	3191.224854
1544.082031	3211.187500
1542.984375	3169.662842
1541.886719	3139.535400
1540.787109	3164.048828
1539.689453	3011.032959
1538.589844	3208.500000
1537.492188	3173.835449
1536.392578	3248.371338
1535.292969	3243.278564
1534.193359	3144.953125
1533.095703	3244.465820
1531.994141	3159.812500
1530.894531	3077.459961
1529.794922	3161.026367
1528.695313	3103.694336
1527.593750	3157.695801
1526.494141	3116.282715
1525.392578	3127.115479
1524.291016	3078.909180
1523.189453	3180.552490
1522.089844	3209.527344
1520.988281	3181.756348
1519.884766	3163.070557
1518.783203	3185.227539
1517.681641	3127.986084
1516.580078	3200.035400
1515.476563	3122.402832
1514.373047	3137.749756
1513.271484	3232.428467
1512.167969	3256.817139
1511.064453	3147.502441
1509.960938	3217.209717
1508.857422	3169.099854
1507.753906	3093.827637
1506.650391	3084.250977
1505.544922	3095.054443
1504.441406	3171.502930
1503.335938	3121.177246
1502.232422	3082.183105
1501.126953	3160.857666
1500.021484	3060.789795
1498.916016	3157.535889
1497.810547	3218.065918
1496.705078	3086.383301
1495.599609	3117.515625
1494.494141	3107.951416
1493.386719	3082.570801
1492.281250	3122.726074
1491.173828	2975.354980
1490.068359	3148.784424
1488.960938	2931.446777
1487.853516	2982.890137
1486.746094	3018.512695
1485.638672	2966.088623
1484.531250	3071.666016
1483.423828	2983.145752
1482.314453	2894.655029
1481.207031	2928.006104
1480.097656	2990.666016
1478.990234	2996.929443
1477.880859	3030.246338
1476.771484	2993.669434
1475.662109	3074.307129
1474.552734	2972.383057
1473.443359	2958.365479
1472.333984	2901.550049
1471.224609	2930.343994
1470.113281	3022.184326
1469.003906	2931.612061
1467.892578	2982.898682
1466.783203	3067.930908
1465.671875	3071.916748
1464.560547	2983.646973
1463.449219	2956.149170
1462.337891	3110.858398
1461.226563	3063.107666
1460.115234	3141.294434
1459.001953	3046.341553
1457.890625	3095.282715
1456.777344	3123.979980
1455.666016	3136.937988
1454.552734	3015.088623
1453.439453	3010.089600
1452.326172	3025.305908
1451.212891	3018.061035
1450.099609	2959.178711
1448.986328	3109.085205
1447.873047	3045.718506
1446.757813	3069.891602
1445.644531	2966.166016
1444.529297	3055.400391
1443.414063	3117.689453
1442.300781	3005.037598
1441.185547	3024.712402
1440.070313	2959.191650
1438.955078	3061.800537
1437.839844	3050.080566
1436.722656	2989.069824
1435.607422	2968.404785
1434.492188	2974.625732
1433.375000	3130.894531
1432.257813	3020.648682
1431.142578	2970.887451
1430.025391	3012.918213
1428.908203	2972.126953
1427.791016	2951.488281
1426.673828	2953.229492
1425.556641	2968.391602
1424.437500	3021.569580
1423.320313	2909.253418
1422.201172	3009.374756
1421.083984	2952.983643
1419.964844	2994.952881
1418.845703	2983.275879
1417.726563	2935.854248
1416.607422	2939.828369
1415.488281	2905.831055
1414.369141	2929.907227
1413.250000	2989.699707
1412.128906	2955.710938
1411.009766	2946.285645
1409.888672	2889.998535
1408.769531	3030.083496
1407.648438	2947.030273
1406.527344	2957.687012
1405.406250	2928.197510
1404.285156	2921.015625
1403.164063	2924.983154
1402.042969	3006.965332
1400.919922	2966.343506
1399.798828	2849.973877
1398.675781	2934.154785
1397.554688	2842.332275
1396.431641	2937.621826
1395.308594	2930.447021
1394.185547	2949.991699
1393.062500	2853.775879
1391.939453	2804.331055
1390.816406	2901.771729
1389.693359	2910.182861
1388.568359	2989.776367
1387.445313	2866.944336
1386.320313	2877.580566
1385.197266	2881.543213
1384.072266	2787.690430
1382.947266	2927.249023
1381.822266	2973.424316
1380.697266	2910.710205
1379.572266	2821.358398
1378.445313	2925.278320
1377.320313	2862.603516
1376.195313	2942.056641
1375.068359	2977.082031
1373.941406	2845.620117
1372.816406	2987.176025
1371.689453	2844.661621
1370.562500	2899.646484
1369.435547	2903.594482
1368.308594	2836.571289
1367.179688	2860.485352
1366.052734	2864.437500
1364.923828	2881.688477
1363.796875	2929.961914
1362.667969	2944.979980
1361.541016	2920.112549
1360.412109	2904.114258
1359.283203	2865.973145
1358.154297	2892.063721
1357.025391	2931.429688
1355.894531	2738.343994
1354.765625	2837.482178
1353.636719	2859.133545
1352.505859	2960.430420
1351.376953	2924.536133
1350.246094	2966.068115
1349.115234	2939.030762
1347.984375	2931.902100
1346.853516	2977.833008
1345.722656	2930.913818
1344.591797	2934.839844
1343.460938	2912.249023
1342.328125	2891.875244
1341.197266	2981.950684
1340.064453	2948.320801
1338.933594	3062.645264
1337.800781	2971.611816
1336.667969	2827.632080
1335.535156	2994.886719
1334.402344	2864.191162
1333.269531	2916.657959
1332.134766	2878.666260
1331.001953	2942.140381
1329.869141	2987.952148
1328.734375	2983.038574
1327.599609	2856.885498
1326.466797	2957.788330
1325.332031	2915.420166
1324.197266	2908.318604
1323.062500	2879.190186
1321.927734	2938.172852
1320.791016	2858.399414
1319.656250	2879.935059
1318.519531	2872.844971
1317.384766	2801.927002
1316.248047	2904.885742
1315.113281	2880.192383
1313.976563	2842.307617
1312.839844	2855.025146
1311.703125	2894.128906
1310.566406	2869.453369
1309.427734	2910.739502
1308.291016	2855.296631
1307.154297	2870.198486
1306.015625	2834.556885
1304.878906	2825.290527
1303.740234	2851.172607
1302.601563	2925.362793
1301.462891	2905.106445
1300.324219	2827.774170
1299.185547	2853.638184
1298.046875	2831.208984
1296.906250	2852.674561
1295.767578	2803.925049
1294.626953	2812.226074
1293.488281	2748.146973
1292.347656	2885.834473
1291.207031	2837.111816
1290.066406	2799.366211
1288.925781	2796.701660
1287.785156	2737.061523
1286.644531	2784.802002
1285.503906	2790.903564
1284.361328	2775.100098
1283.220703	2807.480225
1282.078125	2787.300049
1280.937500	2705.829346
1279.794922	2768.847656
1278.652344	2753.060791
1277.509766	2785.416748
1276.367188	2839.638672
1275.224609	2808.536377
1274.080078	2784.005127
1272.937500	2759.482178
1271.794922	2765.574463
1270.650391	2771.664795
1269.505859	2782.123779
1268.363281	2731.395996
1267.218750	2848.910645
1266.074219	2782.897705
1264.929688	2756.219238
1263.783203	2773.222412
1262.638672	2750.920898
1261.494141	2829.040283
1260.347656	2747.808350
1259.203125	2738.615234
1258.056641	2801.424316
1256.910156	2818.402100
1255.763672	2826.649658
1254.617188	2911.218506
1253.470703	2784.267822
1252.324219	2740.197998
1251.177734	2794.224121
1250.031250	2846.052734
1248.882813	2714.840576
1247.734375	2866.875000
1246.587891	2814.115479
1245.439453	2855.016357
1244.291016	2841.469238
1243.142578	2832.280762
1241.994141	2840.508057
1240.845703	2894.434326
1239.697266	2915.703613
1238.546875	2902.156982
1237.398438	2886.439941
1236.248047	2872.902832
1235.099609	2965.916992
1233.949219	2856.712158
1232.798828	2984.476563
1231.648438	2964.411621
1230.498047	3079.076416
1229.347656	2922.129150
1228.197266	2932.495605
1227.044922	3073.169678
1225.894531	3000.990723
1224.742188	2989.626953
1223.591797	3043.389648
1222.439453	2921.333252
1221.287109	3022.829346
1220.134766	3087.406982
1218.982422	2922.019043
1217.830078	3101.543945
1216.677734	3077.164795
1215.523438	3070.139404
1214.371094	3141.157227
1213.216797	3073.434570
1212.064453	3062.078857
1210.910156	3148.228516
1209.755859	3219.184814
1208.601563	3015.037842
1207.447266	3161.788574
1206.292969	3117.948242
1205.136719	3175.871582
1203.982422	3244.597900
1202.828125	3287.331299
1201.671875	3260.809082
1200.515625	3262.420166
1199.361328	3309.454346
1198.205078	3276.453369
1197.048828	3312.657471
1195.892578	3346.687256
1194.736328	3352.604980
1193.578125	3367.165283
1192.421875	3349.308105
1191.265625	3324.975098
1190.107422	3371.934082
1188.949219	3321.688477
1187.792969	3539.222900
1186.634766	3460.898682
1185.476563	3546.657959
1184.318359	3461.883789
1183.160156	3491.507568
1182.000000	3495.230957
1180.841797	3406.193848
1179.681641	3481.104980
1178.523438	3605.589111
1177.363281	3598.509521
1176.203125	3612.989502
1175.044922	3713.678467
1173.884766	3637.624023
1172.724609	3733.965332
1171.562500	3608.385254
1170.402344	3609.927002
1169.242188	3809.593018
1168.080078	3722.820313
1166.919922	3763.092041
1165.757813	3646.222412
1164.595703	3744.599121
1163.433594	3694.474854
1162.271484	3842.290283
1161.109375	3931.979492
1159.947266	4004.433105
1158.785156	3876.889404
1157.621094	3977.275879
1156.458984	3980.900146
1155.294922	3993.119385
1154.132813	4020.375977
1152.968750	4120.669434
1151.804688	4135.006836
1150.640625	4151.486328
1149.476563	4180.844727
1148.312500	4182.281738
1147.146484	4291.048340
1145.982422	4255.980469
1144.818359	4145.818848
1143.652344	4490.541016
1142.486328	4373.941406
1141.320313	4358.185547
1140.156250	4415.344727
1138.990234	4489.636719
1137.822266	4585.340332
1136.656250	4638.144531
1135.490234	4547.353027
1134.324219	4523.012207
1133.156250	4697.906738
1131.988281	4611.434570
1130.822266	4659.905762
1129.654297	4740.477539
1128.486328	4842.429688
1127.318359	4965.750977
1126.150391	4883.585938
1124.982422	5047.511719
1123.812500	5172.874023
1122.644531	5146.328125
1121.474609	5213.888672
1120.306641	5174.514648
1119.136719	5284.804688
1117.966797	5256.119141
1116.796875	5349.260254
1115.626953	5403.907715
1114.457031	5554.674805
1113.287109	5579.363281
1112.115234	5488.716309
1110.945313	5656.474121
1109.773438	5738.776367
1108.603516	5857.338379
1107.431641	5796.584473
1106.259766	5955.639648
1105.087891	5901.289551
1103.916016	6024.008789
1102.744141	6101.897949
1101.572266	6297.043457
1100.398438	6306.632813
1099.226563	6486.754883
1098.052734	6647.633789
1096.880859	6529.299805
1095.707031	6647.503906
1094.533203	6938.217285
1093.359375	6981.765137
1092.185547	7001.873047
1091.011719	6941.065918
1089.837891	7101.673828
1088.662109	7221.787109
1087.488281	7271.632324
1086.312500	7549.125977
1085.138672	7443.601563
1083.962891	7646.526367
1082.787109	7689.884766
1081.611328	7769.374512
1080.435547	7912.614258
1079.259766	8013.293945
1078.082031	8062.935059
1076.906250	8044.564453
1075.728516	8151.542969
1074.552734	8300.966797
1073.375000	8399.369141
1072.197266	8429.791016
1071.019531	8521.768555
1069.841797	8569.138672
1068.664063	8743.831055
1067.486328	8680.806641
1066.308594	8738.732422
1065.128906	9002.395508
1063.951172	8814.229492
1062.771484	8954.800781
1061.591797	9086.843750
1060.412109	9227.321289
1059.232422	9147.332031
1058.052734	9433.963867
1056.873047	9303.118164
1055.693359	9312.125977
1054.513672	9427.027344
1053.332031	9224.250977
1052.152344	9593.196289
1050.970703	9502.653320
1049.789063	9511.617188
1048.607422	9687.753906
1047.425781	9576.083008
1046.244141	9671.761719
1045.062500	9672.229492
1043.880859	9841.873047
1042.697266	9778.879883
1041.515625	9639.804688
1040.332031	9570.526367
1039.150391	9729.503906
1037.966797	9732.072266
1036.783203	9542.396484
1035.599609	9675.951172
1034.416016	9701.755859
1033.232422	9569.191406
1032.046875	9649.893555
1030.863281	9466.724609
1029.677734	9623.390625
1028.494141	9731.471680
1027.308594	9491.419922
1026.123047	9445.506836
1024.937500	9490.292969
1023.751953	9438.069336
1022.566406	9493.381836
1021.380859	9506.518555
1020.193359	9370.016602
1019.007813	9248.311523
1017.820313	9453.200195
1016.634766	9291.499023
1015.447266	9319.400391
1014.259766	9176.727539
1013.072266	9259.376953
1011.884766	9127.287109
1010.697266	9108.893555
1009.509766	9058.941406
1008.320313	8985.863281
1007.132813	8927.534180
1005.943359	8749.341797
1004.753906	8726.820313
1003.566406	8796.816406
1002.376953	8812.132813
1001.187500	8606.756836
999.998047	8552.752930
998.806641	8374.805664
997.617188	8350.268555
996.427734	8458.061523
995.236328	8446.118164
994.046875	8259.910156
992.855469	8220.713867
991.664063	8229.804688
990.472656	8224.203125
989.281250	8063.336914
988.089844	7954.971191
986.898438	8001.854980
985.705078	7901.924805
984.513672	7919.446777
983.320313	7748.286621
982.126953	7686.178223
980.935547	7670.196289
979.742188	7603.931641
978.548828	7738.805664
977.355469	7597.145508
976.162109	7386.423340
974.966797	7353.753418
973.773438	7511.605957
972.578125	7424.502930
971.384766	7362.542969
970.189453	7323.621094
968.994141	7326.554199
967.798828	7201.889648
966.603516	7140.008789
965.408203	7147.153320
964.212891	7058.124023
963.015625	7061.098633
961.820313	7059.892090
960.623047	7008.535645
959.427734	6982.267090
958.230469	7154.451660
957.033203	6898.427734
955.835938	6924.395508
954.638672	6804.206055
953.441406	6834.354980
952.244141	6745.528809
951.044922	6733.941895
949.847656	6853.801758
948.648438	6773.360840
947.449219	6692.946777
946.251953	6839.860840
945.052734	6582.240234
943.853516	6531.084473
942.654297	6598.748047
941.453125	6608.039551
940.253906	6552.737305
939.054688	6549.533691
937.853516	6598.401367
936.652344	6520.221680
935.453125	6492.039063
934.251953	6264.016602
933.050781	6335.794434
931.849609	6282.684570
930.646484	6443.903809
929.445313	6226.446777
928.244141	6302.340820
927.041016	6161.927734
925.839844	6102.654297
924.636719	6001.822266
923.433594	5969.616699
922.230469	6001.846680
921.027344	5907.316895
919.824219	5931.235840
918.621094	5919.834961
917.417969	5927.128906
916.212891	5762.077148
915.009766	5798.460449
913.804688	5724.817871
912.599609	5520.452637
911.394531	5577.607910
910.189453	5553.832031
908.984375	5503.098145
907.779297	5506.304199
906.574219	5399.608887
905.367188	5170.629395
904.162109	5358.375488
902.955078	5189.583984
901.750000	5238.427246
900.542969	5158.801270
899.335938	5075.060059
898.128906	5084.546387
896.921875	4922.157715
895.712891	4952.370117
894.505859	4986.712891
893.298828	4890.653320
892.089844	4825.666504
890.880859	4804.150391
889.673828	4745.405762
888.464844	4703.227539
887.255859	4721.033203
886.046875	4548.617188
884.835938	4694.608887
883.626953	4592.529297
882.417969	4484.284668
881.207031	4512.442383
879.998047	4513.734863
878.787109	4488.176270
877.576172	4437.845215
876.365234	4447.408203
875.154297	4446.645996
873.943359	4377.771484
872.732422	4271.774414
871.519531	4396.903809
870.308594	4336.324219
869.095703	4246.889160
867.884766	4211.103027
866.671875	4259.866211
865.458984	4250.889648
864.246094	4151.224121
863.033203	4142.269043
861.820313	4207.493652
860.605469	4046.082764
859.392578	4065.986572
858.177734	4100.299316
856.964844	4079.005371
855.750000	4092.716797
854.535156	3867.653809
853.320313	4050.152832
852.105469	4121.475586
850.890625	4110.482422
849.675781	3834.146240
848.458984	3940.431396
847.244141	3871.899414
846.027344	3986.364746
844.810547	4051.457764
843.595703	3892.513672
842.378906	3943.216309
841.162109	3798.726318
839.943359	3972.674805
838.726563	3996.638428
837.509766	3915.869141
836.291016	3876.188721
835.074219	3881.681396
833.855469	4084.198975
832.636719	3882.400879
831.417969	4025.350342
830.199219	3891.324463
828.980469	4110.108398
827.761719	3972.012451
826.542969	4102.546387
825.322266	4120.291016
824.103516	4090.889893
822.882813	4016.416504
821.664063	4050.556885
820.443359	4223.982910
819.222656	4155.668945
818.001953	4103.760254
816.779297	4272.992676
815.558594	4198.563477
814.337891	4144.627441
813.115234	4225.770508
811.894531	4327.345703
810.671875	4439.114746
809.449219	4399.490723
808.226563	4474.398926
807.003906	4379.577637
805.781250	4427.887207
804.558594	4453.697266
803.333984	4491.759766
802.111328	4397.000000
800.886719	4559.673340
799.664063	4440.423828
798.439453	4480.503906
797.214844	4663.496582
795.990234	4609.617188
794.765625	4535.344727
793.541016	4514.157715
792.314453	4543.987793
791.089844	4606.448242
789.863281	4640.331055
788.638672	4623.218262
787.412109	4667.281738
786.185547	4623.667480
784.958984	4541.339844
783.732422	4772.885742
782.505859	4702.786621
781.279297	4624.562012
780.050781	4599.323730
778.824219	4730.908691
777.595703	4634.393066
776.367188	4666.169922
775.140625	4748.822266
773.912109	4800.919434
772.683594	4641.378906
771.453125	4652.787109
770.224609	4745.555176
768.996094	4645.084961
767.765625	4774.423340
766.537109	4926.080566
765.306641	4795.140137
764.076172	4763.829590
762.845703	4767.073730
761.615234	4817.044434
760.384766	4749.182129
759.154297	4788.983887
757.921875	4684.598633
756.691406	4888.847656
755.458984	4853.498047
754.228516	4826.278320
752.996094	4675.286133
751.763672	4857.078125
750.531250	4915.068359
749.298828	4920.306641
748.066406	4686.261719
746.832031	4902.392578
745.599609	4867.087402
744.365234	5004.068848
743.132813	4851.226074
741.898438	4945.615234
740.664063	5015.663574
739.429688	4996.571289
738.195313	5115.186523
736.960938	5128.478027
735.724609	5062.816406
734.490234	5148.974609
733.255859	5077.260742
732.019531	5213.968262
730.783203	5115.969727
729.546875	5080.704590
728.310547	5195.095703
727.074219	5117.369141
725.837891	5067.970703
724.601563	5172.198242
723.363281	5229.911133
722.126953	5245.173340
720.888672	5341.235840
719.650391	5352.433594
718.414063	5464.599609
717.175781	5568.650391
715.937500	5343.609863
714.697266	5441.589844
713.458984	5470.922363
712.220703	5548.668945
710.980469	5551.747070
709.742188	5516.500488
708.501953	5634.531738
707.261719	5728.326660
706.021484	5634.604492
704.781250	5621.539063
703.541016	5715.286621
702.300781	5615.570313
701.058594	5687.125977
699.818359	5792.898438
698.576172	5894.606934
697.335938	5929.833008
696.093750	6015.376953
694.851563	6034.467285
693.609375	6043.488281
692.367188	6122.931152
691.123047	6067.556152
689.880859	6150.989746
688.638672	6067.473145
687.394531	6142.834473
686.150391	6274.460938
684.908203	6271.367676
683.664063	6366.750977
682.419922	6271.212402
681.175781	6324.373047
679.929688	6447.818359
678.685547	6500.930176
677.439453	6459.647949
676.195313	6621.150391
674.949219	6718.363770
673.703125	6717.204102
672.458984	6581.602539
671.212891	6684.790527
669.964844	6715.730469
668.718750	6764.709473
667.472656	6976.092285
666.224609	6994.935547
664.978516	6913.547363
663.730469	7070.681641
662.482422	6969.269531
661.234375	7088.273926
659.986328	7165.170898
658.738281	7097.841309
657.490234	7172.707520
656.242188	7219.518066
654.992188	7260.307129
653.744141	7259.052734
652.494141	7287.813965
651.244141	7310.562988
649.994141	7421.319336
648.744141	7358.036133
647.494141	7298.774414
646.244141	7569.419922
644.994141	7646.071289
643.742188	7394.921387
642.492188	7579.482910
641.240234	7538.213867
639.988281	7694.720215
638.738281	7695.387207
637.486328	7718.019531
636.232422	7680.747070
634.980469	7727.327637
633.728516	7815.805664
632.474609	7750.597168
631.222656	7843.029785
629.968750	8073.073730
628.714844	7963.975098
627.462891	7858.902344
626.208984	7965.208008
624.953125	8163.174805
623.699219	7920.597168
622.445313	8106.546387
621.191406	8162.923828
619.935547	8137.606445
618.679688	8118.272949
617.425781	8152.712891
616.169922	8195.105469
614.914063	8265.351563
613.658203	8299.748047
612.400391	8497.311523
611.144531	8392.378906
609.888672	8315.332031
608.630859	8484.944336
607.373047	8423.816406
606.117188	8662.940430
604.859375	8742.946289
603.601563	8737.457031
602.343750	8924.733398
601.083984	8853.646484
599.826172	8901.777344
598.568359	9090.913086
597.308594	9158.843750
596.048828	9139.387695
594.791016	9169.568359
593.531250	9406.161133
592.271484	9354.919922
591.011719	9341.394531
589.750000	9597.671875
588.490234	9530.554688
587.230469	9677.637695
585.968750	9491.562500
584.707031	9862.616211
583.447266	9722.161133
582.185547	9676.877930
580.923828	9899.100586
579.662109	9927.100586
578.398438	9990.744141
577.136719	9975.150391
575.875000	10082.323242
574.611328	10147.885742
573.347656	10114.457031
572.085938	10201.758789
570.822266	10146.566406
569.558594	10338.682617
568.292969	10297.331055
567.029297	10343.009766
565.765625	10353.080078
564.500000	10331.515625
563.236328	10491.805664
561.970703	10557.178711
560.705078	10573.131836
559.439453	10581.175781
558.173828	10711.681641
556.908203	10585.406250
555.642578	10781.024414
554.376953	10609.373047
553.109375	10850.318359
551.843750	10923.429688
550.576172	10972.836914
549.308594	10917.666992
548.041016	11322.106445
546.773438	11120.955078
545.505859	11205.785156
544.238281	11312.271484
542.968750	11523.190430
541.701172	11708.415039
540.431641	11448.254883
539.164063	11698.441406
537.894531	11678.682617
536.625000	11977.976563
535.355469	11999.526367
534.085938	12003.349609
532.814453	12367.386719
531.544922	12325.878906
530.273438	12416.220703
529.003906	12480.956055
527.732422	12533.865234
526.460938	12692.957031
525.189453	12887.386719
523.917969	12910.707031
522.646484	12943.847656
521.375000	13124.374023
520.101563	13220.342773
518.830078	13308.419922
517.556641	13372.894531
516.283203	13380.391602
515.011719	13431.084961
513.738281	13572.070313
512.462891	13677.673828
511.189453	13785.202148
509.916016	13776.920898
508.642578	13964.832031
507.367188	13876.096680
506.091797	14085.497070
504.818359	13973.240234
503.542969	13900.232422
502.267578	14046.791992
500.992188	14036.511719
499.714844	14065.424805
498.439453	14100.204102
497.164063	14074.247070
495.886719	14112.928711
494.609375	14071.312500
493.333984	14111.938477
492.056641	14039.015625
490.779297	13870.218750
489.501953	14175.024414
488.222656	14049.302734
486.945313	13986.219727
485.666016	13887.955078
484.388672	13713.461914
483.109375	13650.468750
481.830078	13712.601563
480.550781	13696.536133
479.271484	13713.694336
477.992188	13873.468750
476.712891	13716.737305
475.433594	13638.182617
474.152344	13594.802734
472.871094	13582.675781
471.591797	13334.355469
470.310547	13185.658203
469.029297	13319.958984
467.748047	13264.963867
466.466797	12944.695313
465.183594	13018.505859
463.902344	12918.740234
462.619141	13150.451172
461.337891	12838.219727
460.054688	12744.383789
458.771484	12800.624023
457.488281	12812.034180
456.205078	12665.654297
454.921875	12667.344727
453.638672	12501.567383
452.353516	12538.330078
451.070313	12384.311523
449.785156	12469.737305
448.500000	12362.485352
447.214844	12327.257813
445.929688	12280.370117
444.644531	12326.853516
443.359375	12161.362305
442.072266	12153.412109
440.787109	12196.004883
439.500000	12106.419922
438.214844	12123.743164
436.927734	11865.170898
435.640625	11981.598633
434.353516	11880.458984
433.066406	11847.319336
431.777344	11851.079102
430.490234	11691.777344
429.203125	11759.611328
427.914063	11992.363281
426.625000	11753.572266
425.335938	11811.659180
424.046875	11732.020508
422.757813	11574.842773
421.468750	11673.643555
420.179688	11826.687500
418.888672	11537.780273
417.599609	11609.405273
416.308594	11723.628906
415.017578	11483.318359
413.728516	11518.114258
412.437500	11421.219727
411.144531	11454.078125
409.853516	11630.172852
408.562500	11411.375000
407.269531	11219.744141
405.978516	11155.875000
404.685547	11210.027344
403.392578	11302.842773
402.099609	11142.302734
400.806641	11107.491211
399.513672	11097.821289
398.220703	11090.086914
396.927734	11165.448242
395.632813	10987.681641
394.337891	10999.286133
393.044922	11146.083984
391.750000	10958.757813
390.455078	11010.905273
389.160156	10993.540039
387.865234	10941.440430
386.568359	10962.687500
385.273438	10704.166992
383.976563	10883.627930
382.681641	10802.651367
381.384766	10769.911133
380.087891	10760.319336
378.791016	10771.934570
377.494141	10825.946289
376.197266	10879.939453
374.898438	10783.632813
373.601563	10612.231445
372.302734	10516.003906
371.005859	10666.294922
369.707031	10660.581055
368.408203	10704.918945
367.109375	10562.548828
365.810547	10533.763672
364.509766	10691.614258
363.210938	10716.677734
361.910156	10628.255859
360.611328	10518.712891
359.310547	10572.630859
358.009766	10776.470703
356.708984	10616.986328
355.408203	10651.641602
354.107422	10659.386719
352.804688	10488.479492
351.503906	10724.803711
350.201172	10542.421875
348.900391	10377.382813
347.597656	10504.183594
346.294922	10358.400391
344.992188	10370.022461
343.689453	10458.384766
342.386719	10443.127930
341.082031	10508.429688
339.779297	10441.393555
338.474609	10311.110352
337.169922	10393.653320
335.867188	10403.334961
334.562500	10242.464844
333.257813	10221.514648
331.951172	10300.181641
330.646484	10413.295898
329.341797	10258.280273
328.035156	10233.510742
326.728516	10206.834961
325.423828	10168.684570
324.117188	10059.744141
322.810547	9987.193359
321.503906	10167.173828
320.195313	9838.342773
318.888672	9976.214844
317.580078	9777.541992
316.273438	9850.382813
314.964844	9711.048828
313.656250	9925.282227
312.347656	9688.543945
311.039063	9811.013672
309.730469	9904.791992
308.421875	9738.833984
307.111328	9782.951172
305.802734	9626.617188
304.492188	9632.565430
303.181641	9686.217773
301.871094	9652.087891
300.560547	9753.406250
299.250000	9623.913086
297.939453	9643.203125
296.628906	9689.178711
295.316406	9946.729492
294.005859	9674.349609
292.693359	9745.066406
291.380859	9608.087891
290.068359	9791.179688
288.755859	9602.817383
287.443359	9603.039063
286.130859	9647.049805
284.816406	9759.573242
283.503906	9738.831055
282.189453	9661.008789
280.875000	9712.586914
279.560547	9591.044922
278.246094	9608.382813
276.931641	9658.041016
275.617188	9817.952148
274.300781	9789.619141
272.986328	9692.875000
271.669922	9575.261719
270.355469	9507.085938
269.039063	9590.899414
267.722656	9536.040039
266.406250	9610.323242
265.089844	9511.811523
263.771484	9639.223633
262.455078	9478.109375
261.136719	9546.657227
259.820313	9434.943359
258.501953	9397.247070
257.183594	9406.978516
255.865234	9509.621094
254.546875	9642.562500
253.228516	9521.449219
251.908203	9578.531250
250.589844	9618.539063
249.269531	9626.324219
247.949219	9380.278320
246.628906	9581.280273
245.310547	9403.496094
243.988281	9653.647461
242.667969	9483.484375
241.347656	9580.233398
240.025391	9553.953125
238.705078	9739.575195
237.382813	9679.226563
236.060547	9860.979492
234.738281	9598.300781
233.416016	9641.990234
232.093750	9581.699219
230.771484	9702.862305
229.449219	9589.672852
228.125000	9727.793945
226.800781	9675.083984
225.478516	9601.619141
224.154297	9630.144531
222.830078	9636.004883
221.505859	9638.087891
220.181641	9709.998047
218.855469	9625.267578
217.531250	9697.154297
216.205078	9680.360352
214.878906	9605.107422
213.554688	9580.792969
212.228516	9792.146484
210.902344	9554.806641
209.574219	9641.705078
208.248047	9656.968750
206.921875	9611.941406
205.593750	9608.368164
204.265625	9601.029297
202.939453	9512.725586
201.611328	9648.485352
200.283203	9722.082031
198.955078	9633.801758
197.625000	9694.202148
196.296875	9621.008789
194.968750	9803.652344
193.638672	9811.332031
192.308594	9824.649414
190.978516	9896.241211
189.648438	9932.093750
188.318359	9994.244141
186.988281	9844.045898
185.658203	10039.574219
184.326172	9942.013672
182.996094	10381.594727
181.664063	10163.836914
180.332031	10137.643555
179.000000	10179.031250
177.667969	10120.939453
176.335938	10023.464844
175.003906	10188.666992
173.669922	10312.545898
172.337891	10263.846680
171.003906	10175.789063
169.669922	10250.861328
168.335938	10076.614258
167.001953	10217.268555
165.667969	10294.166016
164.333984	10187.444336
163.000000	10206.254883
161.664063	10202.584961
160.328125	10283.173828
158.994141	10221.458008
157.658203	10324.474609
156.322266	10255.286133
154.986328	10186.122070
153.650391	10388.239258
152.312500	10326.556641
150.976563	10435.073242
149.638672	10321.049805
148.302734	10093.031250
146.964844	10481.894531
145.626953	10457.623047
144.289063	10493.149414
142.949219	10607.124023
141.611328	10765.883789
140.273438	10732.240234
138.933594	10808.768555
137.595703	10795.663086
136.255859	10859.086914
134.916016	10931.818359
133.576172	11094.083008
132.236328	11004.450195
130.894531	11174.104492
129.554688	11175.864258
128.212891	11069.483398
126.873047	11181.246094
125.531250	11175.546875
124.189453	11235.072266
122.847656	11492.073242
121.505859	11273.956055
120.164063	11266.380859
118.820313	11176.871094
117.478516	11249.375000
116.134766	11383.283203
114.792969	11398.026367
113.449219	11396.015625
112.105469	11191.206055
110.761719	11232.017578
109.417969	11440.204102
108.072266	11639.018555
106.728516	11549.581055
105.382813	11512.224609
104.039063	11526.920898
102.693359	11463.564453
101.347656	11342.633789
100.001953	11595.123047
98.654297	11528.073242
97.308594	11810.150391
95.962891	11614.978516
94.615234	11776.281250
93.269531	12091.572266
91.921875	12165.518555
90.574219	12089.158203
89.226563	11897.817383
87.878906	11758.472656
86.529297	11993.750000
85.181641	12082.477539
83.832031	12122.978516
82.484375	12194.971680
81.134766	12087.196289
79.785156	11907.204102
78.435547	11895.838867
77.085938	11930.778320
75.736328	12084.214844
74.384766	12072.823242
73.035156	12017.009766
71.683594	11848.322266
70.332031	11713.000977
68.982422	11485.222656
67.630859	11636.722656
66.279297	11407.188477
64.925781	11229.508789
63.574219	11125.842773
62.220703	11038.848633
60.869141	11105.278320
59.515625	10986.905273
58.162109	10670.896484
56.808594	9900.604492
55.455078	9553.502930
54.101563	9217.602539
52.748047	8950.126953
51.392578	8782.420898
