#Wave		#Intensity
4002.114258	4692.709473
4001.416016	4689.130371
4000.717773	4606.061523
4000.018555	4651.839844
3999.320313	4740.536133
3998.621094	4836.358398
3997.921875	4803.391602
3997.223633	4859.836426
3996.524414	4708.885742
3995.824219	4708.128906
3995.125000	4739.541016
3994.425781	4706.615723
3993.725586	4884.518066
3993.026367	4640.796875
3992.326172	4736.495605
3991.625977	4864.306152
3990.925781	4667.126953
3990.225586	4780.626465
3989.525391	4722.742676
3988.825195	4782.659180
3988.125000	4846.125000
3987.423828	4663.378418
3986.723633	4630.521973
3986.022461	4640.478516
3985.321289	4664.696777
3984.620117	4681.775879
3983.918945	4663.198242
3983.217773	4683.836426
3982.516602	4790.003418
3981.814453	4586.119141
3981.113281	4813.404297
3980.411133	4830.442383
3979.708984	4900.900391
3979.006836	4764.790039
3978.304688	4650.086426
3977.602539	4773.938965
3976.900391	4620.117188
3976.198242	4708.346191
3975.495117	4785.871582
3974.792969	4777.987305
3974.089844	4698.962891
3973.386719	4755.113281
3972.683594	4672.561523
3971.980469	4821.138184
3971.277344	4674.615234
3970.574219	4808.926758
3969.870117	4722.865234
3969.166992	4757.638184
3968.462891	4781.741699
3967.759766	4773.869629
3967.055664	4872.542480
3966.351563	4676.463379
3965.647461	4718.315430
3964.943359	4728.206543
3964.238281	4759.389160
3963.534180	4730.236328
3962.829102	4658.516602
3962.125000	4530.061035
3961.419922	4798.894531
3960.714844	4723.651855
3960.009766	4758.350098
3959.304688	4679.592773
3958.599609	4827.713379
3957.893555	4717.073730
3957.188477	4765.924316
3956.482422	4669.501465
3955.777344	4845.866699
3955.071289	4696.335449
3954.365234	4631.840332
3953.659180	4786.882813
3952.953125	4598.492676
3952.246094	4601.293457
3951.540039	4476.693848
3950.833008	4805.038574
3950.126953	4836.106445
3949.419922	4640.784668
3948.712891	4774.431152
3948.005859	4614.541992
3947.298828	4638.549316
3946.591797	4772.131348
3945.884766	4796.105469
3945.176758	4788.267578
3944.469727	4812.231445
3943.761719	4691.348633
3943.053711	4789.493652
3942.345703	4767.535645
3941.637695	4533.728027
3940.929688	4582.425293
3940.221680	4786.417969
3939.513672	4732.710938
3938.804688	4640.205566
3938.095703	4731.191406
3937.387695	4592.857910
3936.678711	4704.983398
3935.969727	4594.909180
3935.260742	4604.749023
3934.551758	4730.919922
3933.841797	4610.320313
3933.132813	4581.386719
3932.422852	4718.070801
3931.713867	4646.853027
3931.003906	4709.511230
3930.293945	4765.104980
3929.583984	4577.710449
3928.874023	4862.156250
3928.164063	4569.200195
3927.453125	4642.378906
3926.743164	4712.014648
3926.032227	4630.333008
3925.322266	4629.589844
3924.611328	4720.297852
3923.900391	4568.317871
3923.189453	4550.003418
3922.478516	4791.854004
3921.766602	4594.238770
3921.055664	4674.335938
3920.344727	4712.239258
3919.632813	4585.000000
3918.920898	4784.496582
3918.208984	4650.261719
3917.497070	4846.171387
3916.785156	4659.302246
3916.073242	4784.935547
3915.361328	4654.296875
3914.648438	4646.530762
3913.936523	4649.293945
3913.223633	4676.614258
3912.510742	4696.910156
3911.797852	4541.839355
3911.084961	4572.669922
3910.372070	4663.094238
3909.659180	4732.456543
3908.945313	4609.022949
3908.232422	4804.529785
3907.518555	4533.963379
3906.804688	4554.255371
3906.091797	4767.189941
3905.377930	4678.871094
3904.663086	4776.164551
3903.949219	4621.353027
3903.235352	4701.121582
3902.520508	4703.867188
3901.806641	4612.129395
3901.091797	4677.866211
3900.376953	4600.154785
3899.662109	4707.843750
3898.947266	4574.198730
3898.232422	4692.346680
3897.517578	4695.089844
3896.802734	4407.712402
3896.086914	4592.232422
3895.372070	4626.438477
3894.656250	4660.633301
3893.940430	4722.762207
3893.224609	4550.866699
3892.508789	4700.294434
3891.792969	4720.489258
3891.076172	4817.477539
3890.360352	4687.561035
3889.643555	4648.420898
3888.927734	4622.568848
3888.210938	4596.716797
3887.494141	4570.864746
3886.777344	4545.012695
3886.060547	4519.160645
3885.342773	4668.353027
3884.625977	4810.525391
3883.909180	4753.988281
3883.191406	4770.649414
3882.473633	4703.683594
3881.755859	4678.543457
3881.038086	4844.981445
3880.320313	4729.280273
3879.602539	4617.098633
3878.884766	4706.874512
3878.166016	4497.268066
3877.448242	4656.640137
3876.729492	4697.649902
3876.010742	4811.708984
3875.291992	4640.484863
3874.573242	4542.354492
3873.854492	4715.500977
3873.135742	4843.391602
3872.416016	4745.275879
3871.697266	4518.584961
3870.977539	4743.753418
3870.257813	4610.953125
3869.539063	4770.024414
3868.819336	4654.630371
3868.099609	4636.518555
3867.378906	4753.839355
3866.659180	4718.357422
3865.938477	4835.627441
3865.218750	4741.139648
3864.498047	4802.843750
3863.777344	4656.345703
3863.056641	4572.339355
3862.335938	4588.948730
3861.615234	4730.401855
3860.894531	4792.058105
3860.173828	4829.425293
3859.452148	4776.655273
3858.730469	4671.914551
3858.009766	4598.395020
3857.288086	4608.051270
3856.566406	4680.059082
3855.844727	4817.852051
3855.122070	4733.966797
3854.400391	4660.495117
3853.678711	4818.996094
3852.956055	4638.231934
3852.233398	4575.193359
3851.510742	4664.426270
3850.788086	4805.525879
3850.065430	4676.766602
3849.342773	4682.934082
3848.620117	4754.801758
3847.896484	4629.569824
3847.173828	4573.516113
3846.450195	4596.977539
3845.727539	4703.370605
3845.003906	4678.429199
3844.280273	4563.673340
3843.555664	4635.479004
3842.832031	4565.663574
3842.108398	4799.738281
3841.383789	4643.606445
3840.660156	4684.285156
3839.935547	4666.276855
3839.210938	4831.168457
3838.486328	4581.973633
3837.761719	4753.725098
3837.037109	4704.674316
3836.312500	4600.460938
3835.586914	4754.886230
3834.862305	4647.250977
3834.136719	4722.338867
3833.411133	4835.312988
3832.685547	4734.607910
3831.959961	4747.629883
3831.234375	4846.766113
3830.508789	4684.111816
3829.782227	4614.487305
3829.056641	4562.101074
3828.330078	4795.462402
3827.603516	4677.666016
3826.876953	4673.474121
3826.150391	4617.670898
3825.423828	4665.094727
3824.697266	4712.503906
3823.970703	4753.019043
3823.243164	4827.907715
3822.516602	4641.474609
3821.789063	4668.230957
3821.061523	4832.459961
3820.333984	4598.004395
3819.606445	4648.806152
3818.878906	4665.237793
3818.151367	4527.096680
3817.422852	4660.307617
3816.695313	4745.403320
3815.966797	4689.711426
3815.238281	4678.661621
3814.509766	4468.555176
3813.781250	4605.099609
3813.052734	4618.084961
3812.324219	4641.357422
3811.595703	4668.052246
3810.866211	4650.157227
3810.136719	4735.130859
3809.408203	4628.097168
3808.678711	4582.795410
3807.949219	4527.226563
3807.219727	4694.402832
3806.489258	4806.708984
3805.759766	4655.217285
3805.030273	4623.646973
3804.299805	4742.758789
3803.569336	4690.640625
3802.839844	4628.270020
3802.109375	4685.714355
3801.378906	4575.453125
3800.647461	4584.984375
3799.916992	4724.513672
3799.186523	4805.849121
3798.455078	4579.359863
3797.723633	4595.722656
3796.993164	4622.336914
3796.261719	4693.381348
3795.530273	4795.162598
3794.798828	4722.631836
3794.066406	4680.874512
3793.334961	4625.465332
3792.602539	4696.451660
3791.871094	4545.436523
3791.138672	4630.070313
3790.406250	4564.462891
3789.673828	4584.211914
3788.941406	4713.165527
3788.208984	4664.637695
3787.476563	4660.478027
3786.743164	4680.198242
3786.010742	4720.376465
3785.277344	4723.029785
3784.543945	4694.996094
3783.810547	4615.835449
3783.077148	4546.925781
3782.343750	4672.291016
3781.610352	4552.282715
3780.875977	4738.930176
3780.142578	4680.263184
3779.408203	4652.267090
3778.673828	4808.161133
3777.939453	4834.627441
3777.205078	4827.044434
3776.470703	4611.845215
3775.736328	4747.227539
3775.000977	4705.636719
3774.266602	4599.422363
3773.531250	4761.951660
3772.795898	4665.964844
3772.061523	4770.626465
3771.326172	4749.463379
3770.589844	4639.927246
3769.854492	4703.757813
3769.119141	4584.069824
3768.382813	4692.057617
3767.647461	4613.173828
3766.911133	4880.756836
3766.174805	4832.431641
3765.438477	4729.794922
3764.702148	4691.693359
3763.965820	4765.616211
3763.229492	4792.002441
3762.492188	4879.458496
3761.755859	4759.932617
3761.018555	4677.758301
3760.281250	4897.461914
3759.543945	4805.118652
3758.806641	4739.929199
3758.069336	4752.729004
3757.332031	4779.083008
3756.593750	4700.372559
3755.856445	4726.726074
3755.118164	4810.663086
3754.379883	4762.470703
3753.641602	4792.187988
3752.903320	4774.489258
3752.165039	4858.364258
3751.426758	4806.809570
3750.688477	4775.578125
3749.949219	4832.340820
3749.210938	4814.648926
3748.471680	4715.773438
3747.732422	4972.077148
3746.993164	4778.516602
3746.253906	4798.038086
3745.514648	4685.705078
3744.774414	4894.526367
3744.035156	4718.000000
3743.294922	4828.754395
3742.554688	4909.066406
3741.815430	4749.512207
3741.075195	4846.698242
3740.334961	4720.974609
3739.593750	4889.038086
3738.853516	4739.716797
3738.113281	4809.838867
3737.372070	4940.684570
3736.630859	4781.303223
3735.890625	4858.132324
3735.149414	4806.756348
3734.408203	4694.689453
3733.666016	4923.238770
3732.924805	4801.074219
3732.183594	4800.305176
3731.441406	4883.797363
3730.699219	4829.095703
3729.958008	4774.412109
3729.215820	4763.540527
3728.473633	4877.299316
3727.731445	4940.504883
3726.988281	4831.962402
3726.246094	4794.154297
3725.502930	4907.834961
3724.760742	4799.349121
3724.017578	4923.087402
3723.274414	4757.437012
3722.531250	5069.525391
3721.788086	4947.628906
3721.044922	4734.972656
3720.300781	4949.405762
3719.557617	4925.079590
3718.813477	4883.955078
3718.070313	4873.090332
3717.326172	4999.997559
3716.582031	4874.888184
3715.837891	4968.163086
3715.092773	4987.518555
3714.348633	4929.632324
3713.604492	4965.774902
3712.859375	4934.766602
3712.114258	4836.638672
3711.369141	4845.931641
3710.624023	4882.063965
3709.878906	4981.926758
3709.133789	5085.111816
3708.388672	4930.023926
3707.642578	5046.596680
3706.897461	4827.863770
3706.151367	4907.541504
3705.405273	5020.709961
3704.659180	4966.288574
3703.913086	5163.174316
3703.166992	5018.296875
3702.420898	4977.299316
3701.673828	5026.735840
3700.927734	5002.491699
3700.180664	4830.949707
3699.433594	4887.080078
3698.687500	5050.289063
3697.940430	5029.402344
3697.192383	4998.485352
3696.445313	5077.968262
3695.698242	5120.634766
3694.950195	5016.147461
3694.202148	5118.994141
3693.455078	4977.767090
3692.707031	5114.011230
3691.958984	5143.269531
3691.210938	5092.324219
3690.461914	5211.780273
3689.713867	5200.924316
3688.964844	5236.828613
3688.216797	5182.561035
3687.467773	5111.617188
3686.718750	5170.886230
3685.969727	5156.707031
3685.220703	5205.937500
3684.471680	5241.806152
3683.721680	5194.261230
3682.972656	5076.685547
3682.222656	5272.637207
3681.473633	5281.795898
3680.723633	5240.942383
3679.973633	5156.767578
3679.223633	5229.264648
3678.472656	5281.744141
3677.722656	5297.556641
3676.972656	5293.376465
3676.221680	5289.197754
3675.470703	5354.954590
3674.719727	5424.019531
3673.968750	5326.605469
3673.217773	5375.681152
3672.466797	5511.270508
3671.715820	5294.098145
3670.963867	5496.196289
3670.212891	5458.725098
3669.460938	5467.828125
3668.708984	5503.531250
3667.957031	5585.771484
3667.205078	5398.713867
3666.453125	5397.848633
3665.701172	5493.358887
3664.948242	5575.546875
3664.196289	5504.887695
3663.443359	5613.620605
3662.690430	5645.932617
3661.937500	5794.455078
3661.184570	5614.243164
3660.431641	5576.828613
3659.678711	5499.598145
3658.924805	5648.048340
3658.171875	5630.553711
3657.417969	5619.699219
3656.664063	5648.650879
3655.910156	5816.879883
3655.156250	5792.737305
3654.402344	5669.143555
3653.648438	5711.327148
3652.893555	5703.783691
3652.139648	6097.199707
3651.384766	5741.714355
3650.629883	5883.237793
3649.875000	5918.728027
3649.120117	5993.946289
3648.365234	5784.390137
3647.610352	5836.431641
3646.854492	5994.375977
3646.099609	5980.177734
3645.343750	6068.560547
3644.587891	6067.588379
3643.832031	6030.229492
3643.076172	6293.850098
3642.320313	6104.354004
3641.564453	6017.413086
3640.808594	6181.736328
3640.051758	6051.842285
3639.294922	6074.005859
3638.539063	6053.207520
3637.782227	6148.042969
3637.025391	6133.845703
3636.267578	6195.611816
3635.510742	6280.472168
3634.753906	6259.656738
3633.996094	6301.566895
3633.239258	6323.660645
3632.481445	6408.445313
3631.723633	6262.245605
3630.965820	6089.701172
3630.208008	6510.912598
3629.449219	6483.486816
3628.691406	6383.529785
3627.933594	6547.344727
3627.174805	6440.816895
3626.416016	6568.316895
3625.657227	6524.427734
3624.898438	6556.328613
3624.139648	6466.337402
3623.380859	6573.989746
3622.621094	6582.815430
3621.862305	6594.931152
3621.102539	6732.138672
3620.342773	6698.145508
3619.583984	6650.999023
3618.824219	6712.451660
3618.063477	6540.301758
3617.303711	6703.722168
3616.543945	6692.781738
3615.783203	6754.187500
3615.023438	6598.579590
3614.262695	6824.343262
3613.501953	6685.207520
3612.741211	6772.863770
3611.980469	6755.350586
3611.219727	6708.275879
3610.458008	6786.032227
3609.697266	6834.206543
3608.935547	6783.858398
3608.173828	6904.244141
3607.412109	6778.402344
3606.650391	6711.676758
3605.888672	6887.800781
3605.126953	7027.777832
3604.365234	6938.080566
3603.602539	7071.444824
3602.839844	6985.048340
3602.078125	6944.583008
3601.315430	6972.975586
3600.552734	7125.914551
3599.790039	6836.373535
3599.026367	6923.750488
3598.263672	7004.546387
3597.500000	6914.980957
3596.737305	7067.805664
3595.973633	6978.258301
3595.209961	7029.525879
3594.446289	7038.220703
3593.682617	7027.273926
3592.918945	6990.150391
3592.154297	7119.911133
3591.390625	6951.924316
3590.625977	7228.842773
3589.861328	7162.275879
3589.096680	7027.062012
3588.332031	7150.173340
3587.567383	6838.484375
3586.802734	6932.171387
3586.038086	6996.416992
3585.272461	6920.148438
3584.506836	7150.980957
3583.742188	7091.042969
3582.976563	7089.906738
3582.210938	7039.792969
3581.445313	6983.165527
3580.678711	6985.311035
3579.913086	7088.628418
3579.146484	6937.389160
3578.380859	7115.720703
3577.614258	7039.552734
3576.847656	6969.932617
3576.081055	7004.687500
3575.314453	6970.959961
3574.547852	6885.083984
3573.780273	6919.834961
3573.013672	7019.753418
3572.246094	7070.763184
3571.478516	6988.183105
3570.710938	6837.224609
3569.943359	7122.731934
3569.175781	7154.154297
3568.408203	6899.055176
3567.639648	6998.863770
3566.872070	6932.647461
3566.103516	6960.824707
3565.334961	6988.993164
3564.567383	7004.139160
3563.798828	6908.689453
3563.029297	6832.783203
3562.260742	6799.172363
3561.492188	6820.840820
3560.722656	6839.251465
3559.953125	7023.410156
3559.184570	6837.060059
3558.415039	6978.922363
3557.645508	6750.408203
3556.875000	6882.494629
3556.105469	6793.710449
3555.335938	6825.091309
3554.565430	6622.719238
3553.794922	6667.101074
3553.025391	6854.265625
3552.254883	6788.270020
3551.484375	6822.870117
3550.712891	6753.656738
3549.942383	6671.491699
3549.171875	6848.776367
3548.400391	6821.741211
3547.628906	6772.021973
3546.858398	6738.524902
3546.086914	6598.094238
3545.315430	6700.723633
3544.542969	6680.211914
3543.771484	6620.836914
3543.000000	6632.730469
3542.227539	6615.477539
3541.455078	6727.733398
3540.682617	6797.871582
3539.911133	6819.438477
3539.137695	6614.475098
3538.365234	6639.299316
3537.592773	6822.631348
3536.819336	6879.758789
3536.046875	6716.958008
3535.273438	6583.310547
3534.500000	6575.789551
3533.726563	6597.363281
3532.953125	6596.306152
3532.179688	6672.802246
3531.406250	6413.264160
3530.631836	6463.922363
3529.857422	6585.620117
3529.083984	6516.749512
3528.309570	6628.712891
3527.535156	6569.541992
3526.760742	6655.639160
3525.985352	6732.026367
3525.210938	6408.275391
3524.436523	6568.559082
3523.661133	6615.892090
3522.885742	6582.580078
3522.110352	6707.287109
3521.334961	6590.143555
3520.559570	6466.589844
3519.784180	6652.494141
3519.008789	6577.308594
3518.232422	6315.266602
3517.456055	6600.973633
3516.680664	6396.990234
3515.904297	6605.299316
3515.127930	6578.480957
3514.351563	6503.378906
3513.574219	6421.862305
3512.797852	6565.664063
3512.020508	6358.663574
3511.244141	6344.774902
3510.466797	6482.085938
3509.689453	6387.771484
3508.912109	6470.361328
3508.134766	6456.462891
3507.356445	6603.311523
3506.579102	6325.820313
3505.800781	6369.800293
3505.023438	6413.766113
3504.245117	6342.057129
3503.466797	6376.375977
3502.688477	6433.166016
3501.910156	6448.191406
3501.130859	6212.774414
3500.352539	6320.926758
3499.573242	6335.962402
3498.794922	6444.059570
3498.015625	6443.026855
3497.236328	6403.496582
3496.457031	6274.164551
3495.677734	6468.794434
3494.897461	6336.286621
3494.118164	6405.805664
3493.337891	6270.144043
3492.557617	6233.883789
3491.777344	6258.520996
3490.998047	6315.191406
3490.216797	6378.250488
3489.436523	6281.137207
3488.656250	6376.206543
3487.875000	6384.790527
3487.094727	6329.342285
3486.313477	6229.097656
3485.532227	6439.330078
3484.750977	6403.098633
3483.969727	6203.707520
3483.188477	6327.471680
3482.406250	6473.584473
3481.625000	6335.037598
3480.842773	6273.271973
3480.060547	6182.754395
3479.278320	6156.192871
3478.496094	6398.090820
3477.713867	6416.237793
3476.931641	6191.571777
3476.148438	6455.707520
3475.366211	6330.114746
3474.583008	6364.226563
3473.799805	6229.109863
3473.016602	6285.572754
3472.233398	6259.031250
3471.450195	6261.219727
3470.666992	6292.123535
3469.882813	6102.892090
3469.099609	6290.106934
3468.315430	6158.341797
3467.531250	6358.242188
3466.747070	6201.002930
3465.962891	6142.630859
3465.178711	6278.694336
3464.394531	6032.316406
3463.609375	6276.682129
3462.825195	6145.065430
3462.040039	6392.519531
3461.254883	6299.141602
3460.469727	6199.425293
3459.684570	6115.658691
3458.899414	6156.058594
3458.113281	6314.200195
3457.328125	6176.359863
3456.541992	6417.166992
3455.755859	6314.345703
3454.969727	6112.960938
3454.183594	6127.881348
3453.397461	6123.719727
3452.611328	6144.991211
3451.824219	6074.080078
3451.038086	6015.902832
3450.250977	6040.358398
3449.463867	6245.892578
3448.676758	6194.068359
3447.889648	6221.659180
3447.102539	6065.065918
3446.315430	6397.460449
3445.527344	6113.912598
3444.740234	6160.541016
3443.952148	5991.364258
3443.164063	6098.281738
3442.375977	5945.030273
3441.587891	6093.155273
3440.799805	6203.176270
3440.011719	6199.011230
3439.222656	6210.699219
3438.434570	6060.721680
3437.645508	6154.830078
3436.856445	5897.169434
3436.067383	5962.758301
3435.278320	6151.871094
3434.489258	6179.390625
3433.699219	6013.727051
3432.910156	6136.248047
3432.120117	6223.906250
3431.330078	6184.925293
3430.540039	6085.826660
3429.750000	6116.493652
3428.959961	6074.384766
3428.169922	6070.248047
3427.378906	5980.718262
3426.588867	5922.839844
3425.797852	6133.725586
3425.006836	5999.971680
3424.215820	6040.099121
3423.424805	6089.693848
3422.633789	5974.968750
3421.842773	6040.354004
3421.050781	6039.385742
3420.259766	6104.739258
3419.467773	5990.084961
3418.675781	5957.553223
3417.883789	5950.284668
3417.091797	5816.772949
3416.299805	6096.692383
3415.506836	5956.889160
3414.714844	5908.615234
3413.921875	6055.911621
3413.128906	5865.724121
3412.336914	5760.730957
3411.543945	5980.489746
3410.750000	5935.401855
3409.957031	5861.963867
3409.164063	5971.312012
3408.370117	5989.258301
3407.576172	6117.451172
3406.783203	5987.338379
3405.989258	5942.291504
3405.195313	5887.813477
3404.400391	5754.650879
3403.606445	5907.958496
3402.812500	5825.187988
3402.017578	5862.012695
3401.222656	6103.318359
3400.427734	5728.020996
3399.633789	5975.560059
3398.837891	5902.278320
3398.042969	5920.196289
3397.248047	5922.390625
3396.452148	5814.578613
3395.657227	5835.644043
3394.861328	5840.992188
3394.065430	5959.433105
3393.269531	5820.273438
3392.473633	5866.447754
3391.677734	5702.228027
3390.880859	5905.380371
3390.084961	5747.484375
3389.288086	6000.780273
3388.491211	6015.507813
3387.694336	5832.569824
3386.897461	5916.333008
3386.100586	6012.614746
3385.302734	5707.461914
3384.505859	5872.726563
3383.708008	5774.601074
3382.911133	5776.810059
3382.113281	5753.945801
3381.315430	5912.829590
3380.517578	5868.020020
3379.718750	5763.708496
3378.920898	5640.638184
3378.123047	5671.048340
3377.324219	5801.638672
3376.525391	5794.447754
3375.726563	6034.523926
3374.927734	5670.541504
3374.128906	5788.531738
3373.330078	5750.062500
3372.530273	5802.315430
3371.731445	5707.562012
3370.931641	5750.423828
3370.131836	5699.479004
3369.332031	5811.098633
3368.532227	5813.291992
3367.732422	5887.358398
3366.932617	5773.935059
3366.131836	5794.876465
3365.332031	5740.849121
3364.531250	5733.682617
3363.730469	5845.170410
3362.929688	5750.575684
3362.128906	5602.946777
3361.327148	5695.675781
3360.526367	5716.605469
3359.725586	5790.566406
3358.923828	5802.115723
3358.122070	5707.617676
3357.320313	5666.163086
3356.518555	5758.791992
3355.716797	5767.220703
3354.915039	5697.723633
3354.112305	5572.153320
3353.310547	5705.244141
3352.507813	5891.254395
3351.705078	5687.839844
3350.902344	5674.469727
3350.099609	5773.205078
3349.296875	5681.990234
3348.493164	5768.240723
3347.690430	5627.256836
3346.886719	5732.159668
3346.083008	5687.680176
3345.279297	5736.542969
3344.475586	5685.855957
3343.671875	5684.944336
3342.868164	5621.843750
3342.063477	5680.012207
3341.259766	5638.691406
3340.455078	5746.564453
3339.650391	5739.428223
3338.845703	5657.727539
3338.041016	5659.926270
3337.236328	5584.476074
3336.431641	5707.797852
3335.625977	5734.826660
3334.821289	5650.086914
3334.015625	5456.736328
3333.209961	5583.102539
3332.404297	5560.486328
3331.598633	5661.975098
3330.791992	5806.858887
3329.986328	5778.014648
3329.180664	5665.453125
3328.374023	5587.032715
3327.567383	5790.734375
3326.760742	5603.837402
3325.954102	5615.334473
3325.147461	5623.729004
3324.339844	5734.354004
3323.533203	5668.387207
3322.725586	5723.223633
3321.918945	5719.208984
3321.111328	5495.380371
3320.303711	5655.464355
3319.496094	5769.072266
3318.687500	5780.524902
3317.879883	5832.195313
3317.071289	5531.189941
3316.263672	5579.790527
3315.455078	5591.265625
3314.646484	5760.429688
3313.837891	5623.478516
3313.029297	5573.120117
3312.219727	5575.316406
3311.411133	5469.360840
3310.601563	5656.945313
3309.792969	5449.071777
3308.983398	5621.156250
3308.173828	5502.908691
3307.364258	5523.638672
3306.553711	5615.364258
3305.744141	5528.039551
3304.933594	5505.550293
3304.124023	5470.725586
3303.313477	5469.848145
3302.502930	5592.354004
3301.692383	5535.942871
3300.881836	5559.723633
3300.070313	5494.086426
3299.259766	5474.709473
3298.448242	5473.831055
3297.637695	5420.564941
3296.826172	5641.536133
3296.014648	5588.260254
3295.203125	5525.761230
3294.390625	5611.104492
3293.579102	5594.808594
3292.766602	5492.314941
3291.955078	5522.215332
3291.142578	5432.077148
3290.330078	5545.061035
3289.517578	5482.637695
3288.705078	5463.300781
3287.891602	5496.256836
3287.079102	5630.683105
3286.265625	5451.447266
3285.453125	5576.614746
3284.639648	5612.604492
3283.826172	5390.432129
3283.012695	5420.294434
3282.198242	5566.891602
3281.384766	5565.998535
3280.570313	5497.537598
3279.756836	5564.212402
3278.942383	5379.103516
3278.127930	5322.984375
3277.313477	5254.605957
3276.499023	5444.027344
3275.683594	5344.968262
3274.869141	5500.568359
3274.053711	5508.887695
3273.238281	5419.065918
3272.423828	5507.119629
3271.608398	5481.709473
3270.791992	5468.568359
3269.976563	5519.792969
3269.161133	5494.392090
3268.344727	5582.362305
3267.528320	5403.791016
3266.712891	5402.923828
3265.896484	5460.241699
3265.080078	5560.408203
3264.262695	5424.813965
3263.446289	5491.283203
3262.629883	5361.864258
3261.812500	5400.782715
3260.995117	5476.401855
3260.177734	5454.110352
3259.360352	5560.280762
3258.542969	5562.446289
3257.725586	5356.702637
3256.907227	5554.546875
3256.089844	5550.599121
3255.271484	5491.644043
3254.453125	5386.875000
3253.634766	5370.734863
3252.816406	5443.181641
3251.998047	5420.929688
3251.179688	5365.095703
3250.360352	5568.789551
3249.541992	5482.423828
3248.722656	5423.554199
3247.903320	5505.076172
3247.083984	5418.761719
3246.264648	5387.385742
3245.444336	5407.871582
3244.625000	5330.762695
3243.804688	5454.921875
3242.985352	5420.511230
3242.165039	5340.388672
3241.344727	5339.531250
3240.524414	5286.871582
3239.703125	5538.898926
3238.882813	5391.791992
3238.061523	5470.114746
3237.241211	5256.070313
3236.419922	5416.598145
3235.598633	5397.462891
3234.777344	5487.909180
3233.956055	5423.119141
3233.134766	5437.462402
3232.312500	5470.054688
3231.490234	5368.796875
3230.668945	5398.348145
3229.846680	5382.277344
3229.024414	5408.776367
3228.202148	5344.070801
3227.378906	5346.251953
3226.556641	5527.726563
3225.733398	5453.917480
3224.911133	5355.828613
3224.087891	5482.540527
3223.264648	5478.623047
3222.441406	5547.581543
3221.618164	5331.138184
3220.793945	5491.161621
3219.970703	5529.734863
3219.146484	5547.053711
3218.322266	5324.680664
3217.498047	5481.568359
3216.673828	5392.730469
3215.849609	5452.515137
3215.025391	5315.197266
3214.201172	5484.111328
3213.375977	5358.956543
3212.550781	5445.982910
3211.725586	5548.132324
3210.900391	5486.648926
3210.075195	5328.252441
3209.250000	5409.170410
3208.424805	5435.555176
3207.598633	5386.239258
3206.772461	5545.815430
3205.947266	5442.017090
3205.121094	5456.273926
3204.294922	5497.757813
3203.467773	5424.269043
3202.641602	5538.338867
3201.815430	5334.822754
3200.988281	5358.156250
3200.161133	5499.391113
3199.333984	5392.708984
3198.506836	5588.294434
3197.679688	5409.107910
3196.852539	5378.025391
3196.024414	5615.811035
3195.197266	5330.992188
3194.369141	5408.653320
3193.541016	5434.959473
3192.712891	5578.995605
3191.884766	5523.767090
3191.056641	5522.879883
3190.227539	5449.573242
3189.399414	5496.969727
3188.570313	5462.905273
3187.741211	5519.332031
3186.913086	5427.979004
3186.083008	5496.453613
3185.253906	5555.862305
3184.424805	5446.462402
3183.594727	5514.900391
3182.765625	5441.699219
3181.935547	5522.166504
3181.105469	5545.376465
3180.275391	5487.264160
3179.445313	5453.259277
3178.615234	5313.891113
3177.784180	5478.599121
3176.954102	5453.641113
3176.123047	5482.857422
3175.291992	5427.818848
3174.460938	5351.739746
3173.629883	5414.043457
3172.798828	5431.217773
3171.966797	5451.393066
3171.135742	5549.726563
3170.303711	5530.799805
3169.471680	5508.873535
3168.639648	5628.184570
3167.807617	5639.297852
3166.975586	5455.151367
3166.143555	5412.226563
3165.310547	5393.338867
3164.478516	5299.395020
3163.645508	5205.481445
3162.812500	5366.727539
3161.979492	5488.907715
3161.146484	5398.008789
3160.312500	5553.145508
3159.479492	5381.276367
3158.645508	5293.437012
3157.812500	5433.522461
3156.978516	5483.617676
3156.144531	5467.748047
3155.310547	5352.976074
3154.475586	5501.951172
3153.641602	5402.191895
3152.807617	5338.413086
3151.972656	5409.441406
3151.137695	5363.650391
3150.302734	5479.565918
3149.467773	5571.493652
3148.632813	5414.944824
3147.796875	5476.924316
3146.961914	5571.799805
3146.125977	5532.009766
3145.290039	5486.249512
3144.455078	5398.630859
3143.618164	5574.199707
3142.782227	5235.437012
3141.946289	5488.702148
3141.109375	5410.105957
3140.273438	5525.788574
3139.436523	5366.534180
3138.599609	5347.746094
3137.762695	5266.234863
3136.925781	5429.651855
3136.088867	5434.751465
3135.250977	5311.466309
3134.414063	5280.760742
3133.576172	5276.927246
3132.738281	5383.510254
3131.900391	5442.319824
3131.062500	5387.746094
3130.224609	5371.966309
3129.385742	5415.836914
3128.547852	5319.548340
3127.708984	5423.040039
3126.870117	5451.976563
3126.031250	5334.865723
3125.192383	5164.153809
3124.353516	5422.532715
3123.514648	5442.513672
3122.674805	5334.414063
3121.835938	5387.160156
3120.996094	5419.046387
3120.156250	5337.795410
3119.316406	5336.937500
3118.476563	5571.188477
3117.635742	5400.684082
3116.795898	5331.388672
3115.955078	5229.394043
3115.114258	5469.458984
3114.274414	5415.053711
3113.433594	5378.504395
3112.591797	5416.285156
3111.750977	5376.774902
3110.910156	5239.209473
3110.068359	5383.959961
3109.226563	5418.743652
3108.384766	5293.118652
3107.542969	5235.840332
3106.701172	5232.029297
3105.859375	5385.570313
3105.017578	5405.482910
3104.174805	5374.934570
3103.332031	5382.972168
3102.490234	5411.776367
3101.647461	5173.585938
3100.803711	5362.579590
3099.960938	5465.511230
3099.118164	5280.797852
3098.274414	5380.744629
3097.431641	5356.166504
3096.587891	5379.014160
3095.744141	5295.180176
3094.900391	5368.395996
3094.056641	5334.948242
3093.211914	5345.937012
3092.368164	5422.069824
3091.523438	5222.825195
3090.678711	5405.524414
3089.833984	5407.614746
3088.989258	5400.826172
3088.144531	5465.052734
3087.299805	5396.130371
3086.454102	5460.336914
3085.609375	5394.394531
3084.763672	5378.742188
3083.917969	5431.093750
3083.072266	5406.571777
3082.226563	5299.302246
3081.380859	5292.539551
3080.534180	5336.007324
3079.688477	5344.011230
3078.841797	5390.410156
3077.995117	5357.057617
3077.148438	5394.581055
3076.301758	5470.471191
3075.455078	5481.397949
3074.607422	5400.831543
3073.760742	5343.897461
3072.913086	5331.236328
3072.065430	5182.886230
3071.217773	5341.318848
3070.370117	5434.824219
3069.522461	5295.373535
3068.673828	5135.332031
3067.826172	5432.201172
3066.977539	5230.930664
3066.128906	5477.597656
3065.280273	5338.251953
3064.431641	5384.521973
3063.583008	5259.960938
3062.734375	5365.121582
3061.884766	5164.055176
3061.035156	5286.859375
3060.186523	5356.645508
3059.336914	5255.730469
3058.487305	5401.998047
3057.636719	5318.758301
3056.787109	5364.963379
3055.937500	5352.336914
3055.086914	5283.847168
3054.236328	5450.570801
3053.385742	5240.994629
3052.535156	5234.272949
3051.684570	5345.092773
3050.833984	5355.984863
3049.982422	5240.559082
3049.130859	5407.127930
3048.280273	5271.174316
3047.428711	5346.665039
3046.577148	5319.383789
3045.725586	5374.295898
3044.873047	5437.994141
3044.021484	5401.908203
3043.168945	5433.310059
3042.316406	5268.171875
3041.464844	5150.011230
3040.612305	5278.205078
3039.758789	5212.854492
3038.906250	5288.231445
3038.053711	5360.653320
3037.200195	5359.790527
3036.346680	5230.008789
3035.493164	5451.809082
3034.639648	5292.763672
3033.786133	5321.197266
3032.932617	5358.405762
3032.079102	5304.846191
3031.224609	5251.303223
3030.370117	5338.258301
3029.515625	5258.391113
3028.661133	5321.910645
3027.806641	5288.875977
3026.952148	5323.122070
3026.097656	5319.340820
3025.242188	5362.342285
3024.386719	5215.309570
3023.532227	5392.767578
3022.676758	5292.536133
3021.820313	5177.727051
3020.964844	5381.398438
3020.109375	5292.900879
3019.252930	5379.665527
3018.397461	5197.753906
3017.541016	5328.299805
3016.684570	5260.301270
3015.828125	5294.478516
3014.970703	5246.934570
3014.114258	5284.020020
3013.256836	5321.093750
3012.400391	5168.563477
3011.542969	5258.137207
3010.685547	5301.028320
3009.828125	5425.536133
3008.970703	5398.428223
3008.112305	5144.001465
3007.254883	5379.205566
3006.396484	5279.279785
3005.538086	5377.473145
3004.679688	5242.628418
3003.821289	5256.344727
3002.962891	5316.642578
3002.104492	5135.293945
3001.245117	5285.822754
3000.385742	5319.894531
2999.527344	5266.661621
2998.667969	5195.990723
2997.808594	5288.235840
2996.948242	5240.850586
2996.088867	5303.979492
2995.229492	5210.087891
2994.369141	5319.712891
2993.508789	5269.445801
2992.648438	5175.604492
2991.788086	5174.770508
2990.927734	5420.868164
2990.067383	5298.001465
2989.206055	5378.463867
2988.344727	5206.280762
2987.484375	5251.893555
2986.623047	5161.062500
2985.761719	5308.246582
2984.899414	5307.391602
2984.038086	5216.595215
2983.176758	5285.375488
2982.314453	5270.021973
2981.452148	5289.472168
2980.589844	5430.693359
2979.727539	5345.747559
2978.865234	5298.509766
2978.002930	5361.413574
2977.139648	5227.260254
2976.276367	5440.805176
2975.414063	5422.548828
2974.550781	5247.903320
2973.687500	5241.266113
2972.824219	5266.479004
2971.959961	5358.263672
2971.096680	5340.034180
2970.232422	5153.966309
2969.368164	5341.206543
2968.503906	5265.129883
2967.639648	5275.851074
2966.775391	5272.108887
2965.911133	5190.296387
2965.045898	5380.270020
2964.181641	5304.247559
2963.316406	5303.392578
2962.451172	5322.765137
2961.585938	5293.015625
2960.720703	5286.384766
2959.854492	5363.516113
2958.989258	5053.656738
2958.123047	5358.899902
2957.256836	5444.642090
2956.391602	5287.898438
2955.524414	5263.958984
2954.658203	5271.766602
2953.791992	5296.881836
2952.924805	5287.374512
2952.058594	5303.826660
2951.191406	5366.411133
2950.324219	5253.103027
2949.457031	5327.206055
2948.589844	5265.820801
2947.722656	5282.262207
2946.854492	5307.342285
2945.986328	5251.750977
2945.119141	5311.392090
2944.250977	5396.932617
2943.382813	5384.544922
2942.513672	5389.434570
2941.645508	5365.537598
2940.777344	5361.794434
2939.908203	5432.869629
2939.039063	5383.082520
2938.169922	5436.871094
2937.300781	5381.346680
2936.431641	5345.970215
2935.562500	5391.112305
2934.692383	5395.992676
2933.822266	5297.395508
2932.953125	5276.423828
2932.083008	5381.889160
2931.212891	5294.833008
2930.341797	5319.831543
2929.471680	5284.509277
2928.601563	5341.088379
2927.730469	5288.547363
2926.859375	5382.424805
2925.988281	5424.609375
2925.117188	5346.252441
2924.246094	5322.436523
2923.375000	5579.767578
2922.502930	5352.270996
2921.630859	5305.522461
2920.759766	5281.727539
2919.887695	5206.335449
2919.015625	5300.088867
2918.142578	5382.348145
2917.270508	5321.303711
2916.397461	5383.477051
2915.525391	5488.599121
2914.652344	5218.483887
2913.779297	5300.688965
2912.906250	5405.773438
2912.033203	5465.019531
2911.159180	5381.130859
2910.286133	5466.118164
2909.412109	5470.958984
2908.538086	5467.215332
2907.664063	5411.984863
2906.790039	5379.651855
2905.916016	5430.255371
2905.041992	5415.083984
2904.166992	5391.341309
2903.291992	5430.485840
2902.417969	5495.336426
2901.542969	5400.161133
2900.666992	5296.446289
2899.791992	5361.286621
2898.916992	5354.709961
2898.041016	5382.399902
2897.165039	5444.339355
2896.290039	5360.681641
2895.414063	5319.860352
2894.538086	5384.633789
2893.661133	5418.001465
2892.785156	5465.622070
2891.908203	5390.583496
2891.032227	5312.717773
2890.155273	5377.438965
2889.278320	5293.898438
2888.401367	5290.193848
2887.523438	5411.884277
2886.646484	5368.269531
2885.768555	5287.632813
2884.891602	5275.385742
2884.013672	5354.278809
2883.135742	5359.109863
2882.256836	5460.740234
2881.378906	5286.213867
2880.500977	5308.129883
2879.622070	5227.592773
2878.743164	5272.273438
2877.865234	5311.249512
2876.985352	5387.189453
2876.106445	5380.632324
2875.227539	5402.511230
2874.348633	5498.299805
2873.468750	5417.822266
2872.588867	5272.002930
2871.708984	5262.626953
2870.829102	5329.964355
2869.949219	5300.697266
2869.069336	5314.042480
2868.188477	5321.704102
2867.308594	5261.219727
2866.427734	5422.184082
2865.546875	5375.894531
2864.666016	5357.999023
2863.785156	5260.660156
2862.903320	5299.528809
2862.022461	5267.471191
2861.140625	5303.489746
2860.258789	5410.387207
2859.376953	5511.580078
2858.495117	5366.119629
2857.613281	5382.258301
2856.731445	5375.721680
2855.848633	5462.687500
2854.965820	5362.654297
2854.083984	5497.744629
2853.201172	5264.635254
2852.318359	5379.876953
2851.434570	5282.752441
2850.551758	5273.407227
2849.667969	5442.364258
2848.785156	5331.127441
2847.901367	5497.190918
2847.017578	5354.864746
2846.133789	5311.574707
2845.249023	5341.823242
2844.365234	5389.026367
2843.480469	5272.251465
2842.596680	5339.235352
2841.711914	5327.068848
2840.827148	5348.812988
2839.942383	5387.500488
2839.056641	5403.578125
2838.171875	5445.068359
2837.286133	5500.663574
2836.401367	5338.847656
2835.515625	5281.528320
2834.629883	5291.964355
2833.743164	5435.027832
2832.857422	5369.255859
2831.971680	5444.555664
2831.084961	5237.775391
2830.198242	5437.156738
2829.311523	5351.688477
2828.424805	5407.208008
2827.538086	5349.959473
2826.651367	5447.734863
2825.763672	5277.785156
2824.876953	5372.722656
2823.989258	5360.586914
2823.101563	5348.455078
2822.213867	5409.542969
2821.325195	5355.173340
2820.437500	5435.945801
2819.549805	5367.515625
2818.661133	5372.276855
2817.772461	5303.878906
2816.883789	5460.565430
2815.995117	5366.859863
2815.106445	5472.862305
2814.216797	5393.244141
2813.328125	5566.683105
2812.438477	5456.154297
2811.548828	5365.334961
2810.659180	5406.619141
2809.769531	5633.326172
2808.879883	5463.864258
2807.989258	5457.363770
2807.099609	5515.455566
2806.208984	5494.909180
2805.318359	5373.304199
2804.427734	5518.395020
2803.537109	5525.922363
2802.646484	5567.119141
2801.754883	5251.997070
2800.863281	5430.674805
2799.972656	5581.247559
2799.081055	5507.436035
2798.189453	5498.134766
2797.296875	5452.393066
2796.405273	5426.286133
2795.513672	5442.223145
2794.621094	5486.174316
2793.728516	5513.301758
2792.835938	5366.757324
2791.943359	5368.689941
2791.050781	5650.633789
2790.157227	5504.137695
2789.264648	5349.291016
2788.371094	5423.992676
2787.477539	5423.115234
2786.583984	5634.875488
2785.690430	5398.982422
2784.796875	5504.393555
2783.903320	5383.253906
2783.008789	5397.472656
2782.114258	5411.690918
2781.219727	5425.909668
2780.325195	5440.127930
2779.430664	5454.346680
2778.536133	5579.185059
2777.640625	5525.208984
2776.746094	5482.422363
2775.850586	5576.478027
2774.955078	5391.305664
2774.059570	5331.811523
2773.164063	5383.979492
2772.267578	5450.083984
2771.372070	5527.327148
2770.475586	5545.960938
2769.579102	5539.485352
2768.683594	5505.123535
2767.786133	5370.391113
2766.889648	5461.523438
2765.993164	5560.988770
2765.095703	5518.284180
2764.199219	5534.110352
2763.301758	5602.868164
2762.404297	5501.677734
2761.506836	5536.995605
2760.608398	5513.821289
2759.710938	5593.674316
2758.812500	5567.714355
2757.914063	5552.896484
2757.016602	5596.525391
2756.118164	5623.444824
2755.218750	5494.560547
2754.320313	5488.108398
2753.421875	5551.186523
2752.522461	5416.814453
2751.623047	5452.081543
2750.723633	5559.611328
2749.824219	5544.814941
2748.924805	5454.992676
2748.025391	5495.786621
2747.125000	5494.897461
2746.224609	5427.346680
2745.325195	5457.016602
2744.424805	5614.402832
2743.523438	5530.208008
2742.623047	5640.343262
2741.722656	5653.306641
2740.821289	5569.145996
2739.919922	5584.890625
2739.019531	5514.637695
2738.118164	5602.497559
2737.215820	5565.541016
2736.314453	5628.410156
2735.413086	5438.991699
2734.510742	5604.414063
2733.608398	5462.172363
2732.706055	5594.287598
2731.803711	5590.611328
2730.901367	5520.458008
2729.999023	5519.564453
2729.095703	5679.274414
2728.193359	5617.446289
2727.290039	5516.883789
2726.386719	5778.920410
2725.483398	5587.045898
2724.579102	5591.674805
2723.675781	5466.284180
2722.771484	5551.141602
2721.868164	5569.600586
2720.963867	5482.983887
2720.059570	5584.384277
2719.155273	5550.311035
2718.250000	5469.266113
2717.345703	5537.460938
2716.440430	5677.464355
2715.536133	5499.757324
2714.630859	5598.293457
2713.725586	5671.945313
2712.819336	5538.500000
2711.914063	5656.305664
2711.007813	5660.909668
2710.102539	5591.001953
2709.196289	5496.284180
2708.290039	5547.810059
2707.383789	5717.925293
2706.477539	5648.053223
2705.570313	5550.629395
2704.664063	5596.598145
2703.756836	5592.935059
2702.849609	5476.274902
2701.942383	5673.791504
2701.035156	5391.846191
2700.127930	5440.557617
2699.219727	5508.532715
2698.312500	5493.871094
2697.404297	5542.541992
2696.496094	5682.043457
2695.587891	5513.221191
2694.679688	5528.840332
2693.770508	5494.925293
2692.862305	5576.569336
2691.953125	5509.648926
2691.043945	5605.015137
2690.134766	5631.604980
2689.225586	5479.477539
2688.316406	5492.334473
2687.406250	5527.174316
2686.497070	5509.790527
2685.586914	5566.597168
2684.676758	5659.097656
2683.766602	5564.792969
2682.856445	5635.293457
2681.946289	5664.583984
2681.035156	5584.050781
2680.124023	5547.461914
2679.213867	5656.341309
2678.302734	5636.216309
2677.391602	5435.021973
2676.479492	5541.123047
2675.568359	5567.651855
2674.657227	5498.193359
2673.745117	5675.518555
2672.833008	5586.875488
2671.920898	5583.229004
2671.008789	5546.697754
2670.096680	5532.098633
2669.183594	5599.691406
2668.270508	5642.609375
2667.358398	5567.750000
2666.445313	5596.968262
2665.532227	5691.883789
2664.619141	5482.921875
2663.705078	5616.141602
2662.791992	5669.960449
2661.877930	5570.544434
2660.963867	5410.977539
2660.049805	5710.965332
2659.135742	5710.039063
2658.221680	5728.252930
2657.306641	5443.008301
2656.392578	5633.460938
2655.477539	5523.230957
2654.562500	5672.621094
2653.647461	5679.897461
2652.732422	5676.244629
2651.817383	5639.819336
2650.901367	5671.673340
2649.986328	5594.306152
2649.070313	5653.454590
2648.154297	5625.244141
2647.238281	5575.210938
2646.321289	5683.446289
2645.405273	5619.779297
2644.489258	5561.587891
2643.572266	5634.319336
2642.655273	5641.585449
2641.738281	5569.787109
2640.821289	5786.950684
2639.903320	5603.410645
2638.986328	5575.251953
2638.068359	5686.052246
2637.151367	5715.094727
2636.233398	5722.338379
2635.315430	5707.793945
2634.396484	5736.818359
2633.478516	5646.051758
2632.559570	5702.294434
2631.641602	5695.926758
2630.722656	5553.511719
2629.803711	5593.418457
2628.884766	5714.915039
2627.965820	5583.444824
2627.045898	5647.799805
2626.125977	5671.352051
2625.207031	5580.727051
2624.287109	5593.411133
2623.367188	5652.287109
2622.447266	5694.841797
2621.526367	5753.682129
2620.606445	5673.980957
2619.685547	5629.608887
2618.764648	5856.775391
2617.843750	5684.792480
2616.922852	5673.012695
2616.001953	5677.519531
2615.080078	5608.761230
2614.159180	5784.198242
2613.237305	5715.444336
2612.315430	5625.015625
2611.393555	5789.517090
2610.471680	5682.837402
2609.548828	5755.107910
2608.626953	5615.943359
2607.704102	5677.360352
2606.781250	5652.053223
2605.858398	5813.680176
2604.935547	5780.232910
2604.012695	5665.550293
2603.089844	5569.858887
2602.166016	5663.710449
2601.242188	5657.377441
2600.318359	5602.330078
2599.394531	5750.250488
2598.470703	5806.133301
2597.546875	5802.485352
2596.622070	5820.476074
2595.698242	5724.882324
2594.773438	5715.841309
2593.848633	5747.353516
2592.923828	5795.072754
2591.998047	5767.106934
2591.073242	5720.235352
2590.147461	5524.790527
2589.222656	5853.436035
2588.296875	5666.135254
2587.371094	5673.315430
2586.445313	5907.281738
2585.518555	5790.247070
2584.592773	5786.607910
2583.666016	5850.432617
2582.739258	5657.917480
2581.812500	5786.486328
2580.885742	5710.023926
2579.958984	5684.825195
2579.031250	5737.828613
2578.104492	5537.399414
2577.176758	5816.828613
2576.249023	5686.521973
2575.321289	5831.106445
2574.393555	5649.650391
2573.465820	5689.138672
2572.537109	5914.450195
2571.608398	5735.761230
2570.680664	5796.754883
2569.751953	5814.656738
2568.823242	5767.955566
2567.893555	5842.369141
2566.964844	5717.649414
2566.035156	5749.003418
2565.105469	5815.313477
2564.176758	5693.348145
2563.246094	5670.911621
2562.316406	5772.151855
2561.386719	5808.846191
2560.456055	5858.966797
2559.526367	5844.578613
2558.595703	5566.895996
2557.665039	5805.070801
2556.734375	5863.216309
2555.802734	5851.521484
2554.872070	5896.215332
2553.940430	5763.714355
2553.009766	5905.035156
2552.078125	5756.473145
2551.146484	5803.835938
2550.213867	5647.290039
2549.282227	5917.290527
2548.349609	5723.229980
2547.417969	5711.573730
2546.485352	5753.541992
2545.552734	5757.967773
2544.620117	5824.036133
2543.686523	5750.736328
2542.753906	5814.104492
2541.820313	5952.460938
2540.887695	5721.146973
2539.954102	5749.674805
2539.020508	5821.034180
2538.085938	5833.473633
2537.152344	5880.705566
2536.217773	5711.144531
2535.284180	5894.848145
2534.349609	5802.926270
2533.415039	5863.506348
2532.480469	5878.600098
2531.544922	5722.546875
2530.610352	5865.993652
2529.674805	5811.575195
2528.739258	5759.847168
2527.803711	5932.612793
2526.868164	5693.847656
2525.932617	6021.513672
2524.997070	5876.297852
2524.060547	5875.341797
2523.124023	5812.972168
2522.187500	5769.310547
2521.250977	5776.379883
2520.314453	5839.493164
2519.377930	5755.821777
2518.440430	5960.321777
2517.503906	5801.965332
2516.566406	5846.362793
2515.628906	5957.413086
2514.691406	5905.784668
2513.752930	5854.172852
2512.815430	6023.806152
2511.876953	5897.572754
2510.938477	5872.632324
2510.000000	5911.638184
2509.061523	5926.658203
2508.123047	5805.848145
2507.184570	5948.694824
2506.245117	5825.257813
2505.306641	5858.915039
2504.367188	5828.685059
2503.427734	5859.669434
2502.487305	5927.892090
2501.547852	5895.004883
2500.608398	5878.086914
2499.667969	6063.283691
2498.727539	5793.747559
2497.787109	5803.438477
2496.846680	5845.022461
2495.906250	5740.424805
2494.964844	6010.521484
2494.024414	5831.541992
2493.083008	5859.812012
2492.141602	5877.449219
2491.200195	5677.334473
2490.258789	5947.220703
2489.317383	5901.125000
2488.375000	6046.142090
2487.432617	5952.277832
2486.490234	5916.816406
2485.547852	5968.909668
2484.605469	5808.792969
2483.663086	5850.278809
2482.720703	5756.521973
2481.777344	5917.303223
2480.833984	5998.510742
2479.890625	5774.912598
2478.947266	5893.214355
2478.003906	5865.760742
2477.059570	5907.188965
2476.116211	5805.582520
2475.171875	5939.690430
2474.227539	5859.292969
2473.283203	5937.755859
2472.338867	6032.073730
2471.394531	5941.114746
2470.449219	5897.811523
2469.503906	5859.813965
2468.559570	5972.598145
2467.614258	5839.392578
2466.667969	5796.133789
2465.722656	5808.408691
2464.777344	5839.182617
2463.831055	5896.375977
2462.884766	6003.757813
2461.938477	5849.540039
2460.992188	5740.279785
2460.045898	5805.375000
2459.099609	5648.623047
2458.152344	6014.710938
2457.205078	5937.173340
2456.257813	5915.090332
2455.310547	5916.765625
2454.363281	5939.549316
2453.416016	5943.857422
2452.467773	6072.139648
2451.520508	5699.285645
2450.572266	5864.481934
2449.624023	5816.069824
2448.675781	5807.213867
2447.726563	5758.826172
2446.778320	5913.363770
2445.829102	5915.035156
2444.879883	5798.160645
2443.930664	5847.259766
2442.981445	5827.872070
2442.032227	5837.454590
2441.083008	5710.137695
2440.132813	5753.954102
2439.182617	5816.178223
2438.232422	5696.820313
2437.282227	5874.792969
2436.332031	5826.486816
2435.381836	5759.786133
2434.430664	5845.624023
2433.480469	5839.412598
2432.529297	5680.735352
2431.578125	5929.500000
2430.626953	5833.929199
2429.674805	5704.231934
2428.723633	5734.826660
2427.771484	5781.170410
2426.819336	5814.368164
2425.867188	5831.800293
2424.915039	5880.730469
2423.962891	5871.896973
2423.010742	5744.964844
2422.057617	5770.268555
2421.104492	5750.962402
2420.151367	5760.517090
2419.198242	5565.493652
2418.245117	5779.616699
2417.291992	5794.405762
2416.337891	5733.166504
2415.383789	5590.694824
2414.430664	5775.847168
2413.475586	5822.068359
2412.521484	5734.666504
2411.567383	5778.259766
2410.612305	5730.176758
2409.658203	5666.398438
2408.703125	5772.814453
2407.748047	5750.931641
2406.792969	5726.438965
2405.837891	5775.223145
2404.881836	5701.023438
2403.925781	5668.702148
2402.970703	5557.926270
2402.013672	5648.546875
2401.058594	5540.425293
2400.101563	5646.704102
2399.144531	5617.030762
2398.189453	5678.834961
2397.232422	5662.230957
2396.275391	5637.793945
2395.318359	5678.667480
2394.361328	5568.051270
2393.404297	5682.036621
2392.445313	5495.742188
2391.488281	5463.520996
2390.529297	5707.964844
2389.572266	5581.775879
2388.613281	5737.410645
2387.656250	5569.519043
2386.697266	5646.857422
2385.738281	5585.956055
2384.779297	5731.058105
2383.820313	5545.027832
2382.861328	5588.434082
2381.902344	5741.282715
2380.943359	5604.849121
2379.982422	5577.881836
2379.023438	5582.180664
2378.064453	5677.632813
2377.103516	5640.250000
2376.142578	5654.950684
2375.183594	5633.202148
2374.222656	5476.119141
2373.261719	5509.054688
2372.300781	5458.719727
2371.339844	5681.552734
2370.378906	5511.558594
2369.417969	5388.430664
2368.455078	5577.363281
2367.494141	5503.659668
2366.533203	5458.572266
2365.570313	5470.675293
2364.609375	5534.743652
2363.646484	5466.290527
2362.683594	5683.598145
2361.720703	5451.519043
2360.757813	5435.047852
2359.794922	5579.555664
2358.832031	5552.685059
2357.869141	5525.823242
2356.906250	5413.332031
2355.943359	5617.425293
2354.978516	5479.013672
2354.015625	5436.617676
2353.050781	5485.003906
2352.085938	5372.610352
2351.123047	5584.320313
2350.158203	5484.907715
2349.193359	5447.728027
2348.228516	5511.619629
2347.263672	5409.676270
2346.298828	5468.372070
2345.333984	5454.528320
2344.367188	5355.233398
2343.402344	5457.924316
2342.437500	5498.452148
2341.470703	5458.729004
2340.503906	5398.315430
2339.539063	5358.621582
2338.572266	5401.725586
2337.605469	5437.055176
2336.638672	5480.131836
2335.671875	5349.947754
2334.705078	5462.828125
2333.738281	5397.312500
2332.771484	5437.782227
2331.802734	5607.442383
2330.835938	5358.495117
2329.867188	5641.774414
2328.900391	5563.367676
2327.931641	5601.194336
2326.962891	5561.548828
2325.994141	5457.377930
2325.027344	5453.904785
2324.058594	5347.204590
2323.089844	5336.009277
2322.119141	5337.716797
2321.150391	5406.488281
2320.181641	5516.501953
2319.210938	5461.449707
2318.242188	5272.350098
2317.271484	5315.309570
2316.302734	5368.564453
2315.332031	5341.917480
2314.361328	5243.137695
2313.390625	5396.843750
2312.419922	5357.326660
2311.449219	5410.529785
2310.478516	5309.228027
2309.507813	5354.698242
2308.537109	5335.804688
2307.564453	5311.770020
2306.593750	5205.403809
2305.621094	5497.838867
2304.650391	5352.892578
2303.677734	5210.565430
2302.705078	5327.998535
2301.732422	5309.129883
2300.759766	5331.396484
2299.787109	5312.533203
2298.814453	5275.687500
2297.841797	5151.497070
2296.869141	5402.406738
2295.896484	5270.530273
2294.921875	5290.212402
2293.949219	5358.672852
2292.974609	5319.287598
2292.000000	5431.356934
2291.027344	5345.777344
2290.052734	5434.711426
2289.078125	5310.675781
2288.103516	5391.890625
2287.128906	5296.114258
2286.154297	5256.783203
2285.177734	5420.010254
2284.203125	5252.499023
2283.228516	5174.748535
2282.251953	5294.344238
2281.277344	5288.353027
2280.300781	5315.666992
2279.324219	5340.410156
2278.347656	5367.706055
2277.371094	5374.509277
2276.394531	5278.905762
2275.417969	5413.704102
2274.441406	5328.362793
2273.464844	5271.195801
2272.488281	5372.669434
2271.509766	5348.768066
2270.533203	5432.291992
2269.554688	5265.187500
2268.578125	5297.562988
2267.599609	5306.920898
2266.621094	5331.610840
2265.642578	5266.850586
2264.664063	5355.415527
2263.685547	5359.647949
2262.707031	5371.541016
2261.728516	5327.246582
2260.750000	5349.354492
2259.769531	5442.938477
2258.791016	5355.260254
2257.810547	5415.634277
2256.832031	5437.712891
2255.851563	5138.319824
2254.871094	5428.278809
2253.890625	5389.132813
2252.910156	5411.200195
2251.929688	5417.962891
2250.949219	5330.402344
2249.968750	5444.224609
2248.988281	5428.042480
2248.005859	5388.933594
2247.025391	5324.362305
2246.042969	5336.225586
2245.062500	5401.565430
2244.080078	5268.273438
2243.097656	5275.047852
2242.115234	5429.456543
2241.132813	5418.386230
2240.150391	5275.000000
2239.167969	5393.712891
2238.185547	5375.022461
2237.203125	5371.598145
2236.218750	5429.206055
2235.236328	5410.518555
2234.253906	5165.587891
2233.269531	5235.909180
2232.285156	5278.252930
2231.300781	5325.664063
2230.318359	5284.144043
2229.333984	5252.797363
2228.349609	5437.328613
2227.365234	5365.339844
2226.378906	5318.761719
2225.394531	5256.968750
2224.410156	5380.466797
2223.423828	5321.221680
2222.439453	5411.685547
2221.453125	5253.522461
2220.468750	5262.806152
2219.482422	5218.833496
2218.496094	5405.601563
2217.509766	5293.173340
2216.523438	5332.859375
2215.537109	5316.779785
2214.550781	5308.306641
2213.564453	5299.835938
2212.576172	5359.757813
2211.589844	5366.476563
2210.601563	5249.118164
2209.615234	5240.662109
2208.626953	5399.274902
2207.638672	5218.696289
2206.650391	5440.521973
2205.664063	5394.088379
2204.675781	5231.306152
2203.685547	5324.029785
2202.697266	5323.156250
2201.708984	5221.146973
2200.720703	5260.738281
2199.730469	5338.229980
2198.742188	5438.440430
2197.751953	5447.655273
2196.763672	5322.971191
2195.773438	5258.950195
2194.783203	5369.209473
2193.792969	5194.097656
2192.802734	5465.909668
2191.812500	5298.411621
2190.822266	5388.400879
2189.832031	5349.665039
2188.839844	5326.080078
2187.849609	5305.025391
2186.857422	5402.519531
2185.867188	5356.241211
2184.875000	5229.294434
2183.882813	5329.273926
2182.892578	5280.508789
2181.900391	5400.607910
2180.908203	5366.965332
2179.916016	5310.660156
2178.921875	5256.891602
2177.929688	5266.102539
2176.937500	5224.949707
2175.943359	5365.079102
2174.951172	5162.820801
2173.957031	5312.981445
2172.964844	5362.437500
2171.970703	5200.534180
2170.976563	5363.191895
2169.982422	5337.160156
2168.988281	5333.769043
2167.994141	5428.437500
2167.000000	5427.546387
2166.005859	5436.708984
2165.009766	5332.779297
2164.015625	5362.055664
2163.019531	5358.663086
2162.025391	5495.935059
2161.029297	5371.971680
2160.033203	5456.464355
2159.039063	5405.355957
2158.042969	5314.100586
2157.046875	5300.678711
2156.050781	5575.839844
2155.052734	5321.518555
2154.056641	5378.340820
2153.060547	5352.375977
2152.062500	5351.496582
2151.066406	5348.110352
2150.068359	5367.287109
2149.072266	5444.106445
2148.074219	5408.126953
2147.076172	5439.812012
2146.078125	5343.718262
2145.080078	5445.539063
2144.082031	5452.157715
2143.083984	5333.572754
2142.085938	5415.315430
2141.085938	5564.617676
2140.087891	5536.172363
2139.087891	5517.746094
2138.089844	5454.290039
2137.089844	5565.963867
2136.089844	5397.472168
2135.089844	5509.118164
2134.089844	5308.187012
2133.089844	5539.806152
2132.089844	5441.415039
2131.089844	5323.063477
2130.089844	5437.127441
2129.089844	5561.147461
2128.087891	5385.383301
2127.087891	5466.913574
2126.085938	5515.955566
2125.083984	5365.250977
2124.082031	5516.638184
2123.082031	5510.739746
2122.080078	5624.621582
2121.078125	5411.623047
2120.076172	5443.162598
2119.072266	5497.139160
2118.070313	5571.048340
2117.068359	5485.358398
2116.064453	5614.088867
2115.062500	5481.062012
2114.058594	5487.636719
2113.054688	5556.501953
2112.052734	5503.270996
2111.048828	5502.365723
2110.044922	5454.141602
2109.041016	5435.813965
2108.037109	5571.851074
2107.031250	5426.558594
2106.027344	5545.129883
2105.023438	5449.657715
2104.017578	5411.440918
2103.013672	5388.162109
2102.007813	5409.660156
2101.001953	5575.385254
2099.998047	5512.308594
2098.992188	5486.541992
2097.986328	5537.835938
2096.980469	5288.409180
2095.972656	5560.861328
2094.966797	5383.558105
2093.960938	5454.706543
2092.955078	5431.457031
2091.947266	5477.742188
2090.939453	5511.598633
2089.933594	5523.103027
2088.925781	5475.038574
2087.917969	5466.692871
2086.910156	5440.982422
2085.902344	5412.799805
2084.894531	5369.744629
2083.886719	5544.929688
2082.878906	5402.688965
2081.871094	5391.883301
2080.861328	5462.875977
2079.853516	5323.196777
2078.843750	5488.333008
2077.833984	5517.158203
2076.826172	5501.388184
2075.816406	5587.162598
2074.806641	5497.100586
2073.796875	5441.728516
2072.787109	5336.867676
2071.777344	5524.084961
2070.765625	5416.770020
2069.755859	5472.783203
2068.744141	5533.725098
2067.734375	5542.707031
2066.722656	5534.375488
2065.712891	5355.443848
2064.701172	5455.917969
2063.689453	5479.736328
2062.677734	5555.443359
2061.666016	5495.227539
2060.654297	5662.313965
2059.642578	5352.624023
2058.628906	5393.726074
2057.617188	5444.691895
2056.605469	5628.958008
2055.591797	5455.240234
2054.578125	5508.638184
2053.566406	5596.564941
2052.552734	5524.093750
2051.539063	5491.115234
2050.525391	5539.538574
2049.511719	5476.976074
2048.498047	5631.405762
2047.484375	5482.566895
2046.468750	5452.085938
2045.455078	5512.796875
2044.439453	5472.464844
2043.425781	5419.828125
2042.410156	5448.493164
2041.394531	5418.041992
2040.380859	5431.923340
2039.365234	5576.281738
2038.349609	5503.978516
2037.333984	5485.843262
2036.316406	5507.085938
2035.300781	5479.114746
2034.285156	5512.649902
2033.267578	5506.822266
2032.251953	5567.391602
2031.234375	5347.650391
2030.218750	5531.140137
2029.201172	5441.744629
2028.183594	5617.785645
2027.166016	5688.114258
2026.148438	5534.863281
2025.130859	5541.319824
2024.113281	5383.231445
2023.093750	5465.828613
2022.076172	5509.118164
2021.056641	5488.572754
2020.039063	5603.016602
2019.019531	5592.277344
2018.001953	5336.198730
2016.982422	5364.754883
2015.962891	5457.069336
2014.943359	5532.187988
2013.923828	5482.239258
2012.904297	5532.814453
2011.882813	5426.508789
2010.863281	5403.558594
2009.843750	5456.571289
2008.822266	5387.077148
2007.802734	5432.726563
2006.781250	5512.646484
2005.759766	5452.971191
2004.738281	5415.349121
2003.716797	5431.589844
2002.695313	5570.193359
2001.673828	5427.350586
2000.652344	5460.707031
1999.630859	5398.652344
1998.609375	5339.063477
1997.585938	5343.073242
1996.564453	5444.878906
1995.541016	5402.422852
1994.517578	5411.308105
1993.494141	5388.421387
1992.472656	5355.768555
1991.449219	5332.898438
1990.425781	5226.989746
1989.400391	5218.800781
1988.376953	5408.393066
1987.353516	5234.166992
1986.328125	5306.530273
1985.304688	5427.679199
1984.279297	5395.062012
1983.255859	5301.462891
1982.230469	5434.749023
1981.205078	5299.712402
1980.179688	5340.291504
1979.154297	5334.533691
1978.128906	5304.400879
1977.103516	5249.904785
1976.078125	5270.969727
1975.050781	5311.519531
1974.025391	5298.461914
1972.998047	5224.516602
1971.972656	5274.794434
1970.945313	5315.315918
1969.917969	5258.445313
1968.892578	5323.296875
1967.865234	5341.886719
1966.837891	5370.203613
1965.808594	5138.194824
1964.781250	5339.240234
1963.753906	5260.532227
1962.724609	5288.843262
1961.697266	5261.225586
1960.667969	5335.712891
1959.640625	5179.282715
1958.611328	5222.167969
1957.582031	5231.023438
1956.552734	5196.149902
1955.523438	5294.873535
1954.494141	5303.712402
1953.464844	5217.854980
1952.435547	5192.716309
1951.404297	5170.013184
1950.375000	5331.756348
1949.343750	5253.229492
1948.314453	5215.970703
1947.283203	5309.708496
1946.251953	5202.120605
1945.222656	5361.299805
1944.191406	5248.889648
1943.158203	5340.135254
1942.126953	5290.779785
1941.095703	5200.245605
1940.064453	5209.077637
1939.031250	5234.863281
1938.000000	5221.887695
1936.966797	5158.062012
1935.935547	5249.215820
1934.902344	5277.397461
1933.869141	5257.161621
1932.835938	5268.392578
1931.802734	5313.494141
1930.769531	5312.615723
1929.736328	5369.789063
1928.703125	5223.795410
1927.667969	5176.989258
1926.634766	5171.297852
1925.599609	5349.316895
1924.566406	5350.849121
1923.531250	5345.131348
1922.496094	5295.926758
1921.460938	5290.219727
1920.425781	5134.770020
1919.390625	5264.321289
1918.355469	5268.279297
1917.320313	5236.025391
1916.285156	5215.850098
1915.248047	5270.491699
1914.212891	5293.748047
1913.175781	5249.448242
1912.138672	5441.542480
1911.103516	5281.474121
1910.066406	5280.600586
1909.029297	5248.385742
1907.992188	5290.905273
1906.955078	5290.029785
1905.917969	5366.262695
1904.878906	5276.232910
1903.841797	5472.884277
1902.802734	5296.162598
1901.765625	5259.165039
1900.726563	5289.594238
1899.687500	5322.419922
1898.650391	5333.573242
1897.611328	5392.851563
1896.572266	5394.365234
1895.533203	5270.783691
1894.494141	5351.689941
1893.453125	5283.467773
1892.414063	5275.379883
1891.375000	5332.204102
1890.333984	5376.990723
1889.292969	5253.534180
1888.253906	5413.656250
1887.212891	5232.574707
1886.171875	5284.553711
1885.130859	5283.678711
1884.089844	5273.198730
1883.048828	5231.510742
1882.007813	5312.260254
1880.964844	5265.779297
1879.923828	5286.504395
1878.880859	5278.430664
1877.839844	5455.074219
1876.796875	5279.081055
1875.753906	5232.642578
1874.712891	5318.092773
1873.669922	5324.403809
1872.626953	5292.362305
1871.583984	5243.555176
1870.539063	5288.212891
1869.496094	5361.603516
1868.453125	5264.902832
1867.408203	5280.794922
1866.365234	5370.911621
1865.320313	5188.068359
1864.275391	5165.665039
1863.230469	5329.949219
1862.187500	5180.704102
1861.142578	5299.472168
1860.095703	5174.202637
1859.050781	5192.479004
1858.005859	5072.051270
1856.960938	5099.901855
1855.914063	5323.769043
1854.869141	5146.014648
1853.822266	5231.193359
1852.775391	5218.379395
1851.730469	5174.512695
1850.683594	5183.209473
1849.636719	5168.020996
1848.589844	5126.571777
1847.541016	5216.442871
1846.494141	5291.961914
1845.447266	5131.182617
1844.400391	5089.766113
1843.351563	5122.323730
1842.302734	5159.640625
1841.255859	5156.400391
1840.207031	5169.853027
1839.158203	5176.148438
1838.109375	5163.370605
1837.060547	5110.079102
1836.011719	5140.210938
1834.962891	5213.220215
1833.912109	5064.656250
1832.863281	5209.109375
1831.814453	4881.985840
1830.763672	5221.667969
1829.712891	5070.819824
1828.664063	5091.400879
1827.613281	5088.176270
1826.562500	5215.824219
1825.511719	5057.939453
1824.460938	5197.442871
1823.408203	5027.721680
1822.357422	5269.433594
1821.306641	5206.744141
1820.253906	4970.545898
1819.203125	5060.036133
1818.150391	4928.499023
1817.097656	5167.649902
1816.046875	5078.897461
1814.994141	5163.559570
1813.941406	5124.707031
1812.888672	5176.092285
1811.833984	5101.640137
1810.781250	5321.535156
1809.728516	5019.259277
1808.673828	5127.573730
1807.621094	5159.936035
1806.566406	5163.823242
1805.511719	5063.359375
1804.458984	5079.117188
1803.404297	5064.048828
1802.349609	5131.950195
1801.294922	5157.168457
1800.238281	5108.919434
1799.183594	5098.594238
1798.128906	5128.542969
1797.072266	5066.111328
1796.017578	5188.409180
1794.960938	5223.062500
1793.906250	5210.358887
1792.849609	5126.652832
1791.792969	5019.309570
1790.736328	5027.940430
1789.679688	5164.315918
1788.623047	5168.188477
1787.564453	5238.277344
1786.507813	5067.162109
1785.451172	5203.439941
1784.392578	5089.116211
1783.335938	5114.267578
1782.277344	5148.862305
1781.218750	5171.632324
1780.160156	5206.205566
1779.101563	5153.381348
1778.042969	5169.055176
1776.984375	5130.420410
1775.925781	5164.976563
1774.865234	5109.833984
1773.806641	5252.933105
1772.746094	5051.509766
1771.687500	5133.236328
1770.626953	5292.770020
1769.566406	5214.068359
1768.507813	5092.951660
1767.447266	5134.539551
1766.386719	5107.758301
1765.324219	5231.812988
1764.263672	5294.562988
1763.203125	5020.399902
1762.140625	5184.450195
1761.080078	5127.065430
1760.017578	5090.892578
1758.957031	5212.471191
1757.894531	5166.879883
1756.832031	5168.374023
1755.769531	5141.630371
1754.707031	5223.121582
1753.644531	5132.863281
1752.582031	5103.786133
1751.517578	5222.868164
1750.455078	5271.375000
1749.390625	5256.393555
1748.328125	5020.478027
1747.263672	5146.543945
1746.199219	5096.346191
1745.136719	5175.372559
1744.072266	5221.488770
1743.007813	5251.149902
1741.941406	5146.961426
1740.876953	5134.367188
1739.812500	5100.650879
1738.748047	5153.781250
1737.681641	5167.002441
1736.615234	5304.563965
1735.550781	5080.837402
1734.484375	5157.388184
1733.417969	5107.286133
1732.351563	5237.731445
1731.285156	5269.678223
1730.218750	5226.613281
1729.152344	5281.984863
1728.085938	5215.501953
1727.017578	5233.375000
1725.951172	5141.157715
1724.882813	5102.832520
1723.814453	5214.372070
1722.748047	5253.302246
1721.679688	5200.933105
1720.611328	5083.054199
1719.542969	5344.273926
1718.474609	5266.181641
1717.404297	5234.896484
1716.335938	5341.605469
1715.267578	5258.875000
1714.197266	5120.062012
1713.128906	5264.136719
1712.058594	5202.494629
1710.988281	5241.353027
1709.917969	5207.770996
1708.847656	5199.895996
1707.777344	5100.935059
1706.707031	5058.052246
1705.636719	5290.691406
1704.566406	5208.105469
1703.494141	5109.208496
1702.423828	5204.037109
1701.351563	5170.504395
1700.281250	5141.648926
1699.208984	5084.812988
1698.136719	5186.578125
1697.064453	5113.431152
1695.992188	5105.585449
1694.919922	5195.641113
1693.847656	5108.545410
1692.773438	5156.627441
1691.701172	5186.055176
1690.626953	5119.968750
1689.554688	5216.933105
1688.480469	5197.435059
1687.406250	5126.722656
1686.332031	5044.394531
1685.257813	5180.872559
1684.183594	5091.581055
1683.109375	4997.666504
1682.035156	5134.083496
1680.960938	5163.464355
1679.884766	5202.137207
1678.810547	5305.899902
1677.734375	5207.377441
1676.658203	5122.833008
1675.583984	5231.204590
1674.507813	5202.449707
1673.431641	5122.594727
1672.355469	5172.841797
1671.279297	5132.499023
1670.201172	5245.421387
1669.125000	5095.963379
1668.048828	5164.750488
1666.970703	5038.563477
1665.892578	5167.669434
1664.816406	5192.328125
1663.738281	5094.035645
1662.660156	5148.849121
1661.582031	5127.120117
1660.503906	5242.191406
1659.425781	5132.364746
1658.347656	5161.639160
1657.267578	5112.113770
1656.189453	5134.430664
1655.109375	5170.639648
1654.031250	5040.069824
1652.951172	5122.598633
1651.871094	5054.596191
1650.791016	5053.752930
1649.710938	4958.008789
1648.630859	5112.237793
1647.550781	5129.895996
1646.470703	5191.504883
1645.388672	5051.851563
1644.308594	5069.510254
1643.226563	4999.293945
1642.146484	4966.092285
1641.064453	5154.812500
1639.982422	5056.882324
1638.900391	5046.794922
1637.818359	4935.052734
1636.736328	4978.119629
1635.654297	5018.862305
1634.570313	4976.458008
1633.488281	5164.955078
1632.406250	5007.115234
1631.322266	5098.604004
1630.238281	4973.135742
1629.156250	5011.530273
1628.072266	5045.297852
1626.988281	4952.192871
1625.904297	4889.099121
1624.820313	4989.737793
1623.734375	4864.412109
1622.650391	4983.461426
1621.566406	5017.198730
1620.480469	5055.533203
1619.396484	5017.827148
1618.310547	5003.167969
1617.224609	4995.422852
1616.138672	4858.728516
1615.052734	4943.103027
1613.966797	4972.202637
1612.880859	4987.483398
1611.794922	4908.410156
1610.708984	5036.434570
1609.621094	5012.588867
1608.535156	5009.451660
1607.447266	5022.412598
1606.359375	4966.391113
1605.273438	4970.159180
1604.185547	4978.522461
1603.097656	4888.064941
1602.009766	4972.263672
1600.921875	4953.054199
1599.832031	4766.173340
1598.744141	4877.908691
1597.654297	4840.354492
1596.566406	4899.236328
1595.476563	4955.802734
1594.388672	4893.008789
1593.298828	4938.083496
1592.208984	5001.497559
1591.119141	5000.661621
1590.029297	4931.020508
1588.939453	4971.472656
1587.847656	4883.517578
1586.757813	4942.302246
1585.666016	4891.052734
1584.576172	4988.772949
1583.484375	5003.977051
1582.392578	4952.742676
1581.302734	5054.983887
1580.210938	4983.146973
1579.119141	4973.154785
1578.025391	5004.373047
1576.933594	4989.802734
1575.841797	5075.932129
1574.750000	5162.032227
1573.656250	5058.220215
1572.562500	5039.075195
1571.470703	5006.214355
1570.376953	5243.183594
1569.283203	5155.430176
1568.189453	5145.424316
1567.095703	5062.287109
1566.001953	5075.150879
1564.908203	4912.088379
1563.812500	5121.423340
1562.718750	5170.812500
1561.623047	5048.919434
1560.529297	5187.347656
1559.433594	5115.713379
1558.337891	5162.787598
1557.242188	5120.847168
1556.146484	5183.875977
1555.050781	5267.415039
1553.955078	5266.533203
1552.859375	5083.212891
1551.761719	5098.322754
1550.666016	5143.063965
1549.568359	5247.052734
1548.472656	5155.016113
1547.375000	5186.053223
1546.277344	5164.681152
1545.179688	5097.759766
1544.082031	5065.021973
1542.984375	5036.849121
1541.886719	5051.942871
1540.787109	5105.728027
1539.689453	5129.908203
1538.589844	5199.590332
1537.492188	5080.412109
1536.392578	5063.637695
1535.292969	5080.984863
1534.193359	5089.229980
1533.095703	5092.924805
1531.994141	5187.548340
1530.894531	5091.218750
1529.794922	5106.273438
1528.695313	5007.717773
1527.593750	5027.324219
1526.494141	5146.863281
1525.392578	5116.478516
1524.291016	5038.421387
1523.189453	5008.064941
1522.089844	4977.718262
1520.988281	5103.972656
1519.884766	4987.395508
1518.783203	5004.708984
1517.681641	5117.285645
1516.580078	5100.552734
1515.476563	5156.386230
1514.373047	5026.293945
1513.271484	5039.052246
1512.167969	5063.138184
1511.064453	4924.062500
1509.960938	5113.550781
1508.857422	5065.123047
1507.753906	5091.452637
1506.650391	5122.302246
1505.544922	5055.784180
1504.441406	4907.793457
1503.335938	4995.241699
1502.232422	5141.498047
1501.126953	5041.081543
1500.021484	5112.627441
1498.916016	4917.251465
1497.810547	4907.380859
1496.705078	4951.779785
1495.599609	4887.649414
1494.494141	4984.023926
1493.386719	5017.087402
1492.281250	4846.778320
1491.173828	4938.592285
1490.068359	4860.964355
1488.960938	5013.722168
1487.853516	4877.397949
1486.746094	4921.733398
1485.638672	4925.422363
1484.531250	4917.825684
1483.423828	4849.304199
1482.314453	4929.712402
1481.207031	4897.304199
1480.097656	4837.842285
1478.990234	4900.171387
1477.880859	4795.635254
1476.771484	4923.323730
1475.662109	5091.539551
1474.552734	4917.164551
1473.443359	4990.692871
1472.333984	4904.250488
1471.224609	4876.398926
1470.113281	4931.880371
1469.003906	4859.000977
1467.892578	4896.456055
1466.783203	4789.843750
1465.671875	4939.822266
1464.560547	4927.742676
1463.449219	4800.930176
1462.337891	4935.085449
1461.226563	4976.987793
1460.115234	4883.959473
1459.001953	4937.096680
1457.890625	4877.823730
1456.777344	4917.458984
1455.666016	4741.360352
1454.552734	4904.574219
1453.439453	4923.967773
1452.326172	4878.221680
1451.212891	4913.331543
1450.099609	4961.900879
1448.986328	4907.191406
1447.873047	4975.945313
1446.757813	4892.078613
1445.644531	4877.794922
1444.529297	4962.221680
1443.414063	4907.557129
1442.300781	4924.673340
1441.185547	4867.791504
1440.070313	4911.809570
1438.955078	4845.982910
1437.839844	4881.025391
1436.722656	4853.317383
1435.607422	4917.470703
1434.492188	4797.927734
1433.375000	4859.829102
1432.257813	4870.208496
1431.142578	4876.105957
1430.025391	4857.379395
1428.908203	4928.180176
1427.791016	4790.854004
1426.673828	4975.744141
1425.556641	4849.640625
1424.437500	4875.663574
1423.320313	4962.054688
1422.201172	4865.081543
1421.083984	4964.857422
1419.964844	4870.150879
1418.845703	4880.505371
1417.726563	4861.810547
1416.607422	4896.735352
1415.488281	4891.445313
1414.369141	4819.161621
1413.250000	4943.387207
1412.128906	4830.935059
1411.009766	4798.874512
1409.888672	4829.310547
1408.769531	4730.321777
1407.648438	4847.764160
1406.527344	4936.169922
1405.406250	4868.435059
1404.285156	4825.250488
1403.164063	4788.768066
1402.042969	4709.946289
1400.919922	4827.272949
1399.798828	4837.602051
1398.675781	4834.560059
1397.554688	4835.974121
1396.431641	4775.027344
1395.308594	4747.502441
1394.185547	4871.382324
1393.062500	4812.686035
1391.939453	4794.070801
1390.816406	4895.626953
1389.693359	4632.263672
1388.568359	4756.058105
1387.445313	4704.101563
1386.320313	4750.009766
1385.197266	4664.720215
1384.072266	4730.626465
1382.947266	4749.833984
1381.822266	4635.697266
1380.697266	4688.243164
1379.572266	4722.998535
1378.445313	4742.193848
1377.320313	4808.019043
1376.195313	4713.952148
1375.068359	4781.979492
1373.941406	4739.000488
1372.816406	4920.185059
1371.689453	4750.718262
1370.562500	4694.454102
1369.435547	4802.354492
1368.308594	4648.517090
1367.179688	4661.038574
1366.052734	4771.106445
1364.923828	4801.336426
1363.796875	4698.577148
1362.667969	4744.320801
1361.541016	4703.641113
1360.412109	4654.114746
1359.283203	4679.908203
1358.154297	4741.124023
1357.025391	4811.175781
1355.894531	4774.945801
1354.765625	4705.528320
1353.636719	4753.420410
1352.505859	4706.155273
1351.376953	4747.394043
1350.246094	4943.446777
1349.115234	4772.331543
1347.984375	4733.938477
1346.853516	4817.147949
1345.722656	4721.291016
1344.591797	4722.705566
1343.460938	4823.550781
1342.328125	4701.230469
1341.197266	4916.905273
1340.064453	4865.281250
1338.933594	4736.390625
1337.800781	4788.577637
1336.667969	4611.181641
1335.535156	4868.622070
1334.402344	4883.247070
1333.269531	4708.130371
1332.134766	4729.395020
1331.001953	4770.501953
1329.869141	4771.902832
1328.734375	4735.821777
1327.599609	4690.935547
1326.466797	4809.161133
1325.332031	4779.702637
1324.197266	4745.847168
1323.062500	4804.524902
1321.927734	4823.537109
1320.791016	4913.011719
1319.656250	4742.645508
1318.519531	4843.110352
1317.384766	4793.870117
1316.248047	4885.489746
1315.113281	4776.850586
1313.976563	4703.446777
1312.839844	4773.039063
1311.703125	4671.071289
1310.566406	4707.662598
1309.427734	4856.362305
1308.291016	4796.194824
1307.154297	4696.488770
1306.015625	4893.455566
1304.878906	4738.842773
1303.740234	4911.573242
1302.601563	4901.959473
1301.462891	4839.647949
1300.324219	4764.184570
1299.185547	4701.917480
1298.046875	4852.560547
1296.906250	4794.687500
1295.767578	4723.670410
1294.626953	4742.615234
1293.488281	4781.292969
1292.347656	4703.734863
1291.207031	4691.978027
1290.066406	4710.914551
1288.925781	4587.379883
1287.785156	4639.198730
1286.644531	4701.955078
1285.503906	4729.639648
1284.361328	4555.807617
1283.220703	4815.638672
1282.078125	4657.177734
1280.937500	4719.876953
1279.794922	4659.981934
1278.652344	4665.759766
1277.509766	4704.356934
1276.367188	4622.616699
1275.224609	4659.020508
1274.080078	4726.029297
1272.937500	4674.938965
1271.794922	4717.873535
1270.650391	4699.589355
1269.505859	4698.794922
1268.363281	4614.966309
1267.218750	4714.685059
1266.074219	4587.193848
1264.929688	4645.386719
1263.783203	4690.458008
1262.638672	4809.745117
1261.494141	4778.371582
1260.347656	4749.190918
1259.203125	4615.275879
1258.056641	4642.858887
1256.910156	4607.170898
1255.763672	4737.255371
1254.617188	4653.588379
1253.470703	4705.129395
1252.324219	4739.212891
1251.177734	4677.382813
1250.031250	4615.574219
1248.882813	4623.508789
1247.734375	4727.293457
1246.587891	4826.687012
1245.439453	4852.003418
1244.291016	4622.559082
1243.142578	4787.229004
1241.994141	4773.359375
1240.845703	4829.134766
1239.697266	4854.428711
1238.546875	4762.235352
1237.398438	4796.231934
1236.248047	4849.790527
1235.099609	4742.422852
1233.949219	4815.538574
1232.798828	4892.976563
1231.648438	4729.149414
1230.498047	4882.628906
1229.347656	4862.249023
1228.197266	4857.082031
1227.044922	4893.181152
1225.894531	5044.356934
1224.742188	4937.118164
1223.591797	4925.428711
1222.439453	4883.357910
1221.287109	4917.251465
1220.134766	4961.981445
1218.982422	4991.511230
1217.830078	5073.084961
1216.677734	5009.338379
1215.523438	4850.212891
1214.371094	5103.025879
1213.216797	5006.793945
1212.064453	4927.931641
1210.910156	4998.598145
1209.755859	5019.415039
1208.601563	5072.714355
1207.447266	5045.868164
1206.292969	5161.936523
1205.136719	5115.599609
1203.982422	5060.620605
1202.828125	5048.942383
1201.671875	5037.268555
1200.515625	5157.565918
1199.361328	5254.028809
1198.205078	5244.488281
1197.048828	5306.306641
1195.892578	5249.196777
1194.736328	5315.316406
1193.578125	5264.708008
1192.421875	5257.333008
1191.265625	5208.911621
1190.107422	5270.672363
1188.949219	5243.862305
1187.792969	5454.592285
1186.634766	5313.332031
1185.476563	5267.100098
1184.318359	5348.221680
1183.160156	5345.157227
1182.000000	5270.894531
1180.841797	5382.174316
1179.681641	5389.889160
1178.523438	5483.859375
1177.363281	5530.363770
1176.203125	5384.992676
1175.044922	5459.517090
1173.884766	5368.081543
1172.724609	5470.593262
1171.562500	5553.681641
1170.402344	5539.816406
1169.242188	5670.242188
1168.080078	5568.082031
1166.919922	5659.708008
1165.757813	5589.870117
1164.595703	5511.447266
1163.433594	5665.435059
1162.271484	5722.560059
1161.109375	5624.795410
1159.947266	5847.504395
1158.785156	5784.155273
1157.621094	5768.125000
1156.458984	5786.491699
1155.294922	5873.625000
1154.132813	5969.323730
1152.968750	5871.631836
1151.804688	5866.339355
1150.640625	5809.503906
1149.476563	6085.522949
1148.312500	6041.550781
1147.146484	6040.525391
1145.982422	6097.448730
1144.818359	6143.622559
1143.652344	6123.270020
1142.486328	6122.230957
1141.320313	6153.363281
1140.156250	6186.628906
1138.990234	6286.349121
1137.822266	6265.988281
1136.656250	6219.915039
1135.490234	6416.010742
1134.324219	6474.913574
1133.156250	6377.414063
1131.988281	6331.351563
1130.822266	6612.954590
1129.654297	6562.585449
1128.486328	6629.975586
1127.318359	6558.215820
1126.150391	6574.222168
1124.982422	6620.178711
1123.812500	6644.726074
1122.644531	6684.237305
1121.474609	6841.357910
1120.306641	6754.666016
1119.136719	6849.722656
1117.966797	6901.996582
1116.796875	7001.269043
1115.626953	7074.866699
1114.457031	7092.892090
1113.287109	7119.455566
1112.115234	6943.119141
1110.945313	7093.547363
1109.773438	7295.163086
1108.603516	7340.884277
1107.431641	7237.193359
1106.259766	7460.020020
1105.087891	7473.686523
1103.916016	7350.826660
1102.744141	7582.050781
1101.572266	7527.451172
1100.398438	7647.698730
1099.226563	7582.447754
1098.052734	7534.269043
1096.880859	7607.571777
1095.707031	7672.327148
1094.533203	7775.404785
1093.359375	7710.186035
1092.185547	7862.200684
1091.011719	8063.133789
1089.837891	7951.064941
1088.662109	7988.024414
1087.488281	8114.350098
1086.312500	8059.777344
1085.138672	8324.325195
1083.962891	8269.734375
1082.787109	8349.139648
1081.611328	8230.774414
1080.435547	8365.431641
1079.259766	8551.056641
1078.082031	8538.975586
1076.906250	8673.510742
1075.728516	8578.558594
1074.552734	8772.515625
1073.375000	8705.187500
1072.197266	8818.368164
1071.019531	8876.311523
1069.841797	9080.698242
1068.664063	9062.173828
1067.486328	8975.754883
1066.308594	9069.697266
1065.128906	9165.728516
1063.951172	9145.081055
1062.771484	9245.306641
1061.591797	9508.748047
1060.412109	9189.165039
1059.232422	9380.465820
1058.052734	9667.058594
1056.873047	9542.529297
1055.693359	9379.912109
1054.513672	9890.860352
1053.332031	9632.946289
1052.152344	9720.230469
1050.970703	9724.924805
1049.789063	9877.774414
1048.607422	9939.576172
1047.425781	9961.157227
1046.244141	10149.849609
1045.062500	10253.874023
1043.880859	10112.556641
1042.697266	10064.317383
1041.515625	10276.116211
1040.332031	10259.570313
1039.150391	10422.657227
1037.966797	10437.785156
1036.783203	10393.754883
1035.599609	10349.740234
1034.416016	10538.041016
1033.232422	10557.360352
1032.046875	10614.671875
1030.863281	10602.309570
1029.677734	10708.131836
1028.494141	10839.239258
1027.308594	10782.540039
1026.123047	10841.872070
1024.937500	10810.498047
1023.751953	10949.931641
1022.566406	10889.034180
1021.380859	10918.795898
1020.193359	10830.525391
1019.007813	11012.001953
1017.820313	10864.754883
1016.634766	10999.821289
1015.447266	11014.793945
1014.259766	11065.558594
1013.072266	11122.621094
1011.884766	10868.124023
1010.697266	11158.815430
1009.509766	11066.427734
1008.320313	10887.810547
1007.132813	11153.106445
1005.943359	11212.197266
1004.753906	11239.724609
1003.566406	11092.734375
1002.376953	11322.077148
1001.187500	11149.901367
999.998047	11219.447266
998.806641	11186.016602
997.617188	11112.684570
996.427734	11274.614258
995.236328	11381.889648
994.046875	11228.774414
992.855469	11163.879883
991.664063	11176.666992
990.472656	11036.254883
989.281250	11086.826172
988.089844	11057.662109
986.898438	11085.138672
985.705078	11129.382813
984.513672	11125.386719
983.320313	11142.354492
982.126953	11153.028320
980.935547	11079.871094
979.742188	11145.029297
978.548828	10820.501953
977.355469	11036.493164
976.162109	10999.005859
974.966797	11005.502930
973.773438	11003.624023
972.578125	10924.296875
971.384766	10899.410156
970.189453	10889.178711
968.994141	11023.305664
967.798828	10755.770508
966.603516	10839.679688
965.408203	10936.106445
964.212891	10700.082031
963.015625	10800.679688
961.820313	10782.115234
960.623047	10817.885742
959.427734	10596.666016
958.230469	10759.877930
957.033203	10718.356445
955.835938	10752.024414
954.638672	10639.532227
953.441406	10664.850586
952.244141	10702.682617
951.044922	10596.515625
949.847656	10719.888672
948.648438	10586.635742
947.449219	10603.596680
946.251953	10485.005859
945.052734	10541.592773
943.853516	10456.406250
942.654297	10465.039063
941.453125	10425.739258
940.253906	10473.961914
939.054688	10578.413086
937.853516	10522.451172
936.652344	10376.960938
935.453125	10258.587891
934.251953	10415.046875
933.050781	10515.253906
931.849609	10330.323242
930.646484	10326.475586
929.445313	10437.047852
928.244141	10443.582031
927.041016	10190.161133
925.839844	10223.764648
924.636719	10253.199219
923.433594	10203.638672
922.230469	10293.333008
921.027344	10029.763672
919.824219	10119.457031
918.621094	9910.011719
917.417969	10057.843750
916.212891	10122.568359
915.009766	9907.000000
913.804688	9899.078125
912.599609	9974.171875
911.394531	10051.314453
910.189453	9734.247070
908.984375	9838.370117
907.779297	9701.879883
906.574219	9768.646484
905.367188	9843.683594
904.162109	9632.638672
902.955078	9568.813477
901.750000	9473.927734
900.542969	9447.443359
899.335938	9373.325195
898.128906	9342.724609
896.921875	9378.397461
895.712891	9298.117188
894.505859	9296.524414
893.298828	9224.562500
892.089844	9200.219727
890.880859	9169.678711
889.673828	9135.009766
888.464844	9102.420898
887.255859	8925.088867
886.046875	9153.058594
884.835938	8872.418945
883.626953	8953.572266
882.417969	8877.644531
881.207031	8601.327148
879.998047	8653.563477
878.787109	8691.323242
877.576172	8729.070313
876.365234	8492.196289
875.154297	8614.602539
873.943359	8470.708984
872.732422	8446.556641
871.519531	8284.170898
870.308594	8381.772461
869.095703	8419.524414
867.884766	8279.911133
866.671875	8185.706543
865.458984	8064.733887
864.246094	8090.146484
863.033203	8072.272461
861.820313	8252.209961
860.605469	8104.526367
859.392578	8022.805176
858.177734	7871.091797
856.964844	7985.049316
855.750000	7932.211914
854.535156	7782.649902
853.320313	7766.908691
852.105469	7656.520996
850.890625	7776.587891
849.675781	7890.442871
848.458984	7562.090820
847.244141	7527.893555
846.027344	7639.675781
844.810547	7445.144531
843.595703	7711.040527
842.378906	7475.466797
841.162109	7498.837891
839.943359	7392.790527
838.726563	7483.941406
837.509766	7449.802246
836.291016	7489.584961
835.074219	7387.716309
833.855469	7431.600098
832.636719	7571.913086
831.417969	7260.812988
830.199219	7366.234375
828.980469	7326.001465
827.761719	7277.580078
826.542969	7438.299805
825.322266	7490.319824
824.103516	7405.002441
822.882813	7262.336426
821.664063	7379.922363
820.443359	7481.079102
819.222656	7530.997559
818.001953	7372.024902
816.779297	7538.647949
815.558594	7406.339844
814.337891	7372.319824
813.115234	7524.531738
811.894531	7574.389648
810.671875	7415.571289
809.449219	7506.336914
808.226563	7537.766602
807.003906	7573.274902
805.781250	7551.530762
804.558594	7611.550781
803.333984	7524.412598
802.111328	7519.033203
800.886719	7576.983887
799.664063	7636.957031
798.439453	7654.023926
797.214844	7579.203125
795.990234	7624.854004
794.765625	7501.076660
793.541016	7624.273438
792.314453	7700.498047
791.089844	7613.491699
789.863281	7591.785645
788.638672	7745.471680
787.412109	7768.607910
786.185547	7661.261719
784.958984	7670.135742
783.732422	7723.841309
782.505859	7685.836426
781.279297	7847.494629
780.050781	7736.152344
778.824219	7791.845215
777.595703	7831.228516
776.367188	7746.411621
775.140625	7600.558594
773.912109	7617.567383
772.683594	7711.892578
771.453125	7785.840332
770.224609	7810.943848
768.996094	7687.575195
767.765625	7824.523438
766.537109	7766.251465
765.306641	7825.895996
764.076172	7897.713867
762.845703	7892.290527
761.615234	7819.824219
760.384766	7727.069824
759.154297	7865.875488
757.921875	8012.755371
756.691406	7924.075195
755.458984	8005.937012
754.228516	8087.770508
752.996094	7844.902832
751.763672	7983.542969
750.531250	8049.108887
749.298828	7992.962891
748.066406	7944.946777
746.832031	7965.880859
745.599609	7990.861328
744.365234	8034.073730
743.132813	8095.508789
741.898438	8122.479492
740.664063	8064.360352
739.429688	8048.793945
738.195313	8170.933105
736.960938	8072.341797
735.724609	8137.753418
734.490234	8195.046875
733.255859	8100.547852
732.019531	8155.803711
730.783203	8198.902344
729.546875	8195.467773
728.310547	8111.144043
727.074219	8259.365234
725.837891	8259.962891
724.601563	8214.073242
723.363281	8283.386719
722.126953	8108.197754
720.888672	8244.168945
719.650391	8208.412109
718.414063	8194.879883
717.175781	8439.795898
715.937500	8297.029297
714.697266	8281.469727
713.458984	8199.320313
712.220703	8201.941406
710.980469	8452.696289
709.742188	8489.561523
708.501953	8399.365234
707.261719	8426.144531
706.021484	8525.489258
704.781250	8306.333008
703.541016	8397.602539
702.300781	8438.466797
701.058594	8461.186523
699.818359	8437.570313
698.576172	8542.849609
697.335938	8575.606445
696.093750	8531.849609
694.851563	8612.903320
693.609375	8627.517578
692.367188	8553.591797
691.123047	8684.893555
689.880859	8610.983398
688.638672	8762.340820
687.394531	8726.645508
686.150391	8682.920898
684.908203	8627.150391
683.664063	8708.059570
682.419922	8726.650391
681.175781	8707.062500
679.929688	8727.654297
678.685547	8663.889648
677.439453	8790.904297
676.195313	8771.318359
674.949219	8735.679688
673.703125	8754.240234
672.458984	8800.886719
671.212891	8759.242188
669.964844	8755.723633
668.718750	8802.344727
667.472656	8762.725586
666.224609	8751.187500
664.978516	8741.658203
663.730469	9030.751953
662.482422	8914.974609
661.234375	9047.666016
659.986328	8953.959961
658.738281	8936.390625
657.490234	9073.014648
656.242188	8993.365234
654.992188	8959.783203
653.744141	8988.255859
652.494141	8926.671875
651.244141	8753.068359
649.994141	8935.588867
648.744141	8966.043945
647.494141	8972.493164
646.244141	9112.893555
644.994141	9039.355469
643.742188	9037.792969
642.492188	8998.263672
641.240234	9178.519531
639.988281	8977.173828
638.738281	9141.393555
637.486328	9041.964844
636.232422	9192.138672
634.980469	9246.443359
633.728516	9011.328125
632.474609	9199.343750
631.222656	9022.177734
629.968750	9078.467773
628.714844	9190.583008
627.462891	8905.825195
626.208984	9259.180664
624.953125	9385.159180
623.699219	9359.618164
622.445313	9216.513672
621.191406	9212.926758
619.935547	9470.301758
618.679688	9440.778320
617.425781	9564.601563
616.169922	9457.421875
614.914063	9676.751953
613.658203	9623.328125
612.400391	9784.842773
611.144531	9769.221680
609.888672	9701.883789
608.630859	9841.420898
607.373047	9935.171875
606.117188	10070.643555
604.859375	10092.754883
603.601563	10230.139648
602.343750	10345.616211
601.083984	10236.532227
599.826172	10431.428711
598.568359	10354.146484
597.308594	10465.547852
596.048828	10541.170898
594.791016	10767.641602
593.531250	10694.323242
592.271484	10873.059570
591.011719	10976.336914
589.750000	10839.536133
588.490234	11103.443359
587.230469	11226.456055
585.968750	11347.444336
584.707031	11258.250977
583.447266	11626.951172
582.185547	11466.397461
580.923828	11484.224609
579.662109	11506.006836
578.398438	11682.278320
577.136719	11626.783203
575.875000	11672.289063
574.611328	11731.636719
573.347656	11913.682617
572.085938	11782.982422
570.822266	11804.683594
569.558594	11943.097656
568.292969	12071.574219
567.029297	11938.957031
565.765625	11980.387695
564.500000	11936.794922
563.236328	11970.303711
561.970703	12061.112305
560.705078	12090.635742
559.439453	12272.267578
558.173828	12240.510742
556.908203	12402.303711
555.642578	12305.375000
554.376953	12182.813477
553.109375	12281.368164
551.843750	12178.587891
550.576172	12391.551758
549.308594	12278.922852
548.041016	12420.785156
546.773438	12266.774414
545.505859	12588.022461
544.238281	12613.439453
542.968750	12729.517578
541.701172	12735.192383
540.431641	12557.613281
539.164063	12807.606445
537.894531	12769.927734
536.625000	12720.445313
535.355469	12814.722656
534.085938	12930.622070
532.814453	12940.187500
531.544922	12967.461914
530.273438	13207.238281
529.003906	13126.250977
527.732422	13131.839844
526.460938	13298.694336
525.189453	13626.730469
523.917969	13380.581055
522.646484	13301.596680
521.375000	13619.632813
520.101563	13603.512695
518.830078	13589.362305
517.556641	13840.395508
516.283203	13784.964844
515.011719	14084.966797
513.738281	13970.613281
512.462891	14107.554688
511.189453	14032.488281
509.916016	14198.802734
508.642578	14249.307617
507.367188	14262.524414
506.091797	14438.517578
504.818359	14385.025391
503.542969	14382.525391
502.267578	14699.539063
500.992188	14452.001953
499.714844	14514.154297
498.439453	14615.467773
497.164063	14681.487305
495.886719	14602.553711
494.609375	14723.378906
493.333984	14705.157227
492.056641	14679.110352
490.779297	14676.558594
489.501953	14810.982422
488.222656	14726.236328
486.945313	14559.361328
485.666016	14619.415039
484.388672	14638.381836
483.109375	14485.293945
481.830078	14580.512695
480.550781	14579.931641
479.271484	14251.064453
477.992188	14387.300781
476.712891	14517.628906
475.433594	14364.718750
474.152344	14354.409180
472.871094	14191.816406
471.591797	14101.505859
470.310547	14067.825195
469.029297	14034.155273
467.748047	13959.526367
466.466797	13871.266602
465.183594	13843.499023
463.902344	13829.389648
462.619141	13867.925781
461.337891	13769.995117
460.054688	13831.915039
458.771484	13893.812500
457.488281	13472.508789
456.205078	13649.375977
454.921875	13432.760742
453.638672	13556.996094
452.353516	13595.521484
451.070313	13620.406250
449.785156	13365.019531
448.500000	13339.341797
447.214844	13300.052734
445.929688	13198.528320
444.644531	13277.916016
443.359375	13341.718750
442.072266	13201.354492
440.787109	13218.494141
439.500000	13171.489258
438.214844	13116.727539
436.927734	13034.785156
435.640625	13226.767578
434.353516	13197.272461
433.066406	13084.287109
431.777344	13099.480469
430.490234	13198.139648
429.203125	12920.239258
427.914063	13152.790039
426.625000	12820.667969
425.335938	13233.558594
424.046875	12887.960938
422.757813	12938.071289
421.468750	12798.160156
420.179688	12768.790039
418.888672	12931.306641
417.599609	12713.955078
416.308594	12827.987305
415.017578	12703.710938
413.728516	12668.570313
412.437500	12861.943359
411.144531	12737.725586
409.853516	12667.751953
408.562500	12764.250000
407.269531	12734.932617
405.978516	12655.320313
404.685547	12674.391602
403.392578	12552.266602
402.099609	12376.039063
400.806641	12631.025391
399.513672	12352.390625
398.220703	12520.317383
396.927734	12504.605469
395.632813	12490.832031
394.337891	12451.949219
393.044922	12306.852539
391.750000	12374.223633
390.455078	12321.865234
389.160156	12327.436523
387.865234	12178.600586
386.568359	12253.664063
385.273438	12147.338867
383.976563	12282.179688
382.681641	12204.816406
381.384766	12154.476563
380.087891	12036.672852
378.791016	12183.003906
377.494141	12148.111328
376.197266	12088.179688
374.898438	12321.124023
373.601563	12132.117188
372.302734	12193.556641
371.005859	12170.244141
369.707031	12119.985352
368.408203	12158.293945
367.109375	12281.273438
365.810547	12096.316406
364.509766	12121.139648
363.210938	12219.051758
361.910156	12153.447266
360.611328	12257.087891
359.310547	12022.306641
358.009766	11975.993164
356.708984	12114.204102
355.408203	12040.986328
354.107422	12127.262695
352.804688	12228.875000
351.503906	12232.500000
350.201172	12213.079102
348.900391	12214.784180
347.597656	12091.712891
346.294922	12152.935547
344.992188	11972.347656
343.689453	12135.255859
342.386719	12136.970703
341.082031	12154.028320
339.779297	12151.903320
338.474609	12278.235352
337.169922	12214.747070
335.867188	12078.448242
334.562500	12055.256836
333.257813	12001.417969
331.951172	12064.449219
330.646484	12108.305664
329.341797	12155.975586
328.035156	12015.998047
326.728516	11981.353516
325.423828	11875.906250
324.117188	11925.495117
322.810547	11672.771484
321.503906	11923.235352
320.195313	11720.327148
318.888672	11926.711914
317.580078	11815.645508
316.273438	11731.378906
314.964844	11859.291016
313.656250	11608.796875
312.347656	11631.602539
311.039063	11644.847656
309.730469	11881.547852
308.421875	11877.558594
307.111328	11896.480469
305.802734	11966.936523
304.492188	11856.052734
303.181641	11899.774414
301.871094	11880.519531
300.560547	11844.102539
299.250000	11842.028320
297.939453	12169.848633
296.628906	12026.630859
295.316406	11948.275391
294.005859	12020.512695
292.693359	11923.128906
291.380859	11991.534180
290.068359	12046.580078
288.755859	11953.050781
287.443359	11893.829102
286.130859	11998.363281
284.816406	12022.911133
283.503906	12060.772461
282.189453	12030.115234
280.875000	11889.120117
279.560547	12143.837891
278.246094	12042.810547
276.931641	12048.305664
275.617188	11939.725586
274.300781	12125.821289
272.986328	11840.511719
271.669922	11984.753906
270.355469	11961.753906
269.039063	12176.207031
267.722656	12094.303711
266.406250	12067.498047
265.089844	12044.497070
263.771484	12099.332031
262.455078	11918.807617
261.136719	12028.673828
259.820313	12058.817383
258.501953	12212.248047
257.183594	11978.724609
255.865234	12115.048828
254.546875	12044.670898
253.228516	12006.541992
251.908203	12228.074219
250.589844	12208.874023
249.269531	12252.202148
247.949219	12267.100586
246.628906	12308.507813
245.310547	12329.070313
243.988281	12374.238281
242.667969	12396.673828
241.347656	12642.426758
240.025391	12288.249023
238.705078	12507.446289
237.382813	12478.768555
236.060547	12444.426758
234.738281	12531.115234
233.416016	12623.445313
232.093750	12606.106445
230.771484	12622.791992
229.449219	12501.531250
228.125000	12531.454102
226.800781	12610.477539
225.478516	12680.029297
224.154297	12581.500977
222.830078	12634.041016
221.505859	12522.340820
220.181641	12646.588867
218.855469	12697.201172
217.531250	12759.115234
216.205078	12566.360352
214.878906	12692.396484
213.554688	12528.003906
212.228516	12644.575195
210.902344	12632.928711
209.574219	12922.825195
208.248047	12758.504883
206.921875	12611.198242
205.593750	12801.111328
204.265625	12683.980469
202.939453	12851.217773
201.611328	13071.109375
200.283203	12780.820313
198.955078	12908.428711
197.625000	12913.686523
196.296875	12849.333008
194.968750	13022.003906
193.638672	13153.240234
192.308594	13263.747070
190.978516	13255.774414
189.648438	13198.933594
188.318359	13377.027344
186.988281	13243.144531
185.658203	13383.593750
184.326172	13619.788086
182.996094	13559.174805
181.664063	13599.975586
180.332031	13789.072266
179.000000	13831.694336
177.667969	13851.781250
176.335938	13680.472656
175.003906	13811.262695
173.669922	13640.020508
172.337891	13787.648438
171.003906	13768.346680
169.669922	13707.808594
168.335938	13572.315430
167.001953	13852.906250
165.667969	14002.238281
164.333984	13900.484375
163.000000	13972.959961
161.664063	13871.246094
160.328125	13810.759766
158.994141	13853.257813
157.658203	13884.509766
156.322266	13988.734375
154.986328	14010.595703
153.650391	13837.890625
152.312500	14086.088867
150.976563	13877.898438
149.638672	14088.606445
148.302734	14067.430664
146.964844	14182.706055
145.626953	14282.990234
144.289063	14386.974609
142.949219	14347.078125
141.611328	14505.179688
140.273438	14784.608398
138.933594	14613.962891
137.595703	14889.540039
136.255859	14931.710938
134.916016	15029.851563
133.576172	14812.634766
132.236328	15050.670898
130.894531	15335.250977
129.554688	15448.166992
128.212891	15367.134766
126.873047	15327.142578
125.531250	15259.206055
124.189453	15521.133789
122.847656	15510.945313
121.505859	15472.816406
120.164063	15442.150391
118.820313	15364.939453
117.478516	15704.812500
116.134766	15473.074219
114.792969	15565.266602
113.449219	15488.086914
112.105469	15412.792969
110.761719	15624.000000
109.417969	15589.625977
108.072266	15828.619141
106.728516	15863.011719
105.382813	15958.735352
104.039063	15905.737305
102.693359	15713.389648
101.347656	15732.912109
100.001953	15828.587891
98.654297	16165.674805
97.308594	15973.414063
95.962891	16275.080078
94.615234	16288.914063
93.269531	16454.931641
91.921875	16331.410156
90.574219	16395.318359
89.226563	16537.111328
87.878906	16326.471680
86.529297	16343.987305
85.181641	16452.341797
83.832031	16564.363281
82.484375	16494.718750
81.134766	16512.187500
79.785156	16190.610352
78.435547	16506.357422
77.085938	16470.105469
75.736328	16454.234375
74.384766	16390.232422
73.035156	16220.742188
71.683594	16099.430664
70.332031	16131.744141
68.982422	16114.093750
67.630859	15824.536133
66.279297	15705.227539
64.925781	15423.240234
63.574219	15374.295898
62.220703	15170.099609
60.869141	15250.583008
59.515625	14782.247070
58.162109	14448.940430
56.808594	13860.846680
55.455078	13597.997070
54.101563	13047.190430
52.748047	12607.346680
51.392578	12230.416016
