#Wave		#Intensity
4002.114258	4406.350586
4001.416016	4549.530273
4000.717773	4419.958008
4000.018555	4526.597656
3999.320313	4400.648438
3998.621094	4636.035645
3997.921875	4588.794922
3997.223633	4559.449219
3996.524414	4315.584961
3995.824219	4522.234863
3995.125000	4628.737305
3994.425781	4567.240234
3993.725586	4637.969238
3993.026367	4537.191406
3992.326172	4654.338867
3991.625977	4521.447754
3990.925781	4492.154297
3990.225586	4477.150879
3989.525391	4355.061035
3988.825195	4425.744141
3988.125000	4503.541992
3987.423828	4424.322266
3986.723633	4580.578125
3986.022461	4526.339355
3985.321289	4400.791992
3984.620117	4603.330566
3983.918945	4563.374512
3983.217773	4430.752441
3982.516602	4462.116211
3981.814453	4440.019043
3981.113281	4506.999512
3980.411133	4613.143555
3979.708984	4630.210938
3979.006836	4519.072266
3978.304688	4372.363281
3977.602539	4485.580078
3976.900391	4484.859863
3976.198242	4501.933594
3975.495117	4547.467773
3974.792969	4536.063965
3974.089844	4453.521484
3973.386719	4534.606445
3972.683594	4327.631348
3971.980469	4636.256836
3971.277344	4415.111816
3970.574219	4481.933594
3969.870117	4449.230469
3969.166992	4519.578613
3968.462891	4422.933594
3967.759766	4578.510254
3967.055664	4602.634766
3966.351563	4427.904297
3965.647461	4384.589355
3964.943359	4611.066406
3964.238281	4603.227539
3963.534180	4545.710938
3962.829102	4513.048828
3962.125000	4427.186035
3961.419922	4522.239746
3960.714844	4521.513672
3960.009766	4499.513184
3959.304688	4495.245117
3958.599609	4480.344727
3957.893555	4476.081543
3957.188477	4454.102051
3956.482422	4442.757813
3955.777344	4558.940430
3955.071289	4515.707520
3954.365234	4539.770020
3953.659180	4365.552246
3952.953125	4619.732910
3952.246094	4431.399902
3951.540039	4398.837891
3950.833008	4352.133301
3950.126953	4609.690430
3949.419922	4396.719238
3948.712891	4487.965332
3948.005859	4444.812012
3947.298828	4546.626953
3946.591797	4425.709961
3945.884766	4414.396484
3945.176758	4562.105957
3944.469727	4533.107910
3943.761719	4366.345703
3943.053711	4531.652344
3942.345703	4548.582031
3941.637695	4523.135254
3940.929688	4388.254395
3940.221680	4532.271973
3939.513672	4453.900879
3938.804688	4499.058594
3938.095703	4445.414551
3937.387695	4585.802734
3936.678711	4461.622070
3935.969727	4372.745605
3935.260742	4495.448242
3934.551758	4311.412109
3933.841797	4483.430664
3933.132813	4507.379883
3932.422852	4429.137207
3931.713867	4410.811035
3931.003906	4420.670410
3930.293945	4571.401855
3929.583984	4299.526367
3928.874023	4453.749023
3928.164063	4361.509277
3927.453125	4406.564453
3926.743164	4455.123535
3926.032227	4559.963379
3925.322266	4393.888672
3924.611328	4308.766602
3923.900391	4561.284180
3923.189453	4550.003418
3922.478516	4348.879883
3921.766602	4530.967285
3921.055664	4410.745605
3920.344727	4406.523438
3919.632813	4465.543945
3918.920898	4471.853027
3918.208984	4562.454590
3917.497070	4509.046387
3916.785156	4378.410156
3916.073242	4374.196777
3915.361328	4394.554688
3914.648438	4428.943848
3913.936523	4259.805664
3913.223633	4452.080566
3912.510742	4384.718262
3911.797852	4569.896973
3911.084961	4506.043457
3910.372070	4284.437012
3909.659180	4483.564453
3908.945313	4496.864258
3908.232422	4376.993164
3907.518555	4446.367188
3906.804688	4400.111328
3906.091797	4360.875488
3905.377930	4265.617188
3904.663086	4310.453613
3903.949219	4495.315918
3903.235352	4253.062500
3902.520508	4294.378906
3901.806641	4454.659180
3901.091797	4348.980957
3900.376953	4470.720703
3899.662109	4347.585449
3898.947266	4423.823730
3898.232422	4507.030762
3897.517578	4464.355469
3896.802734	4411.208008
3896.086914	4553.789063
3895.372070	4322.435059
3894.656250	4566.302734
3893.940430	4362.966309
3893.224609	4439.103516
3892.508789	4386.010254
3891.792969	4552.897949
3891.076172	4450.930664
3890.360352	4328.053223
3889.643555	4498.359375
3888.927734	4525.551758
3888.210938	4542.269043
3887.494141	4482.241699
3886.777344	4530.348633
3886.060547	4515.673828
3885.342773	4281.357422
3884.625977	4458.450684
3883.909180	4394.999023
3883.191406	4422.172363
3882.473633	4379.652344
3881.755859	4441.655273
3881.038086	4587.232422
3880.320313	4440.229980
3879.602539	4543.977051
3878.884766	4515.396484
3878.166016	4584.289063
3877.448242	4513.947754
3876.729492	4506.264160
3876.010742	4463.791016
3875.291992	4421.331543
3874.573242	4375.407227
3873.854492	4503.373047
3873.135742	4586.097168
3872.416016	4498.451660
3871.697266	4466.447754
3870.977539	4424.027832
3870.257813	4638.750488
3869.539063	4446.927734
3868.819336	4526.106934
3868.099609	4396.878418
3867.378906	4420.480469
3866.659180	4475.322266
3865.938477	4606.516602
3865.218750	4300.345703
3864.498047	4476.639160
3863.777344	4663.285156
3863.056641	4416.227539
3862.335938	4412.050293
3861.615234	4484.171387
3860.894531	4431.439941
3860.173828	4701.149414
3859.452148	4468.148438
3858.730469	4377.320801
3858.009766	4473.645508
3857.288086	4341.269531
3856.566406	4492.995605
3855.844727	4516.520020
3855.122070	4508.869629
3854.400391	4508.145996
3853.678711	4379.332031
3852.956055	4572.466309
3852.233398	4398.691895
3851.510742	4415.288086
3850.788086	4321.167969
3850.065430	4628.338867
3849.342773	4523.838867
3848.620117	4457.410156
3847.896484	4439.408203
3847.173828	4359.186523
3846.450195	4344.662109
3845.727539	4468.374512
3845.003906	4426.194824
3844.280273	4577.492188
3843.555664	4549.125000
3842.832031	4406.797363
3842.108398	4409.543945
3841.383789	4436.456543
3840.660156	4459.908691
3839.935547	4497.158691
3839.210938	4458.478516
3838.486328	4606.125488
3837.761719	4501.895020
3837.037109	4380.451660
3836.312500	4579.769531
3835.586914	4448.008301
3834.862305	4509.350098
3834.136719	4460.369629
3833.411133	4401.065430
3832.685547	4410.697266
3831.959961	4358.310547
3831.234375	4429.951172
3830.508789	4467.126953
3829.782227	4363.101074
3829.056641	4479.466797
3828.330078	4492.518555
3827.603516	4330.024902
3826.876953	4343.096191
3826.150391	4476.594238
3825.423828	4482.757324
3824.697266	4698.744629
3823.970703	4546.665039
3823.243164	4453.091797
3822.516602	4407.681641
3821.789063	4616.667480
3821.061523	4354.712891
3820.333984	4505.219727
3819.606445	4483.881836
3818.878906	4510.645996
3818.151367	4475.574219
3817.422852	4426.776855
3816.695313	4587.452148
3815.966797	4590.149414
3815.238281	4520.761230
3814.509766	4451.395020
3813.781250	4436.955078
3813.052734	4587.206543
3812.324219	4531.584473
3811.595703	4496.559082
3810.866211	4451.256836
3810.136719	4450.542969
3809.408203	4576.673828
3808.678711	4527.952637
3807.949219	4654.030273
3807.219727	4416.850586
3806.489258	4532.626953
3805.759766	4490.794922
3805.030273	4335.953125
3804.299805	4496.203613
3803.569336	4420.158691
3802.839844	4388.640625
3802.109375	4524.846191
3801.378906	4599.408691
3800.647461	4540.503418
3799.916992	4488.459473
3799.186523	4405.646973
3798.455078	4572.520020
3797.723633	4373.459473
3796.993164	4389.852539
3796.261719	4341.291992
3795.530273	4446.547852
3794.798828	4380.907227
3794.066406	4349.454590
3793.334961	4563.975098
3792.602539	4641.802246
3791.871094	4456.645020
3791.138672	4428.614746
3790.406250	4513.253418
3789.673828	4461.329102
3788.941406	4358.227539
3788.208984	4760.182617
3787.476563	4428.477539
3786.743164	4526.693359
3786.010742	4536.199707
3785.277344	4439.988770
3784.543945	4558.612793
3783.810547	4551.063965
3783.077148	4543.517090
3782.343750	4607.540039
3781.610352	4555.690430
3780.875977	4466.381836
3780.142578	4353.257813
3779.408203	4471.761719
3778.673828	4484.665527
3777.939453	4443.090820
3777.205078	4490.036133
3776.470703	4417.841797
3775.736328	4529.433594
3775.000977	4426.632813
3774.266602	4534.785156
3773.531250	4642.903320
3772.795898	4659.163086
3772.061523	4508.802734
3771.326172	4504.680664
3770.589844	4435.974121
3769.854492	4516.831055
3769.119141	4478.728027
3768.382813	4471.214844
3767.647461	4497.674316
3766.911133	4541.107910
3766.174805	4486.044922
3765.438477	4702.631836
3764.702148	4586.452637
3763.965820	4656.998047
3763.229492	4568.013672
3762.492188	4584.247559
3761.755859	4373.166992
3761.018555	4525.111816
3760.281250	4500.645508
3759.543945	4499.924316
3758.806641	4441.564453
3758.069336	4620.520508
3757.332031	4504.540039
3756.593750	4605.484375
3755.856445	4567.474609
3755.118164	4532.864258
3754.379883	4505.040039
3753.641602	4483.997559
3752.903320	4537.457520
3752.165039	4557.043945
3751.426758	4580.009277
3750.688477	4586.044434
3749.949219	4527.781738
3749.210938	4662.394043
3748.471680	4489.118164
3747.732422	4654.134766
3746.993164	4592.516113
3746.253906	4554.585938
3745.514648	4624.851563
3744.774414	4536.225098
3744.035156	4731.518555
3743.294922	4541.529785
3742.554688	4540.801758
3741.815430	4529.939941
3741.075195	4451.531738
3740.334961	4552.126953
3739.593750	4608.796387
3738.853516	4591.178223
3738.113281	4614.069824
3737.372070	4593.082031
3736.630859	4615.965332
3735.890625	4642.215332
3735.149414	4597.620117
3734.408203	4718.297852
3733.666016	4606.263184
3732.924805	4757.244141
3732.183594	4709.288086
3731.441406	4674.828613
3730.699219	4630.270508
3729.958008	4676.699707
3729.215820	4665.843750
3728.473633	4570.783691
3727.731445	4590.257813
3726.988281	4616.459961
3726.246094	4669.587402
3725.502930	4621.712891
3724.760742	4627.703613
3724.017578	4583.216309
3723.274414	4602.668945
3722.531250	4437.096191
3721.788086	4688.643555
3721.044922	4610.545410
3720.300781	4717.402344
3719.557617	4639.324219
3718.813477	4742.780762
3718.070313	4705.052734
3717.326172	4795.024414
3716.582031	4797.615723
3715.837891	4793.487793
3715.092773	4691.961914
3714.348633	4758.371094
3713.604492	4636.737793
3712.859375	4780.345215
3712.114258	4699.024414
3711.369141	4909.693848
3710.624023	4727.717285
3709.878906	4834.314453
3709.133789	4732.910645
3708.388672	4685.199707
3707.642578	4630.797363
3706.897461	4723.930664
3706.151367	4823.738281
3705.405273	4742.526367
3704.659180	4895.916016
3703.913086	4673.996094
3703.166992	4676.597168
3702.420898	4853.369141
3701.673828	4685.145508
3700.927734	4761.407715
3700.180664	4770.688477
3699.433594	4719.714355
3698.687500	4899.684082
3697.940430	4908.937500
3697.192383	4888.076660
3696.445313	4873.913086
3695.698242	4866.442871
3694.950195	4869.007324
3694.202148	4734.484375
3693.455078	4864.104004
3692.707031	4799.817383
3691.958984	4956.120117
3691.210938	4821.669434
3690.461914	4947.850098
3689.713867	4980.460938
3688.964844	4952.944336
3688.216797	4845.293945
3687.467773	4864.550293
3686.718750	4967.255371
3685.969727	4859.653809
3685.220703	4852.201172
3684.471680	4951.521484
3683.721680	4907.359375
3682.972656	5019.981445
3682.222656	4825.747070
3681.473633	4988.362793
3680.723633	5044.240234
3679.973633	4936.763184
3679.223633	4952.636719
3678.472656	5035.151367
3677.722656	5120.971680
3676.972656	4996.894043
3676.221680	5039.393066
3675.470703	4848.764648
3674.719727	5037.778320
3673.968750	5106.883301
3673.217773	5132.693848
3672.466797	5138.527344
3671.715820	5027.895508
3670.963867	5053.706055
3670.212891	5139.384277
3669.460938	5045.435059
3668.708984	5027.999512
3667.957031	5077.066895
3667.205078	5222.524414
3666.453125	5088.735352
3665.701172	5107.020020
3664.948242	5125.304688
3664.196289	5143.588867
3663.443359	5161.873535
3662.690430	5303.855469
3661.937500	5472.356445
3661.184570	5219.154297
3660.431641	5331.182617
3659.678711	5303.776367
3658.924805	5425.710449
3658.171875	5537.651367
3657.417969	5453.828613
3656.664063	5429.736816
3655.910156	5349.274414
3655.156250	5437.944336
3654.402344	5384.028809
3653.648438	5512.441895
3652.893555	5468.473633
3652.139648	5580.263184
3651.384766	5585.995605
3650.629883	5598.351074
3649.875000	5408.664551
3649.120117	5629.673340
3648.365234	5612.215820
3647.610352	5505.380371
3646.854492	5669.997559
3646.099609	5642.613770
3645.343750	5641.709473
3644.587891	5763.216309
3643.832031	5692.827637
3643.076172	5711.759766
3642.320313	5803.435059
3641.564453	5749.604980
3640.808594	5728.849609
3640.051758	5879.971680
3639.294922	5826.154785
3638.539063	5835.133789
3637.782227	5715.268555
3637.025391	5793.626953
3636.267578	5868.657715
3635.510742	5795.072754
3634.753906	5975.727539
3633.996094	5991.274902
3633.239258	6039.821777
3632.481445	6052.053711
3631.723633	6067.581055
3630.965820	5848.884277
3630.208008	6065.637207
3629.449219	6064.665527
3628.691406	6073.585938
3627.933594	5980.303711
3627.174805	6074.936035
3626.416016	6153.059570
3625.657227	6138.893066
3624.898438	6233.454102
3624.139648	6222.573242
3623.380859	6188.640625
3622.621094	6026.289551
3621.862305	6324.943848
3621.102539	6383.186523
3620.342773	6132.012207
3619.583984	6134.320801
3618.824219	6301.149414
3618.063477	6155.384766
3617.303711	6364.917969
3616.543945	6347.454102
3615.783203	6517.429199
3615.023438	6338.844727
3614.262695	6337.829590
3613.501953	6353.232422
3612.741211	6368.635742
3611.980469	6384.038574
3611.219727	6399.441406
3610.458008	6414.844238
3609.697266	6430.247559
3608.935547	6445.650391
3608.173828	6474.165039
3607.412109	6568.321289
3606.650391	6304.709473
3605.888672	6477.617188
3605.126953	6719.369141
3604.365234	6409.933594
3603.602539	6490.903809
3602.839844	6584.965820
3602.078125	6603.583984
3601.315430	6543.516113
3600.552734	6539.189941
3599.790039	6515.201660
3599.026367	6733.699707
3598.263672	6598.295898
3597.500000	6580.860352
3596.737305	6357.094727
3595.973633	6768.681152
3595.209961	6499.119141
3594.446289	6393.323242
3593.682617	6654.144531
3592.918945	6551.629395
3592.154297	6521.131836
3591.390625	6614.960449
3590.625977	6571.377930
3589.861328	6534.350586
3589.096680	6732.769043
3588.332031	6640.146973
3587.567383	6560.630371
3586.802734	6693.581543
3586.038086	6610.813477
3585.272461	6606.487305
3584.506836	6559.693848
3583.742188	6610.903320
3582.976563	6766.599121
3582.210938	6683.885254
3581.445313	6565.285645
3580.678711	6681.743652
3579.913086	6556.654785
3579.146484	6415.290527
3578.380859	6681.795410
3577.614258	6651.366211
3576.847656	6725.316406
3576.081055	6557.926758
3575.314453	6732.943359
3574.547852	6565.605469
3573.780273	6398.321289
3573.013672	6609.126953
3572.246094	6598.292969
3571.478516	6708.004395
3570.710938	6540.803711
3569.943359	6484.389160
3569.175781	6649.423340
3568.408203	6566.962891
3567.639648	6617.995117
3566.872070	6590.896973
3566.103516	6576.824219
3565.334961	6526.964844
3564.567383	6590.982910
3563.798828	6466.325195
3563.029297	6380.733398
3562.260742	6620.332031
3561.492188	6612.769043
3560.722656	6351.662109
3559.953125	6513.148438
3559.184570	6463.361816
3558.415039	6592.287598
3557.645508	6425.557129
3556.875000	6476.495605
3556.105469	6696.286133
3555.335938	6422.469238
3554.565430	6444.165527
3553.794922	6374.968750
3553.025391	6390.174805
3552.254883	6528.680176
3551.484375	6453.014160
3550.712891	6607.684082
3549.942383	6457.433105
3549.171875	6297.501953
3548.400391	6293.250977
3547.628906	6392.736816
3546.858398	6398.195313
3546.086914	6254.578613
3545.315430	6480.390137
3544.542969	6375.682617
3543.771484	6458.878906
3543.000000	6389.833008
3542.227539	6395.285156
3541.455078	6423.398926
3540.682617	6441.792480
3539.911133	6236.856934
3539.137695	6287.634277
3538.365234	6357.808594
3537.592773	6159.454590
3536.819336	6278.144043
3536.046875	6260.968262
3535.273438	6253.498047
3534.500000	6430.307617
3533.726563	6358.164063
3532.953125	6321.594727
3532.179688	6352.895508
3531.406250	6248.490234
3530.631836	6160.269531
3529.857422	6230.338867
3529.083984	6226.111328
3528.309570	6157.309082
3527.535156	6185.377441
3526.760742	6261.852539
3525.985352	6302.803223
3525.210938	6111.416504
3524.436523	6255.616699
3523.661133	6154.618164
3522.885742	6211.685059
3522.110352	6246.161133
3521.334961	6129.091309
3520.559570	6228.041504
3519.784180	6188.366699
3519.008789	6106.810059
3518.232422	6225.048828
3517.456055	6130.625977
3516.680664	6142.527832
3515.904297	6115.779297
3515.127930	6114.799805
3514.351563	6213.624023
3513.574219	6106.402344
3512.797852	6012.088379
3512.020508	6133.407227
3511.244141	6161.381348
3510.466797	6125.008301
3509.689453	6233.384277
3508.912109	6074.807129
3508.134766	6298.909668
3507.356445	5998.918945
3506.579102	6107.245117
3505.800781	6115.908203
3505.023438	5947.836426
3504.245117	6072.182129
3503.466797	6006.963867
3502.688477	6227.612793
3501.910156	6088.531250
3501.130859	5933.440430
3500.352539	6038.427246
3499.573242	6101.653809
3498.794922	6042.910645
3498.015625	5984.186035
3497.236328	5919.063965
3496.457031	6020.760254
3495.677734	6058.281250
3494.897461	5913.012207
3494.118164	6130.080078
3493.337891	5914.323242
3492.557617	6092.859863
3491.777344	5973.314453
3490.998047	5901.868164
3490.216797	6170.020020
3489.436523	5919.195313
3488.656250	5937.461914
3487.875000	6103.014648
3487.094727	6021.999512
3486.313477	5976.220703
3485.532227	5895.251465
3484.750977	6012.705078
3483.969727	5864.567383
3483.188477	6068.358887
3482.406250	6105.767578
3481.625000	5839.363281
3480.842773	6052.652344
3480.060547	6058.076172
3479.278320	6066.694824
3478.496094	5896.342285
3477.713867	6013.625000
3476.931641	6044.609863
3476.148438	5861.565430
3475.366211	6007.541016
3474.583008	5917.166016
3473.799805	5826.819824
3473.016602	5979.115234
3472.233398	5955.814453
3471.450195	5945.286621
3470.666992	5950.715332
3469.882813	5844.484375
3469.099609	6079.586426
3468.315430	6018.017090
3467.531250	5857.618164
3466.747070	5898.125977
3465.962891	6018.312012
3465.178711	5908.984375
3464.394531	5978.143555
3463.609375	6012.232910
3462.825195	5918.886230
3462.040039	6007.121094
3461.254883	5967.943359
3460.469727	5960.618652
3459.684570	5845.054199
3458.899414	5805.920898
3458.113281	5715.878906
3457.328125	5899.521484
3456.541992	6013.111328
3455.755859	5945.346191
3454.969727	5842.616699
3454.183594	5873.480469
3453.397461	5847.103027
3452.611328	5830.270996
3451.824219	5994.617676
3451.038086	5882.428223
3450.250977	5919.614746
3449.463867	5804.295898
3448.676758	5806.541992
3447.889648	5856.426270
3447.102539	5912.645508
3446.315430	5873.598633
3445.527344	5898.052734
3444.740234	5722.542969
3443.952148	5797.787109
3443.164063	5847.624023
3442.375977	5802.273438
3441.587891	5693.500000
3440.799805	5863.840820
3440.011719	5726.554688
3439.222656	5925.368164
3438.434570	5791.285645
3437.645508	5793.526855
3436.856445	5855.974609
3436.067383	5731.471680
3435.278320	5607.008789
3434.489258	5621.946777
3433.699219	5877.555176
3432.910156	5778.458496
3432.120117	5612.912598
3431.330078	5729.127441
3430.540039	5826.316895
3429.750000	5822.218750
3428.959961	5675.753418
3428.169922	5836.168457
3427.378906	5708.724121
3426.588867	5701.484375
3425.797852	5719.541016
3425.006836	5652.238770
3424.215820	5752.475098
3423.424805	5735.751953
3422.633789	5684.277832
3421.842773	5784.460449
3421.050781	5609.806152
3420.259766	5542.585449
3419.467773	5715.368164
3418.675781	5654.466309
3417.883789	5827.175781
3417.091797	5725.244629
3416.299805	5579.167969
3415.506836	5717.099121
3414.714844	5672.018066
3413.921875	5749.961914
3413.128906	5597.666504
3412.336914	5732.353027
3411.543945	5460.310059
3410.750000	5702.146484
3409.957031	5676.019531
3409.164063	5763.340332
3408.370117	5667.898926
3407.576172	5673.290527
3406.783203	5751.120117
3405.989258	5696.664063
3405.195313	5657.968262
3404.400391	5502.806152
3403.606445	5634.121582
3402.812500	5642.659180
3402.017578	5648.047852
3401.222656	5571.637207
3400.427734	5577.035156
3399.633789	5560.416016
3398.837891	5499.778809
3398.042969	5668.674316
3397.248047	5560.885742
3396.452148	5500.276855
3395.657227	5483.682617
3394.861328	5482.803711
3394.065430	5573.028320
3393.269531	5525.019531
3392.473633	5646.613281
3391.677734	5498.128418
3390.880859	5443.875488
3390.084961	5449.280762
3389.288086	5555.115234
3388.491211	5475.775391
3387.694336	5656.871094
3386.897461	5461.471680
3386.100586	5491.960938
3385.302734	5694.917969
3384.505859	5562.315430
3383.708008	5464.239746
3382.911133	5635.759277
3382.113281	5355.933105
3381.315430	5320.606445
3380.517578	5560.990723
3379.718750	5629.013184
3378.920898	5512.228516
3378.123047	5642.865234
3377.324219	5234.937988
3376.525391	5437.577148
3375.726563	5561.902832
3374.927734	5510.940430
3374.128906	5522.572266
3373.330078	5549.842773
3372.530273	5423.835449
3371.731445	5460.495117
3370.931641	5331.415527
3370.131836	5452.491211
3369.332031	5545.394531
3368.532227	5338.227539
3367.732422	5587.365234
3366.932617	5395.879395
3366.131836	5382.518555
3365.332031	5531.580078
3364.531250	5446.374023
3363.730469	5429.888672
3362.929688	5453.993164
3362.128906	5456.239746
3361.327148	5380.462891
3360.526367	5491.935059
3359.725586	5484.814941
3358.923828	5352.919434
3358.122070	5545.434082
3357.320313	5519.597656
3356.518555	5437.646484
3355.716797	5455.479004
3354.915039	5395.382813
3354.112305	5307.257813
3353.310547	5334.449707
3352.507813	5430.172363
3351.705078	5444.875977
3350.902344	5444.002930
3350.099609	5387.079590
3349.296875	5317.720215
3348.493164	5472.513184
3347.690430	5365.813477
3346.886719	5336.945801
3346.083008	5416.986816
3345.279297	5310.346680
3344.475586	5334.378418
3343.671875	5433.040527
3342.868164	5397.965332
3342.063477	5434.406738
3341.259766	5374.475098
3340.455078	5336.317871
3339.650391	5313.709961
3338.845703	5449.562500
3338.041016	5426.943848
3337.236328	5444.708984
3336.431641	5440.729980
3335.625977	5331.184570
3334.821289	5411.044922
3334.015625	5518.814941
3333.209961	5465.171387
3332.404297	5399.132813
3331.598633	5364.139648
3330.791992	5329.158203
3329.986328	5291.085449
3329.180664	5373.962891
3328.374023	5329.694336
3327.567383	5285.439941
3326.760742	5321.785645
3325.954102	5438.692871
3325.147461	5326.275879
3324.339844	5353.303223
3323.533203	5268.812500
3322.725586	5243.191406
3321.918945	5291.894043
3321.111328	5520.148438
3320.303711	5401.634277
3319.496094	5230.542969
3318.687500	5303.971680
3317.879883	5361.907227
3317.071289	5314.644531
3316.263672	5279.768555
3315.455078	5442.825195
3314.646484	5367.743164
3313.837891	5363.791016
3313.029297	5285.654785
3312.219727	5386.794434
3311.411133	5336.489258
3310.601563	5347.991699
3309.792969	5356.400879
3308.983398	5185.671387
3308.173828	5265.128906
3307.364258	5236.496094
3306.553711	5189.350098
3305.744141	5321.239746
3304.933594	5209.287598
3304.124023	5384.329590
3303.313477	5158.254883
3302.502930	5268.472168
3301.692383	5326.224609
3300.881836	5174.273926
3300.070313	5302.934082
3299.259766	5302.083496
3298.448242	5181.030273
3297.637695	5207.933594
3296.826172	5111.583008
3296.014648	5181.617676
3295.203125	5245.468750
3294.390625	5321.618164
3293.579102	5249.943848
3292.766602	5322.989258
3291.955078	5186.696289
3291.142578	5238.184082
3290.330078	5283.501465
3289.517578	5104.206543
3288.705078	5238.739258
3287.891602	5219.444824
3287.079102	5344.689941
3286.265625	5260.815430
3285.453125	5284.564941
3284.639648	5216.095215
3283.826172	5405.798340
3283.012695	5057.712402
3282.198242	5173.645508
3281.384766	5292.613281
3280.570313	5039.921387
3279.756836	5352.330078
3278.942383	5213.309082
3278.127930	5362.891602
3277.313477	5177.874023
3276.499023	5241.487793
3275.683594	5102.573242
3274.869141	5163.110352
3274.053711	5211.358887
3273.238281	5290.259766
3272.423828	5274.079102
3271.608398	5205.784180
3270.791992	5204.948730
3269.976563	5268.475098
3269.161133	5154.248535
3268.344727	5086.016113
3267.528320	5241.432129
3266.712891	5182.395996
3265.896484	5135.628418
3265.080078	5226.661133
3264.262695	5268.682129
3263.446289	5047.450684
3262.629883	5227.205566
3261.812500	5082.549805
3260.995117	5158.219727
3260.177734	5093.153809
3259.360352	5278.902344
3258.542969	5213.837891
3257.725586	5109.046875
3256.907227	5221.335449
3256.089844	5144.084961
3255.271484	5167.707031
3254.453125	5264.654297
3253.634766	5150.772949
3252.816406	5125.510254
3251.998047	5194.930176
3251.179688	5279.596191
3250.360352	5083.352539
3249.541992	5103.904297
3248.722656	4950.480957
3247.903320	5267.052246
3247.083984	5281.461914
3246.264648	5244.006836
3245.444336	5191.312988
3244.625000	5260.621094
3243.804688	5235.383301
3242.985352	5063.818359
3242.165039	5120.920410
3241.344727	5120.098633
3240.524414	5161.937012
3239.703125	5066.660645
3238.882813	5199.880371
3238.061523	5369.605957
3237.241211	5048.994629
3236.419922	5179.107910
3235.598633	4919.515137
3234.777344	5113.525879
3233.956055	5030.536621
3233.134766	5203.167969
3232.312500	5089.767578
3231.490234	5244.082520
3230.668945	5115.504883
3229.846680	5233.276367
3229.024414	5129.064453
3228.202148	5122.161133
3227.378906	5209.480469
3226.556641	5172.177246
3225.733398	5238.191406
3224.911133	5158.364746
3224.087891	5115.012695
3223.264648	5165.819336
3222.441406	5164.989746
3221.618164	5060.937988
3220.793945	5160.295898
3219.970703	5159.467285
3219.146484	5064.569336
3218.322266	5236.694336
3217.498047	5169.116211
3216.673828	5113.691406
3215.849609	5170.488770
3215.025391	5193.914551
3214.201172	5274.933105
3213.375977	5052.816895
3212.550781	5255.055664
3211.725586	5136.037109
3210.900391	5226.101074
3210.075195	5197.999512
3209.250000	5133.562988
3208.424805	5129.710449
3207.598633	5268.160156
3206.772461	5064.492188
3205.947266	4991.037598
3205.121094	5165.756836
3204.294922	5183.081543
3203.467773	5233.678223
3202.641602	5232.837891
3201.815430	5241.070313
3200.988281	5143.467285
3200.161133	5057.988770
3199.333984	5202.271484
3198.506836	5086.587402
3197.679688	5167.360352
3196.852539	5226.957520
3196.024414	5180.804688
3195.197266	5068.217773
3194.369141	5200.279785
3193.541016	5347.395996
3192.712891	5071.813965
3191.884766	5291.346191
3191.056641	5311.622070
3190.227539	5235.332031
3189.399414	5234.490723
3188.570313	5149.187500
3187.741211	5118.200195
3186.913086	5238.000000
3186.083008	5107.510742
3185.253906	5142.865234
3184.424805	5250.546387
3183.594727	5132.172363
3182.765625	5203.662598
3181.935547	5281.155273
3181.105469	5144.759766
3180.275391	5207.178711
3179.445313	5317.755859
3178.615234	5214.537598
3177.784180	5156.505859
3176.954102	5372.378418
3176.123047	5218.043457
3175.291992	5226.231445
3174.460938	5309.623535
3173.629883	5035.060547
3172.798828	5064.324707
3171.966797	5337.133301
3171.135742	5243.078613
3170.303711	5335.418457
3169.471680	5046.043945
3168.639648	5252.571289
3167.807617	5149.577148
3166.975586	5211.832520
3166.143555	5159.936035
3165.310547	5324.270508
3164.478516	5245.350586
3163.645508	5163.453125
3162.812500	5021.551758
3161.979492	5284.836914
3161.146484	5256.982422
3160.312500	5271.138184
3159.479492	5150.307129
3158.645508	5086.498047
3157.812500	5163.645508
3156.978516	5168.812012
3156.144531	5167.980957
3155.310547	5170.147949
3154.475586	5055.442383
3153.641602	5294.327637
3152.807617	5227.570313
3151.972656	5223.734863
3151.137695	5148.025879
3150.302734	5177.141602
3149.467773	5059.550781
3148.632813	5175.477539
3147.796875	5171.653320
3146.961914	5152.867676
3146.125977	5220.853027
3145.290039	5139.245605
3144.455078	5069.628418
3143.618164	5134.603516
3142.782227	5142.748047
3141.946289	5159.858398
3141.109375	5159.029297
3140.273438	5188.084961
3139.436523	5208.167480
3138.599609	5264.094238
3137.762695	5260.260742
3136.925781	5011.526855
3136.088867	5252.597656
3135.250977	5195.025879
3134.414063	5182.250488
3133.576172	5029.198242
3132.738281	5198.489746
3131.900391	5164.833008
3131.062500	5199.801758
3130.224609	5070.706543
3129.385742	5108.661133
3128.547852	5221.148926
3127.708984	5112.981445
3126.870117	4972.059570
3126.031250	5018.946289
3125.192383	5113.496094
3124.353516	5005.415039
3123.514648	5171.430664
3122.674805	5102.094727
3121.835938	5008.957031
3120.996094	5076.634277
3120.156250	5117.496094
3119.316406	5179.180664
3118.476563	5181.324219
3117.635742	5126.930664
3116.795898	5016.027344
3115.955078	5012.246094
3115.114258	5059.026855
3114.274414	5046.318359
3113.433594	5244.710938
3112.591797	5017.941406
3111.750977	5153.857422
3110.910156	5096.565430
3110.068359	5164.084961
3109.226563	5184.050293
3108.384766	4993.115723
3107.542969	5078.438477
3106.701172	5039.020020
3105.859375	5142.121094
3105.017578	5070.052246
3104.174805	5184.986328
3103.332031	5181.185059
3102.490234	5162.549805
3101.647461	4986.695801
3100.803711	5119.365234
3099.960938	5023.644043
3099.118164	5093.998047
3098.274414	5205.833496
3097.431641	5169.426758
3096.587891	5127.104492
3095.744141	5037.384766
3094.900391	5060.275879
3094.056641	5015.028809
3093.211914	5177.118164
3092.368164	5078.563477
3091.523438	5151.766602
3090.678711	5017.723633
3089.833984	5117.551270
3088.989258	5084.174805
3088.144531	5047.850586
3087.299805	5138.749023
3086.454102	4895.372559
3085.609375	5048.372559
3084.763672	5032.775391
3083.917969	5200.486816
3083.072266	5146.441406
3082.226563	5074.680664
3081.380859	5141.831055
3080.534180	4987.364746
3079.688477	5072.231934
3078.841797	5024.157227
3077.995117	4958.379395
3077.148438	5155.412598
3076.301758	5018.780762
3075.455078	5044.539063
3074.607422	4978.799316
3073.760742	5208.160645
3072.913086	5050.955566
3072.065430	5044.243164
3071.217773	5164.355957
3070.370117	5078.007324
3069.522461	5209.869141
3068.673828	4970.247070
3067.826172	5069.661621
3066.977539	4965.700684
3066.128906	5103.388672
3065.280273	4984.725098
3064.431641	5196.004883
3063.583008	4947.779785
3062.734375	4905.758789
3061.884766	5155.222656
3061.035156	5160.280762
3060.186523	5038.778809
3059.336914	5087.994141
3058.487305	4940.062500
3057.636719	4971.626953
3056.787109	5109.068848
3055.937500	5140.596191
3055.086914	5145.649414
3054.236328	4997.826660
3053.385742	5111.659668
3052.535156	4928.622070
3051.684570	4945.459961
3050.833984	5038.680176
3049.982422	5005.556152
3049.130859	4901.953613
3048.280273	5241.808594
3047.428711	5038.373047
3046.577148	4996.463379
3045.725586	4957.501953
3044.873047	5082.895996
3044.021484	5190.644043
3043.168945	5019.650879
3042.316406	5042.309082
3041.464844	5020.967773
3040.612305	5093.468262
3039.758789	5218.718262
3038.906250	4986.298340
3038.053711	5088.077637
3037.200195	5107.771973
3036.346680	4875.481445
3035.493164	5126.634277
3034.639648	5037.937988
3033.786133	4905.341309
3032.932617	5024.603516
3032.079102	5105.768066
3031.224609	5008.350098
3030.370117	5004.617188
3029.515625	5065.261719
3028.661133	5029.337402
3027.806641	5201.118164
3026.952148	5133.010742
3026.097656	5021.060059
3025.242188	5005.632324
3024.386719	5092.527832
3023.532227	5004.020508
3022.676758	5052.896484
3021.820313	4952.735840
3020.964844	4978.231934
3020.109375	5009.561523
3019.252930	5078.848145
3018.397461	5022.548828
3017.541016	5018.820313
3016.684570	5090.990723
3015.828125	4970.505371
3014.970703	4908.422363
3014.114258	5114.791504
3013.256836	5157.726563
3012.400391	4949.803711
3011.542969	5144.400391
3010.685547	5088.170410
3009.828125	5055.281738
3008.970703	5039.893066
3008.112305	5085.712891
3007.254883	4936.280762
3006.396484	4982.102051
3005.538086	5039.560059
3004.679688	5003.797852
3003.821289	5049.585449
3002.962891	5025.479004
3002.104492	4975.179688
3001.245117	5032.592285
3000.385742	4950.295410
2999.527344	4998.963867
2998.667969	4974.884766
2997.808594	4953.721680
2996.948242	4941.290039
2996.088867	5027.730469
2995.229492	5044.365234
2994.369141	4979.600098
2993.508789	5019.488281
2992.648438	5129.108398
2991.788086	4898.744141
2990.927734	5017.062988
2990.067383	4961.067383
2989.206055	4864.431641
2988.344727	4886.876953
2987.484375	5054.475586
2986.623047	5103.007813
2985.761719	5058.651855
2984.899414	4979.488281
2984.038086	5167.272461
2983.176758	5009.792969
2982.314453	4933.575684
2981.452148	4834.183105
2980.589844	4972.578613
2979.727539	4928.292480
2978.865234	5011.555664
2978.002930	5149.854980
2977.139648	5070.790039
2976.276367	5069.973145
2975.414063	5074.949219
2974.550781	5022.000000
2973.687500	5125.437012
2972.824219	5055.125000
2971.959961	5042.730957
2971.096680	4960.877441
2970.232422	4983.228516
2969.368164	5028.720215
2968.503906	5059.731934
2967.639648	4934.540527
2966.775391	5101.480957
2965.911133	5019.695801
2965.045898	4981.303223
2964.181641	5020.968750
2963.316406	5063.511719
2962.451172	5059.805664
2961.585938	5073.436035
2960.720703	5000.399902
2959.854492	5123.789551
2958.989258	5036.329590
2958.123047	5035.518066
2957.256836	5020.271973
2956.391602	5114.714355
2955.524414	5214.897949
2954.658203	5219.828125
2953.791992	5057.425781
2952.924805	5128.724609
2952.058594	5101.940918
2951.191406	5106.885742
2950.324219	5106.062500
2949.457031	5136.948730
2948.589844	5081.358398
2947.722656	4982.559570
2946.854492	4938.537109
2945.986328	5150.921875
2945.119141	5170.254395
2944.250977	5077.263672
2943.382813	5214.658203
2942.513672	5064.110840
2941.645508	5135.256836
2940.777344	4993.404785
2939.908203	5050.151367
2939.039063	5175.930176
2938.169922	5031.263184
2937.300781	5142.623047
2936.431641	4923.238770
2935.562500	5258.850586
2934.692383	5053.892090
2933.822266	5035.831055
2932.953125	5040.766602
2932.083008	4959.498535
2931.212891	5070.743652
2930.341797	5032.583496
2929.471680	5034.644043
2928.601563	5042.446777
2927.730469	5139.250488
2926.859375	5204.446289
2925.988281	5080.189941
2925.117188	5039.194824
2924.246094	4969.520020
2923.375000	5135.107422
2922.502930	5099.859863
2921.630859	5162.129883
2920.759766	5000.723633
2919.887695	5257.939941
2919.015625	5116.635254
2918.142578	5044.160156
2917.270508	5077.732910
2916.397461	5013.882324
2915.525391	4955.781250
2914.652344	5144.015625
2913.779297	5103.094238
2912.906250	5105.134277
2912.033203	5227.409668
2911.159180	5120.661133
2910.286133	5142.729980
2909.412109	4987.385742
2908.538086	5161.097168
2907.664063	5022.962402
2906.790039	5136.552246
2905.916016	5098.549316
2905.041992	5026.250000
2904.166992	5131.207520
2903.291992	5256.138672
2902.417969	5160.986816
2901.542969	5123.010254
2900.666992	5225.026855
2899.791992	5144.207520
2898.916992	5014.864258
2898.041016	5119.704590
2897.165039	5193.106445
2896.290039	5269.338867
2895.414063	5248.510742
2894.538086	5142.082520
2893.661133	5169.783691
2892.785156	5069.107422
2891.908203	5028.359375
2891.032227	5084.582031
2890.155273	5175.000977
2889.278320	5091.493164
2888.401367	5087.821289
2887.523438	5118.348633
2886.646484	5302.733398
2885.768555	5105.300781
2884.891602	4970.598145
2884.013672	5169.157227
2883.135742	5065.811035
2882.256836	5173.183105
2881.378906	5143.881836
2880.500977	5049.127441
2879.622070	5065.386719
2878.743164	5209.677734
2877.865234	4915.821777
2876.985352	5196.618652
2876.106445	5002.395508
2875.227539	5135.229004
2874.348633	5117.342285
2873.468750	5102.303711
2872.588867	5033.270508
2871.708984	4998.358887
2870.829102	5074.262695
2869.949219	5019.470703
2869.069336	5143.629883
2868.188477	5026.369141
2867.308594	5085.183105
2866.427734	5090.039551
2865.546875	5202.753418
2864.666016	5116.775391
2863.785156	5047.850098
2862.903320	5058.383301
2862.022461	5159.682129
2861.140625	5065.257813
2860.258789	5098.467773
2859.376953	4947.380371
2858.495117	5079.812988
2857.613281	5047.815918
2856.731445	4905.310547
2855.848633	5085.852539
2854.965820	5161.519043
2854.083984	5021.896484
2853.201172	5103.212891
2852.318359	5045.758301
2851.434570	5073.253906
2850.551758	5097.910156
2849.667969	5227.273438
2848.785156	4954.779297
2847.901367	5081.294434
2847.017578	5060.672363
2846.133789	5051.370117
2845.249023	4982.685547
2844.365234	4939.469727
2843.480469	4958.460449
2842.596680	4968.965332
2841.711914	5010.553223
2840.827148	5119.941406
2839.942383	5107.813965
2839.056641	5112.638184
2838.171875	5086.394531
2837.286133	5082.749023
2836.401367	4985.936035
2835.515625	4948.433594
2834.629883	5012.548828
2833.743164	5124.616211
2832.857422	5053.251465
2831.971680	5111.676270
2831.084961	5088.286133
2830.198242	5084.643555
2829.311523	5044.347168
2828.424805	5077.362305
2827.538086	5186.472656
2826.651367	5134.905762
2825.763672	5142.529297
2824.876953	5079.716309
2823.989258	5138.050781
2823.101563	5131.587891
2822.213867	5020.934570
2821.325195	4983.520996
2820.437500	5005.236328
2819.549805	5170.491211
2818.661133	5082.416016
2817.772461	5095.663086
2816.883789	5128.599121
2815.995117	5226.218750
2815.106445	5090.380859
2814.216797	5126.112793
2813.328125	5001.580078
2812.438477	5135.700195
2811.548828	5199.512695
2810.659180	5080.648438
2809.769531	5074.208008
2808.879883	5076.196777
2807.989258	5269.178711
2807.099609	5015.582031
2806.208984	5169.201660
2805.318359	5070.108398
2804.427734	5122.620117
2803.537109	5079.694824
2802.646484	5140.605957
2801.754883	5282.858398
2800.863281	4979.053223
2799.972656	5056.778809
2799.081055	5148.499512
2798.189453	5237.386719
2797.296875	5174.867676
2796.405273	5117.974609
2795.513672	5058.296875
2794.621094	5250.812012
2793.728516	5160.315918
2792.835938	5237.910156
2791.943359	5169.849609
2791.050781	5138.212402
2790.157227	5131.782227
2789.264648	5153.346191
2788.371094	5102.135254
2787.477539	5199.250977
2786.583984	5078.102539
2785.690430	5253.517578
2784.796875	5121.211426
2783.903320	5125.976563
2783.008789	5195.048340
2782.114258	5121.522949
2781.219727	5190.573242
2780.325195	5234.448730
2779.430664	5152.569336
2778.536133	5182.467773
2777.640625	5117.382813
2776.746094	5105.383789
2775.850586	5174.368652
2774.955078	5140.027832
2774.059570	5169.903320
2773.164063	5275.127930
2772.267578	5249.159180
2771.372070	5078.109375
2770.475586	5239.091797
2769.579102	5374.918457
2768.683594	5075.645508
2767.786133	5219.819336
2766.889648	5076.791504
2765.993164	5285.029785
2765.095703	5300.896973
2764.199219	5194.149902
2763.301758	5324.256836
2762.404297	5312.252930
2761.506836	5222.266602
2760.608398	5149.018066
2759.710938	5242.851563
2758.812500	5342.222168
2757.914063	5138.168945
2757.016602	5156.818359
2756.118164	5211.634277
2755.218750	5230.265137
2754.320313	5248.890137
2753.421875	5356.505859
2752.522461	5199.919434
2751.623047	5190.737305
2750.723633	5301.089355
2749.824219	5300.231445
2748.924805	5207.669922
2748.025391	5151.258301
2747.125000	5228.208496
2746.224609	5305.134277
2745.325195	5348.708984
2744.424805	5250.660645
2743.523438	5249.810547
2742.623047	5276.718750
2741.722656	5178.728516
2740.821289	5252.811523
2739.919922	5257.510254
2739.019531	5403.679199
2738.118164	5180.923340
2737.215820	5238.319336
2736.314453	5365.011719
2735.413086	5159.002930
2734.510742	5249.634277
2733.608398	5273.726074
2732.706055	5150.956055
2731.803711	5310.803711
2730.901367	5149.288574
2729.999023	5212.152832
2729.095703	5258.382324
2728.193359	5224.308105
2727.290039	5242.838867
2726.386719	5236.455078
2725.483398	5130.452148
2724.579102	5198.791016
2723.675781	5286.472168
2722.771484	5282.850098
2721.868164	5163.080566
2720.963867	5355.794434
2720.059570	5343.869141
2719.155273	5124.639648
2718.250000	5378.065918
2717.345703	5252.850586
2716.440430	5260.288086
2715.536133	5256.674316
2714.630859	5181.252441
2713.725586	5332.291016
2712.819336	5276.208496
2711.914063	5333.324707
2711.007813	5103.375000
2710.102539	5163.260254
2709.196289	5093.444336
2708.290039	5103.654297
2707.383789	5282.116211
2706.477539	5181.978516
2705.570313	5360.369629
2704.664063	5268.521973
2703.756836	5198.755859
2702.849609	5233.742676
2701.942383	5398.230957
2701.035156	5240.312500
2700.127930	5021.841309
2699.219727	5026.536133
2698.312500	5100.075195
2697.404297	5126.782715
2696.496094	5241.574707
2695.587891	5169.161133
2694.679688	5228.868652
2693.770508	5156.479980
2692.862305	5150.142090
2691.953125	5308.848145
2691.043945	5167.725098
2690.134766	5320.876953
2689.225586	5215.539063
2688.316406	5225.689453
2687.406250	5150.633789
2686.497070	5133.311035
2685.586914	5311.072266
2684.676758	5277.245605
2683.766602	5317.590820
2682.856445	5248.072754
2681.946289	5222.510254
2681.035156	5169.501953
2680.124023	5336.103516
2679.213867	5324.261230
2678.302734	5282.237793
2677.391602	5325.278809
2676.479492	5280.525879
2675.568359	5274.184570
2674.657227	5259.618164
2673.745117	5294.409180
2672.833008	5271.620117
2671.920898	5300.915527
2671.008789	5354.865234
2670.096680	5216.996582
2669.183594	5262.723633
2668.270508	5368.696289
2667.358398	5233.630371
2666.445313	5328.620605
2665.532227	5226.458008
2664.619141	5362.478516
2663.705078	5211.078613
2662.791992	5344.320801
2661.877930	5127.308594
2660.963867	5290.611816
2660.049805	5174.878418
2659.135742	5277.957520
2658.221680	5301.709961
2657.306641	5194.231934
2656.392578	5302.724121
2655.477539	5299.131348
2654.562500	5240.890137
2653.647461	5324.732910
2652.732422	5446.791016
2651.817383	5429.520996
2650.901367	5374.026367
2649.986328	5138.352539
2649.070313	5399.581543
2648.154297	5232.213867
2647.238281	5212.262695
2646.321289	5315.100098
2645.405273	5374.254883
2644.489258	5226.092773
2643.572266	5413.418945
2642.655273	5407.087402
2641.738281	5324.422363
2640.821289	5260.864258
2639.903320	5197.326660
2638.986328	5275.507324
2638.068359	5211.987793
2637.151367	5320.104980
2636.233398	5289.281738
2635.315430	5116.863281
2634.396484	5333.852539
2633.478516	5381.988281
2632.559570	5326.678223
2631.641602	5404.734863
2630.722656	5379.369141
2629.803711	5348.570801
2628.884766	5342.262695
2627.965820	5311.479492
2627.045898	5367.721191
2626.125977	5244.505371
2625.207031	5485.585449
2624.287109	5302.597168
2623.367188	5410.434570
2622.447266	5328.046387
2621.526367	5196.786621
2620.606445	5282.858887
2619.685547	5284.717285
2618.764648	5446.773926
2617.843750	5285.716797
2616.922852	5453.149414
2616.001953	5343.707520
2615.080078	5413.390625
2614.159180	5282.286133
2613.237305	5341.105957
2612.315430	5427.027832
2611.393555	5336.660156
2610.471680	5400.864746
2609.548828	5321.373535
2608.626953	5363.876465
2607.704102	5338.615723
2606.781250	5324.201660
2605.858398	5515.681641
2604.935547	5262.882813
2604.012695	5402.854980
2603.089844	5545.488770
2602.166016	5460.661621
2601.242188	5378.568848
2600.318359	5374.988770
2599.394531	5322.702148
2598.470703	5405.710449
2597.546875	5318.268555
2596.622070	5487.800293
2595.698242	5519.359863
2594.773438	5402.200195
2593.848633	5395.916016
2592.923828	5281.517090
2591.998047	5367.138672
2591.073242	5395.989746
2590.147461	5441.041016
2589.222656	5299.696289
2588.296875	5312.339355
2587.371094	5451.891602
2586.445313	5272.815918
2585.518555	5423.126465
2584.592773	5443.837402
2583.666016	5405.173828
2582.739258	5344.937500
2581.812500	5241.558105
2580.885742	5434.907227
2579.958984	5358.514160
2579.031250	5390.000000
2578.104492	5424.170898
2577.176758	5461.026367
2576.249023	5406.238770
2575.321289	5483.503418
2574.393555	5304.798340
2573.465820	5390.135742
2572.537109	5421.579102
2571.608398	5444.934082
2570.680664	5371.354004
2569.751953	5367.789551
2568.823242	5310.395020
2567.893555	5438.705078
2566.964844	5464.727539
2566.035156	5361.611328
2565.105469	5312.323730
2564.176758	5405.587891
2563.246094	5474.621094
2562.316406	5395.765625
2561.386719	5349.192383
2560.456055	5404.762207
2559.526367	5473.750000
2558.595703	5351.958008
2557.665039	5547.187012
2556.734375	5452.280762
2555.802734	5292.955078
2554.872070	5474.673340
2553.940430	5452.307129
2553.009766	5413.843262
2552.078125	5525.677734
2551.146484	5409.400391
2550.213867	5438.031738
2549.282227	5630.277832
2548.349609	5479.174805
2547.417969	5470.239258
2546.485352	5485.436523
2545.552734	5363.916992
2544.620117	5593.540527
2543.686523	5415.767578
2542.753906	5420.246094
2541.820313	5510.446289
2540.887695	5359.557617
2539.954102	5444.382324
2539.020508	5432.787109
2538.085938	5447.966309
2537.152344	5425.666992
2536.217773	5604.094238
2535.284180	5488.122070
2534.349609	5540.737793
2533.415039	5555.886230
2532.480469	5362.417480
2531.544922	5500.597656
2530.610352	5606.649414
2529.674805	5718.012695
2528.739258	5532.660645
2527.803711	5366.075195
2526.868164	5576.283691
2525.932617	5535.304199
2524.997070	5502.351563
2524.060547	5522.821289
2523.124023	5516.582520
2522.187500	5614.465820
2521.250977	5506.780273
2520.314453	5508.553223
2519.377930	5603.720703
2518.440430	5376.028809
2517.503906	5529.873047
2516.566406	5504.969238
2515.628906	5424.072754
2514.691406	5521.842285
2513.752930	5568.928711
2512.815430	5424.090820
2511.876953	5636.405762
2510.938477	5440.978027
2510.000000	5655.884766
2509.061523	5487.153320
2508.123047	5478.270508
2507.184570	5458.739746
2506.245117	5535.060059
2505.306641	5459.625000
2504.367188	5511.966797
2503.427734	5529.697266
2502.487305	5667.149902
2501.547852	5631.645020
2500.608398	5588.172363
2499.667969	5523.438965
2498.727539	5692.709473
2497.787109	5463.154785
2496.846680	5435.685059
2495.906250	5591.598633
2494.964844	5550.831055
2494.024414	5603.062500
2493.083008	5405.583496
2492.141602	5524.217773
2491.200195	5512.696777
2490.258789	5578.174805
2489.317383	5548.066406
2488.375000	5568.395996
2487.432617	5450.726074
2486.490234	5555.970215
2485.547852	5366.712891
2484.605469	5527.636719
2483.663086	5428.613281
2482.720703	5419.774902
2481.777344	5657.493164
2480.833984	5667.174805
2479.890625	5512.537109
2478.947266	5609.682617
2478.003906	5704.147461
2477.059570	5652.888184
2476.116211	5360.629395
2475.171875	5563.660156
2474.227539	5493.914551
2473.283203	5572.437012
2472.338867	5595.350586
2471.394531	5422.424805
2470.449219	5450.646973
2469.503906	5447.113770
2468.559570	5335.132813
2467.614258	5519.389648
2466.667969	5410.077637
2465.722656	5705.300781
2464.777344	5492.902832
2463.831055	5632.083008
2462.884766	5599.455566
2461.938477	5458.513672
2460.992188	5497.249023
2460.045898	5504.276855
2459.099609	5426.797852
2458.152344	5489.281738
2457.205078	5480.467773
2456.257813	5442.622070
2455.310547	5444.374512
2454.363281	5366.967285
2453.416016	5474.258789
2452.467773	5446.988770
2451.520508	5406.541016
2450.572266	5450.487793
2449.624023	5555.058594
2448.675781	5496.160156
2447.726563	5437.280762
2446.778320	5528.626465
2445.829102	5427.604492
2444.879883	5466.234863
2443.930664	5589.137207
2442.981445	5640.895996
2442.032227	5371.406250
2441.083008	5517.957031
2440.132813	5464.413574
2439.182617	5431.941895
2438.232422	5386.324219
2437.282227	5380.184082
2436.332031	5426.655762
2435.381836	5546.752930
2434.430664	5385.442383
2433.480469	5374.047363
2432.529297	5504.608887
2431.578125	5480.056641
2430.626953	5423.977539
2429.674805	5394.190918
2428.723633	5414.327637
2427.771484	5405.564941
2426.819336	5383.674316
2425.867188	5437.937012
2424.915039	5305.784180
2423.962891	5491.286621
2423.010742	5435.277344
2422.057617	5423.895020
2421.104492	5404.645020
2420.151367	5330.314453
2419.198242	5276.990234
2418.245117	5367.911133
2417.291992	5340.816406
2416.337891	5316.352051
2415.383789	5412.463867
2414.430664	5377.512695
2413.475586	5489.304199
2412.521484	5394.097168
2411.567383	5424.649414
2410.612305	5279.724121
2409.658203	5331.232910
2408.703125	5340.835449
2407.748047	5230.023438
2406.792969	5404.522949
2405.837891	5288.502930
2404.881836	5387.061523
2403.925781	5365.255371
2402.970703	5458.537598
2402.013672	5400.115723
2401.058594	5328.639160
2400.101563	5353.912109
2399.144531	5279.852051
2398.189453	5414.885254
2397.232422	5390.485352
2396.275391	5376.543457
2395.318359	5294.691406
2394.361328	5288.604004
2393.404297	5282.518555
2392.445313	5242.494141
2391.488281	5356.495117
2390.529297	5287.762207
2389.572266	5273.851563
2388.613281	5306.909180
2387.656250	5303.434570
2386.697266	5247.795410
2385.738281	5265.193848
2384.779297	5269.548828
2383.820313	5292.151367
2382.861328	5085.370605
2381.902344	5196.603516
2380.943359	5378.153809
2379.982422	5356.433594
2379.023438	5347.744629
2378.064453	5284.365723
2377.103516	5247.046875
2376.142578	5222.758301
2375.183594	5240.127441
2374.222656	5299.134277
2373.261719	5235.813965
2372.300781	5208.940430
2371.339844	5150.858398
2370.378906	5352.896484
2369.417969	5307.812500
2368.455078	5239.341309
2367.494141	5363.273438
2366.533203	5352.000000
2365.570313	5200.390137
2364.609375	5225.525391
2363.646484	5185.701172
2362.683594	5226.416504
2361.720703	5293.089844
2360.757813	5263.660645
2359.794922	5114.809082
2358.832031	5189.255371
2357.869141	5300.014648
2356.906250	5208.320801
2355.943359	5106.278809
2354.978516	5170.300293
2354.015625	5091.641602
2353.050781	5103.776367
2352.085938	5214.439941
2351.123047	5117.664063
2350.158203	5137.564941
2349.193359	5066.750000
2348.228516	5097.017578
2347.263672	5111.729492
2346.298828	5209.330078
2345.333984	5016.819336
2344.367188	5140.298828
2343.402344	5108.389160
2342.437500	5130.853027
2341.470703	5016.129395
2340.503906	5126.588379
2339.539063	5006.727539
2338.572266	5099.042480
2337.605469	5126.661621
2336.638672	5105.134277
2335.671875	5057.756348
2334.705078	4865.614258
2333.738281	5211.198242
2332.771484	5063.030273
2331.802734	5134.556641
2330.835938	5249.981445
2329.867188	5450.615234
2328.900391	5421.313477
2327.931641	5301.637207
2326.962891	5249.131348
2325.994141	5103.707031
2325.027344	5102.872559
2324.058594	5024.617188
2323.089844	5124.426758
2322.119141	4981.696777
2321.150391	5086.639160
2320.181641	5070.333008
2319.210938	4986.989258
2318.242188	4975.861328
2317.271484	5024.024414
2316.302734	4994.852539
2315.332031	5091.958008
2314.361328	5029.289551
2313.390625	4956.337402
2312.419922	5030.220703
2311.449219	5060.300293
2310.478516	5020.850586
2309.507813	4978.839844
2308.537109	4949.711914
2307.564453	5056.990723
2306.593750	4989.262695
2305.621094	4929.274414
2304.650391	5098.237793
2303.677734	4883.940430
2302.705078	4962.855957
2301.732422	5036.603027
2300.759766	4971.514648
2299.787109	4973.271484
2298.814453	4987.875977
2297.841797	4853.455078
2296.869141	5001.657715
2295.896484	4946.900879
2294.921875	4982.044434
2293.949219	4963.255859
2292.974609	5034.326172
2292.000000	4887.194336
2291.027344	5045.510254
2290.052734	4995.931641
2289.078125	4977.154785
2288.103516	5094.336426
2287.128906	5021.690918
2286.154297	5005.483398
2285.177734	4902.109375
2284.203125	4950.012695
2283.228516	4979.958496
2282.251953	4981.706055
2281.277344	5021.885742
2280.300781	4992.884277
2279.324219	4887.051758
2278.347656	4855.520508
2277.371094	4959.706543
2276.394531	4966.574707
2275.417969	4963.202148
2274.441406	5067.318848
2273.464844	5012.753906
2272.488281	4973.557129
2271.509766	5000.880371
2270.533203	5028.195313
2269.554688	5047.829102
2268.578125	4960.073242
2267.599609	4903.021973
2266.621094	5009.567383
2265.642578	4937.193359
2264.664063	4918.499512
2263.685547	5024.989258
2262.707031	4950.093750
2261.728516	4918.637207
2260.750000	4999.540039
2259.769531	4927.238281
2258.791016	5005.560059
2257.810547	5007.292480
2256.832031	4912.058594
2255.851563	4931.664551
2254.871094	5055.850098
2253.890625	4978.507813
2252.910156	4939.441895
2251.929688	4864.693359
2250.949219	4886.839355
2249.968750	4914.075195
2248.988281	4979.528320
2248.005859	4935.396973
2247.025391	5082.345703
2246.042969	4926.138672
2245.062500	4917.691406
2244.080078	4906.700195
2243.097656	5002.639648
2242.115234	4994.183594
2241.132813	5034.085938
2240.150391	5048.528320
2239.167969	4935.756348
2238.185547	4968.016602
2237.203125	5040.959961
2236.218750	4963.845215
2235.236328	4927.436523
2234.253906	5005.434570
2233.269531	4839.403320
2232.285156	4947.885742
2231.300781	4901.338867
2230.318359	4816.700684
2229.333984	4968.312988
2228.349609	5051.306152
2227.365234	4920.979004
2226.378906	4996.335938
2225.394531	4921.903809
2224.410156	4908.407227
2223.423828	4839.088867
2222.439453	5033.654297
2221.453125	4994.778320
2220.468750	5004.104492
2219.482422	4960.173828
2218.496094	4908.651367
2217.509766	4882.496094
2216.523438	4874.091797
2215.537109	4967.058105
2214.550781	4983.980469
2213.564453	4828.626953
2212.576172	5000.076660
2211.589844	5087.895996
2210.601563	4922.472656
2209.615234	4898.879883
2208.626953	4844.918945
2207.638672	4983.323242
2206.650391	4868.634277
2205.664063	4991.809082
2204.675781	5041.583008
2203.685547	5002.817383
2202.697266	5044.986816
2201.708984	4937.966309
2200.720703	4952.324219
2199.730469	4976.787598
2198.742188	4993.661133
2197.751953	4922.092773
2196.763672	4807.600586
2195.773438	5031.618164
2194.783203	4874.211426
2193.792969	4903.712891
2192.802734	4918.056152
2191.812500	5008.122559
2190.822266	4941.680664
2189.832031	4958.533691
2188.839844	4826.523438
2187.849609	4820.686035
2186.857422	4915.738281
2185.867188	4864.496094
2184.875000	5007.415039
2183.882813	5019.197754
2182.892578	4925.114258
2181.900391	4969.667969
2180.908203	4893.261230
2179.916016	4983.152344
2178.921875	5050.344238
2177.929688	4989.071777
2176.937500	5068.830566
2175.943359	4977.363770
2174.951172	5059.614746
2173.957031	4995.863770
2172.964844	4957.297852
2171.970703	4891.068359
2170.976563	5036.168457
2169.982422	4987.553223
2168.988281	4896.203613
2167.994141	5046.259277
2167.000000	5090.681152
2166.005859	5016.953613
2165.009766	5003.564453
2164.015625	4957.514648
2163.019531	5044.629883
2162.025391	5001.099609
2161.029297	4897.309570
2160.033203	5069.766113
2159.039063	5028.763672
2158.042969	5128.345703
2157.046875	4924.210449
2156.050781	5073.964355
2155.052734	4950.191406
2154.056641	4964.429688
2153.060547	5071.463867
2152.062500	4942.736816
2151.066406	5032.187988
2150.068359	5156.707031
2149.072266	5105.729492
2148.074219	5029.708496
2147.076172	5078.995605
2146.078125	5148.308105
2145.080078	5022.219727
2144.082031	4943.757324
2143.083984	4970.489258
2142.085938	5162.450684
2141.085938	5041.448730
2140.087891	5095.681641
2139.087891	5054.806152
2138.089844	5104.014648
2137.089844	5185.727051
2136.089844	4974.778809
2135.089844	5018.974121
2134.089844	5140.665039
2133.089844	5114.821289
2132.089844	5108.981445
2131.089844	5018.174316
2130.089844	5027.344238
2129.089844	4999.036621
2128.087891	5028.189453
2127.087891	5089.798828
2126.085938	5166.370117
2125.083984	5060.662598
2124.082031	5172.160156
2123.082031	5138.864258
2122.080078	5215.376953
2121.078125	5162.124512
2120.076172	5151.297363
2119.072266	5190.356934
2118.070313	5067.309570
2117.068359	4979.209473
2116.064453	5020.770508
2115.062500	5034.899902
2114.058594	5036.563965
2113.054688	5220.121582
2112.052734	5059.820313
2111.048828	5103.824219
2110.044922	5038.232422
2109.041016	5144.476563
2108.037109	5178.485352
2107.031250	5130.337891
2106.027344	5032.429199
2105.023438	5098.789063
2104.017578	5075.558105
2103.013672	5271.244141
2102.007813	5076.375488
2101.001953	5043.211914
2099.998047	5146.810547
2098.992188	5131.047852
2097.986328	4933.844238
2096.980469	5034.923828
2095.972656	5163.301758
2094.966797	4996.001953
2093.960938	4995.179688
2092.955078	5165.720703
2091.947266	5087.894043
2090.939453	5099.470215
2089.933594	5063.878906
2088.925781	5075.455078
2087.917969	5171.396973
2086.910156	4977.022461
2085.902344	5206.904785
2084.894531	5245.731934
2083.886719	4982.004883
2082.878906	5097.718262
2081.871094	5262.974121
2080.861328	5093.561523
2079.853516	5107.592285
2078.843750	4960.561035
2077.833984	5041.498535
2076.826172	5077.823242
2075.816406	4950.681641
2074.806641	5058.818359
2073.796875	5179.297852
2072.787109	5126.462402
2071.777344	5150.367676
2070.765625	5075.283691
2069.755859	5190.731934
2068.744141	5147.824219
2067.734375	5070.303223
2066.722656	5047.212402
2065.712891	5083.468750
2064.701172	5060.382324
2063.689453	5054.605469
2062.677734	5073.543457
2061.666016	5040.586426
2060.654297	4973.053223
2059.642578	5078.446777
2058.628906	5075.140625
2057.617188	5032.327637
2056.605469	5053.718262
2055.591797	5018.327637
2054.578125	5200.134766
2053.566406	4989.530273
2052.552734	5151.544434
2051.539063	5024.888672
2050.525391	5056.123535
2049.511719	5250.104492
2048.498047	5071.716797
2047.484375	5053.625000
2046.468750	5050.327148
2045.455078	5286.074707
2044.439453	5137.365723
2043.425781	5188.253906
2042.410156	5076.557129
2041.394531	5100.347656
2040.380859	5109.356445
2039.365234	5138.057617
2038.349609	5102.749512
2037.333984	5178.203125
2036.316406	5142.899414
2035.300781	5073.163086
2034.285156	5047.727539
2033.267578	4943.596680
2032.251953	4987.045410
2031.234375	5227.174805
2030.218750	5182.063965
2029.201172	5100.099609
2028.183594	5207.387695
2027.166016	5132.816895
2026.148438	5026.333984
2025.130859	5253.937500
2024.113281	5115.543457
2023.093750	5050.857910
2022.076172	5094.215820
2021.056641	5120.376953
2020.039063	5004.183594
2019.019531	5133.411133
2018.001953	5068.775391
2016.982422	5055.674316
2015.962891	5216.713379
2014.943359	5115.312012
2013.923828	5232.155273
2012.904297	5172.458496
2011.882813	5120.134277
2010.863281	5033.519043
2009.843750	4971.433594
2008.822266	5102.901855
2007.802734	4974.692383
2006.781250	5062.034668
2005.759766	5044.059570
2004.738281	4962.437988
2003.716797	4993.439941
2002.695313	4995.063477
2001.673828	5160.632324
2000.652344	5086.384277
1999.630859	5090.437500
1998.609375	5096.934570
1997.585938	4920.028809
1996.564453	4953.445801
1995.541016	4994.185547
1994.517578	5054.464844
1993.494141	5063.405273
1992.472656	5040.579590
1991.449219	5098.377930
1990.425781	4894.807129
1989.400391	5064.947266
1988.376953	4968.884766
1987.353516	5026.655762
1986.328125	4996.535156
1985.304688	5046.960938
1984.279297	4880.200684
1983.255859	4974.543457
1982.230469	4917.618164
1981.205078	5004.606445
1980.179688	5091.565918
1979.154297	4873.735352
1978.128906	4989.939453
1977.103516	4976.929199
1976.078125	4959.049316
1975.050781	4855.898438
1974.025391	5011.004883
1972.998047	4990.692383
1971.972656	4919.245117
1970.945313	4772.340820
1969.917969	4968.744141
1968.892578	4916.808105
1967.865234	4896.526855
1966.837891	4949.249512
1965.808594	4958.163574
1964.781250	4891.668457
1963.753906	4883.563965
1962.724609	4931.390137
1961.697266	4884.381836
1960.667969	4937.053711
1959.640625	4785.550293
1958.611328	4884.391602
1957.582031	4895.732422
1956.552734	4987.234863
1955.523438	4821.249512
1954.494141	4915.162109
1953.464844	5047.892090
1952.435547	5015.498535
1951.404297	4822.917969
1950.375000	4926.475098
1949.343750	4862.573730
1948.314453	4944.254883
1947.283203	4877.945801
1946.251953	4894.116211
1945.222656	4842.385742
1944.191406	4880.376465
1943.158203	4797.152832
1942.126953	4837.561523
1941.095703	4882.803223
1940.064453	4760.854492
1939.031250	4827.895508
1938.000000	4735.060547
1936.966797	4920.742676
1935.935547	4934.456543
1934.902344	4831.965820
1933.869141	4787.599609
1932.835938	4808.587891
1931.802734	4919.095703
1930.769531	4881.993652
1929.736328	4975.520508
1928.703125	4919.074219
1927.667969	4901.334473
1926.634766	4968.217285
1925.599609	4887.627441
1924.566406	4790.145996
1923.531250	4934.339355
1922.496094	4955.267090
1921.460938	4913.381836
1920.425781	4927.060547
1919.390625	4919.000977
1918.355469	4995.449219
1917.320313	4972.896484
1916.285156	4943.110352
1915.248047	4915.747070
1914.212891	5009.034180
1913.175781	5039.566895
1912.138672	5019.437012
1911.103516	5081.308594
1910.066406	4829.699707
1909.029297	4893.993164
1907.992188	4948.623535
1906.955078	5046.615723
1905.917969	4901.202637
1904.878906	4982.305664
1903.841797	4880.309570
1902.802734	5011.966309
1901.765625	5001.504395
1900.726563	4933.262695
1899.687500	4966.147461
1898.650391	4806.473633
1897.611328	4904.342773
1896.572266	4927.591309
1895.533203	5027.812988
1894.494141	4959.633301
1893.453125	4889.071777
1892.414063	4869.026367
1891.375000	4952.362793
1890.333984	4939.524414
1889.292969	4914.673828
1888.253906	4906.651367
1887.212891	4994.730469
1886.171875	5051.553223
1885.130859	4933.034668
1884.089844	4864.981934
1883.048828	4856.973633
1882.007813	5009.800293
1880.964844	4876.965820
1879.923828	5015.339844
1878.880859	4808.170410
1877.839844	4860.149902
1876.796875	4967.276855
1875.753906	4983.240723
1874.712891	5049.550781
1873.669922	5017.549316
1872.626953	4937.620605
1871.583984	4850.528320
1870.539063	4828.159668
1869.496094	4865.691406
1868.453125	4838.536621
1867.408203	4902.397949
1866.365234	4903.979980
1865.320313	4963.020508
1864.275391	4892.780273
1863.230469	4927.869629
1862.187500	4781.083984
1861.142578	4890.348145
1860.095703	4939.772949
1859.050781	4931.778809
1858.005859	4722.914063
1856.960938	4722.131348
1855.914063	4903.031250
1854.869141	4763.589355
1853.822266	4922.913574
1852.775391	4814.576172
1851.730469	4873.502441
1850.683594	4941.963379
1849.636719	4900.544922
1848.589844	4677.668457
1847.541016	4736.577637
1846.494141	4821.724121
1845.447266	4754.100098
1844.400391	4841.601563
1843.351563	4762.066895
1842.302734	4851.922852
1841.255859	4777.183105
1840.207031	4721.544434
1839.158203	4794.672363
1838.109375	4891.614258
1837.060547	4764.481445
1836.011719	4775.606445
1834.962891	4824.849609
1833.912109	4864.547852
1832.863281	4825.631348
1831.814453	4812.923340
1830.763672	4762.123047
1829.712891	4732.765137
1828.664063	4743.881348
1827.613281	4838.289551
1826.562500	4946.942871
1825.511719	4693.938965
1824.460938	4659.858398
1823.408203	4899.293457
1822.357422	4836.655273
1821.306641	4821.587402
1820.253906	4785.130859
1819.203125	4751.062988
1818.150391	4743.145508
1817.097656	4723.351074
1816.046875	4743.946777
1814.994141	4826.289551
1813.941406	4837.362305
1812.888672	4831.811035
1811.833984	4885.609863
1810.781250	4891.919922
1809.728516	4805.673828
1808.673828	4880.804688
1807.621094	4616.660156
1806.566406	4748.725098
1805.511719	4890.232422
1804.458984	4773.231934
1803.404297	4824.597168
1802.349609	4835.648438
1801.294922	4704.494141
1800.238281	4736.887695
1799.183594	4712.409180
1798.128906	4789.798340
1797.072266	4777.160645
1796.017578	4818.992676
1794.960938	4865.545410
1793.906250	4753.476074
1792.849609	4769.254395
1791.792969	4806.326172
1790.736328	4796.063477
1789.679688	4781.072754
1788.623047	4782.644043
1787.564453	4885.905762
1786.507813	4847.262207
1785.451172	4792.082031
1784.392578	4706.191406
1783.335938	4821.213379
1782.277344	4766.064453
1781.218750	4777.085449
1780.160156	4688.892090
1779.101563	4742.433594
1778.042969	4852.630371
1776.984375	4766.828613
1775.925781	4794.363770
1774.865234	4843.131348
1773.806641	4811.648926
1772.746094	4732.988770
1771.687500	4826.562988
1770.626953	4830.478027
1769.566406	4817.884277
1768.507813	4774.642090
1767.447266	4804.495605
1766.386719	4801.339844
1765.324219	4821.751953
1764.263672	4719.630371
1763.203125	4942.655273
1762.140625	4847.613770
1761.080078	4783.220215
1760.017578	4918.998535
1758.957031	4882.865723
1757.894531	4797.312500
1756.832031	4998.919434
1755.769531	4795.717285
1754.707031	4903.146973
1753.644531	4897.626953
1752.582031	4856.828613
1751.517578	4933.623535
1750.455078	4817.594727
1749.390625	4833.249023
1748.328125	4893.555664
1747.263672	4758.791016
1746.199219	4736.852539
1745.136719	4703.175293
1744.072266	4850.370605
1743.007813	4830.776367
1741.941406	4703.177246
1740.876953	4873.774902
1739.812500	4797.851074
1738.748047	4846.337891
1737.681641	4876.036133
1736.615234	4734.458008
1735.550781	4834.536621
1734.484375	4882.983887
1733.417969	4783.684082
1732.351563	4841.501953
1731.285156	4953.216309
1730.218750	4853.953613
1729.152344	4871.892578
1728.085938	4854.681152
1727.017578	4881.984375
1725.951172	4998.282715
1724.882813	4812.446777
1723.814453	4949.790039
1722.748047	4867.029785
1721.679688	4779.615723
1720.611328	4921.576172
1719.542969	4983.933594
1718.474609	4702.365723
1717.404297	4764.738281
1716.335938	4794.348145
1715.267578	4807.580078
1714.197266	4851.200195
1713.128906	4866.755371
1712.058594	4875.293457
1710.988281	4804.378906
1709.917969	4812.924316
1708.847656	4891.546387
1707.777344	4813.657227
1706.707031	4985.660645
1705.636719	4756.018555
1704.566406	4818.255859
1703.494141	4766.104980
1702.423828	4702.302246
1701.351563	4864.847656
1700.281250	4871.035645
1699.208984	4695.288086
1698.136719	4806.446777
1697.064453	4840.621582
1695.992188	4825.827148
1694.919922	4836.677734
1693.847656	4733.328125
1692.773438	4744.190430
1691.701172	4792.325195
1690.626953	4905.666016
1689.554688	4876.900879
1688.480469	4768.972656
1687.406250	4763.521484
1686.332031	4755.744141
1685.257813	4771.243652
1684.183594	4756.486328
1683.109375	4785.940430
1682.035156	4722.333008
1680.960938	4795.974609
1679.884766	4904.473633
1678.810547	4824.602051
1677.734375	4821.473145
1676.658203	4841.588867
1675.583984	4822.189941
1674.507813	4774.915039
1673.431641	4811.289551
1672.355469	4747.772461
1671.279297	4746.980957
1670.201172	4783.341309
1669.125000	4914.876465
1668.048828	4712.109375
1666.970703	4767.023926
1665.892578	4680.372070
1664.816406	4832.716797
1663.738281	4757.680664
1662.660156	4865.894531
1661.582031	4679.569824
1660.503906	4736.752441
1659.425781	4821.733887
1658.347656	4774.574219
1657.267578	4859.520508
1656.189453	4589.939941
1655.109375	4758.286133
1654.031250	4773.705566
1652.951172	4691.855469
1651.871094	4781.375000
1650.791016	4863.918945
1649.710938	4705.710449
1648.630859	4811.381836
1647.550781	4801.323730
1646.470703	4717.236328
1645.388672	4723.388672
1644.308594	4687.909180
1643.226563	4747.248047
1642.146484	4721.024414
1641.064453	4704.055176
1639.982422	4610.822754
1638.900391	4665.512695
1637.818359	4710.942383
1636.736328	4624.684570
1635.654297	4718.608398
1634.570313	4740.913086
1633.488281	4578.500488
1632.406250	4679.310059
1631.322266	4588.512695
1630.238281	4562.361816
1629.156250	4603.131836
1628.072266	4549.303711
1626.988281	4553.157227
1625.904297	4603.132813
1624.820313	4623.116211
1623.734375	4610.817383
1622.650391	4612.352539
1621.566406	4616.191406
1620.480469	4567.031250
1619.396484	4665.334961
1618.310547	4572.416504
1617.224609	4670.686035
1616.138672	4605.429688
1615.052734	4526.381348
1613.966797	4620.005371
1612.880859	4552.488281
1611.794922	4627.666504
1610.708984	4523.357910
1609.621094	4630.721191
1608.535156	4671.348145
1607.447266	4640.672363
1606.359375	4580.116211
1605.273438	4560.959961
1604.185547	4633.749512
1603.097656	4646.764160
1602.009766	4475.956543
1600.921875	4571.696289
1599.832031	4651.325684
1598.744141	4563.278809
1597.654297	4647.475098
1596.566406	4566.345215
1595.476563	4629.853516
1594.388672	4688.750488
1593.298828	4694.851074
1592.208984	4496.759277
1591.119141	4603.820313
1590.029297	4747.541016
1588.939453	4604.574219
1587.847656	4530.437012
1586.757813	4642.004395
1585.666016	4567.885742
1584.576172	4601.495605
1583.484375	4651.132813
1582.392578	4588.502930
1581.302734	4573.993164
1580.210938	4637.349609
1579.119141	4597.649902
1578.025391	4674.716309
1576.933594	4673.934570
1575.841797	4636.536621
1574.750000	4734.150879
1573.656250	4683.028809
1572.562500	4549.578125
1571.470703	4690.609863
1570.376953	4760.710449
1569.283203	4670.750977
1568.189453	4724.830078
1567.095703	4733.181152
1566.001953	4748.385254
1564.908203	4713.320313
1563.812500	4680.551270
1562.718750	4768.841309
1561.623047	4697.253418
1560.529297	4799.209961
1559.433594	4640.895020
1558.337891	4676.636719
1557.242188	4762.570801
1556.146484	4805.124512
1555.050781	4815.726563
1553.955078	4789.831055
1552.859375	4839.200195
1551.761719	4806.468750
1550.666016	4794.265625
1549.568359	4829.932617
1548.472656	4751.639160
1547.375000	4744.008301
1546.277344	4811.560059
1545.179688	4726.475098
1544.082031	4632.309082
1542.984375	4765.879395
1541.886719	4648.971191
1540.787109	4828.020020
1539.689453	4900.041016
1538.589844	4746.759766
1537.492188	4725.488281
1536.392578	4711.048340
1535.292969	4723.905762
1534.193359	4745.854492
1533.095703	4626.831055
1531.994141	4689.707031
1530.894531	4693.467285
1529.794922	4897.205078
1528.695313	4696.439453
1527.593750	4647.946289
1526.494141	4653.981934
1525.392578	4769.021484
1524.291016	4704.645996
1523.189453	4697.047363
1522.089844	4850.607910
1520.988281	4663.701172
1519.884766	4817.215820
1518.783203	4666.675781
1517.681641	4663.625488
1516.580078	4581.198730
1515.476563	4743.693848
1514.373047	4627.273926
1513.271484	4592.496582
1512.167969	4557.730957
1511.064453	4686.130371
1509.960938	4692.141602
1508.857422	4677.763672
1507.753906	4618.092773
1506.650391	4626.376465
1505.544922	4695.788574
1504.441406	4805.924805
1503.335938	4737.218262
1502.232422	4598.381836
1501.126953	4640.600586
1500.021484	4635.297852
1498.916016	4729.518066
1497.810547	4633.743652
1496.705078	4671.405273
1495.599609	4609.582520
1494.494141	4676.619629
1493.386719	4614.816406
1492.281250	4699.906250
1491.173828	4710.414063
1490.068359	4585.389160
1488.960938	4519.125488
1487.853516	4658.366699
1486.746094	4601.143555
1485.638672	4503.308105
1484.531250	4459.670898
1483.423828	4513.079590
1482.314453	4417.563965
1481.207031	4392.009277
1480.097656	4492.765137
1478.990234	4510.051758
1477.880859	4594.971680
1476.771484	4628.014648
1475.662109	4485.242676
1474.552734	4432.659180
1473.443359	4526.547363
1472.333984	4611.392090
1471.224609	4592.599121
1470.113281	4567.056641
1469.003906	4703.638672
1467.892578	4439.453613
1466.783203	4553.502930
1465.671875	4491.975098
1464.560547	4423.717773
1463.449219	4744.687012
1462.337891	4685.407227
1461.226563	4432.734863
1460.115234	4512.940430
1459.001953	4480.707520
1457.890625	4452.980957
1456.777344	4503.925293
1455.666016	4662.712402
1454.552734	4583.294434
1453.439453	4557.814941
1452.326172	4601.968750
1451.212891	4524.845703
1450.099609	4649.817383
1448.986328	4664.750000
1447.873047	4520.321777
1446.757813	4636.254395
1445.644531	4577.139648
1444.529297	4500.097656
1443.414063	4615.974609
1442.300781	4621.927246
1441.185547	4621.150391
1440.070313	4559.845215
1438.955078	4514.250488
1437.839844	4479.875977
1436.722656	4423.106445
1435.607422	4523.176758
1434.492188	4560.495605
1433.375000	4519.416992
1432.257813	4518.657715
1431.142578	4589.540039
1430.025391	4438.793945
1428.908203	4556.664551
1427.791016	4558.136230
1426.673828	4615.540039
1425.556641	4440.284180
1424.437500	4499.924805
1423.320313	4447.736328
1422.201172	4540.891602
1421.083984	4631.780273
1419.964844	4626.531738
1418.845703	4737.486816
1417.726563	4330.049805
1416.607422	4449.953125
1415.488281	4603.318848
1414.369141	4499.819336
1413.250000	4420.915039
1412.128906	4531.792480
1411.009766	4490.853516
1409.888672	4501.256348
1408.769531	4525.043457
1407.648438	4542.129883
1406.527344	4498.985840
1405.406250	4507.149414
1404.285156	4368.145020
1403.164063	4490.027344
1402.042969	4460.294434
1400.919922	4577.663086
1399.798828	4525.642578
1398.675781	4393.434570
1397.554688	4463.976074
1396.431641	4391.956055
1395.308594	4446.886719
1394.185547	4452.817871
1393.062500	4400.869629
1391.939453	4402.354492
1390.816406	4317.052734
1389.693359	4496.543945
1388.568359	4342.294434
1387.445313	4508.375488
1386.320313	4394.203613
1385.197266	4406.804199
1384.072266	4468.307617
1382.947266	4403.098145
1381.822266	4317.910156
1380.697266	4326.070801
1379.572266	4527.502930
1378.445313	4391.249023
1377.320313	4370.522461
1376.195313	4396.431641
1375.068359	4484.493164
1373.941406	4470.420410
1372.816406	4367.579590
1371.689453	4486.666016
1370.562500	4326.174805
1369.435547	4511.772949
1368.308594	4306.975098
1367.179688	4401.599609
1366.052734	4489.540039
1364.923828	4295.932617
1363.796875	4359.481934
1362.667969	4469.544434
1361.541016	4455.498047
1360.412109	4363.924805
1359.283203	4400.841309
1358.154297	4353.596680
1357.025391	4441.425781
1355.894531	4407.472168
1354.765625	4404.516113
1353.636719	4450.246094
1352.505859	4555.699707
1351.376953	4477.504883
1350.246094	4383.853027
1349.115234	4347.730957
1347.984375	4415.541992
1346.853516	4445.747559
1345.722656	4517.939453
1344.591797	4351.430176
1343.460938	4556.189453
1342.328125	4584.141113
1341.197266	4461.881836
1340.064453	4346.288574
1338.933594	4475.833984
1337.800781	4395.601074
1336.667969	4403.689453
1335.535156	4314.666992
1334.402344	4477.229492
1333.269531	4465.443359
1332.134766	4475.719727
1331.001953	4463.937500
1329.869141	4456.568848
1328.734375	4389.674805
1327.599609	4507.971191
1326.466797	4348.521973
1325.332031	4484.414063
1324.197266	4457.218262
1323.062500	4408.002930
1321.927734	4405.056641
1320.791016	4505.612793
1319.656250	4412.377930
1318.519531	4391.820313
1317.384766	4369.069336
1316.248047	4335.321777
1315.113281	4431.403809
1313.976563	4457.055176
1312.839844	4403.513672
1311.703125	4435.758301
1310.566406	4351.454590
1309.427734	4438.658203
1308.291016	4431.314453
1307.154297	4384.415039
1306.015625	4462.778809
1304.878906	4510.358887
1303.740234	4399.768066
1302.601563	4532.994629
1301.462891	4365.344727
1300.324219	4368.999023
1299.185547	4447.285156
1298.046875	4303.876465
1296.906250	4320.704590
1295.767578	4284.871582
1294.626953	4356.537598
1293.488281	4325.096191
1292.347656	4480.060547
1291.207031	4317.058105
1290.066406	4314.136719
1288.925781	4300.257813
1287.785156	4290.765625
1286.644531	4371.109375
1285.503906	4444.853516
1284.361328	4303.923828
1283.220703	4417.072754
1282.078125	4379.104492
1280.937500	4321.445801
1279.794922	4268.184082
1278.652344	4374.696777
1277.509766	4328.008301
1276.367188	4349.153809
1275.224609	4357.168457
1274.080078	4295.197266
1272.937500	4270.418945
1271.794922	4326.539063
1270.650391	4255.860840
1269.505859	4307.593262
1268.363281	4263.162598
1267.218750	4376.048828
1266.074219	4473.606445
1264.929688	4357.097656
1263.783203	4378.197754
1262.638672	4379.640625
1261.494141	4387.632324
1260.347656	4354.152344
1259.203125	4296.680176
1258.056641	4291.589844
1256.910156	4312.678711
1255.763672	4349.027344
1254.617188	4250.161133
1253.470703	4397.704102
1252.324219	4349.001465
1251.177734	4435.449219
1250.031250	4330.097168
1248.882813	4305.397461
1247.734375	4339.524902
1246.587891	4356.215820
1245.439453	4390.322754
1244.291016	4359.097168
1243.142578	4412.784668
1241.994141	4479.513672
1240.845703	4311.183594
1239.697266	4480.174316
1238.546875	4296.671875
1237.398438	4511.286133
1236.248047	4508.347656
1235.099609	4440.177734
1233.949219	4474.211426
1232.798828	4538.665039
1231.648438	4477.043945
1230.498047	4495.842773
1229.347656	4536.361328
1228.197266	4529.076660
1227.044922	4513.107422
1225.894531	4503.657227
1224.742188	4641.846680
1223.591797	4506.474609
1222.439453	4586.015625
1221.287109	4557.029297
1220.134766	4612.668457
1218.982422	4635.749512
1217.830078	4493.985352
1216.677734	4575.629395
1215.523438	4670.254395
1214.371094	4665.127930
1213.216797	4553.798340
1212.064453	4724.226074
1210.910156	4558.756348
1209.755859	4570.982422
1208.601563	4624.357422
1207.447266	4623.574219
1206.292969	4661.765625
1205.136719	4580.875488
1203.982422	4612.567383
1202.828125	4652.904785
1201.671875	4749.486328
1200.515625	4677.289063
1199.361328	4775.996582
1198.205078	4770.862305
1197.048828	4761.404785
1195.892578	4808.160645
1194.736328	4766.275879
1193.578125	4808.692383
1192.421875	4719.283203
1191.265625	4910.766113
1190.107422	4853.770508
1188.949219	4770.877930
1187.792969	4895.312988
1186.634766	4773.578613
1185.476563	4915.240234
1184.318359	4836.708984
1183.160156	4941.626953
1182.000000	4856.645020
1180.841797	4978.781250
1179.681641	5053.425781
1178.523438	4931.807617
1177.363281	4894.317871
1176.203125	4973.249512
1175.044922	5028.445801
1173.884766	4993.113281
1172.724609	4987.957520
1171.562500	5056.047852
1170.402344	4969.034668
1169.242188	5017.723145
1168.080078	5094.385742
1166.919922	5125.813965
1165.757813	5118.486816
1164.595703	5141.291504
1163.433594	5151.177734
1162.271484	5098.671875
1161.109375	5164.487305
1159.947266	5144.255371
1158.785156	5237.993652
1157.621094	5293.001465
1156.458984	5244.814453
1155.294922	5286.907227
1154.132813	5251.629883
1152.968750	5319.487793
1151.804688	5294.956543
1150.640625	5375.670410
1149.476563	5443.472656
1148.312500	5549.896484
1147.146484	5553.248047
1145.982422	5612.399902
1144.818359	5587.842773
1143.652344	5589.039551
1142.486328	5646.009766
1141.320313	5591.431641
1140.156250	5721.291504
1138.990234	5619.549805
1137.822266	5766.510254
1136.656250	5722.664551
1135.490234	5728.121582
1134.324219	5825.708496
1133.156250	5826.861328
1131.988281	5802.311035
1130.822266	5831.306641
1129.654297	6061.559082
1128.486328	5899.971680
1127.318359	5901.110352
1126.150391	5878.707520
1124.982422	5991.111816
1123.812500	5992.233398
1122.644531	6091.746582
1121.474609	6039.385254
1120.306641	6066.156250
1119.136719	6229.741699
1117.966797	6344.108398
1116.796875	6242.584473
1115.626953	6173.146973
1114.457031	6426.331543
1113.287109	6267.171387
1112.115234	6419.875977
1110.945313	6376.078613
1109.773438	6479.607910
1108.603516	6645.005371
1107.431641	6654.546875
1106.259766	6700.361328
1105.087891	6577.612305
1103.916016	6614.890625
1102.744141	6812.115234
1101.572266	6772.573730
1100.398438	6792.742676
1099.226563	6817.167969
1098.052734	6839.453613
1096.880859	7008.768555
1095.707031	7045.927734
1094.533203	7089.464844
1093.359375	6986.024902
1092.185547	7089.183594
1091.011719	7075.202637
1089.837891	7052.711426
1088.662109	7415.474609
1087.488281	7399.316895
1086.312500	7276.778809
1085.138672	7407.436523
1083.962891	7484.875000
1082.787109	7500.614746
1081.611328	7429.172363
1080.435547	7619.239746
1079.259766	7588.185547
1078.082031	7667.651367
1076.906250	7579.229004
1075.728516	7616.179688
1074.552734	7695.599121
1073.375000	7847.198730
1072.197266	7777.915039
1071.019531	8046.213867
1069.841797	8004.514160
1068.664063	8037.108398
1067.486328	8120.617676
1066.308594	8134.086426
1065.128906	8009.671875
1063.951172	8082.537598
1062.771484	8428.920898
1061.591797	8306.638672
1060.412109	8322.182617
1059.232422	8441.572266
1058.052734	8471.919922
1056.873047	8669.633789
1055.693359	8477.508789
1054.513672	8590.434570
1053.332031	8639.793945
1052.152344	8752.653320
1050.970703	8696.124023
1049.789063	8734.856445
1048.607422	8760.878906
1047.425781	8833.439453
1046.244141	8789.625977
1045.062500	8775.438477
1043.880859	9053.084961
1042.697266	9053.657227
1041.515625	9045.772461
1040.332031	9101.299805
1039.150391	9215.979492
1037.966797	9155.247070
1036.783203	9212.838867
1035.599609	9261.960938
1034.416016	9226.593750
1033.232422	9311.591797
1032.046875	9343.782227
1030.863281	9517.382813
1029.677734	9572.741211
1028.494141	9450.836914
1027.308594	9620.110352
1026.123047	9580.501953
1024.937500	9597.849609
1023.751953	9697.425781
1022.566406	9594.577148
1021.380859	9704.659180
1020.193359	9776.767578
1019.007813	9859.386719
1017.820313	9840.851563
1016.634766	9735.958008
1015.447266	9698.494141
1014.259766	9852.663086
1013.072266	9842.561523
1011.884766	9813.518555
1010.697266	9828.681641
1009.509766	9970.096680
1008.320313	10050.449219
1007.132813	9996.145508
1005.943359	9849.318359
1004.753906	9746.702148
1003.566406	10020.464844
1002.376953	9991.427734
1001.187500	9838.395508
999.998047	9912.368164
998.806641	9925.383789
997.617188	10089.645508
996.427734	9926.197266
995.236328	9979.102539
994.046875	9996.296875
992.855469	10068.064453
991.664063	9766.203125
990.472656	9947.109375
989.281250	10073.401367
988.089844	9943.713867
986.898438	9965.088867
985.705078	9862.726563
984.513672	9720.559570
983.320313	9880.323242
982.126953	9979.246094
980.935547	9665.285156
979.742188	9684.588867
978.548828	9680.839844
977.355469	9739.930664
976.162109	9750.832031
974.966797	9774.293945
973.773438	9670.041016
972.578125	9766.769531
971.384766	9746.265625
970.189453	9752.970703
968.994141	9569.291992
967.798828	9573.932617
966.603516	9520.011719
965.408203	9591.572266
964.212891	9592.023438
963.015625	9669.817383
961.820313	9551.126953
960.623047	9539.046875
959.427734	9547.863281
958.230469	9598.454102
957.033203	9615.610352
955.835938	9574.291992
954.638672	9455.738281
953.441406	9349.749023
952.244141	9613.212891
951.044922	9494.711914
949.847656	9305.313477
948.648438	9362.131836
947.449219	9360.531250
946.251953	9348.504883
945.052734	9340.651367
943.853516	9480.808594
942.654297	9512.535156
941.453125	9329.609375
940.253906	9286.343750
939.054688	9180.596680
937.853516	9414.385742
936.652344	9327.394531
935.453125	9309.142578
934.251953	9286.732422
933.050781	9245.597656
931.849609	9223.206055
930.646484	9300.694336
929.445313	9061.945313
928.244141	9124.874023
927.041016	9013.092773
925.839844	9088.484375
924.636719	9012.088867
923.433594	9029.253906
922.230469	8909.250977
921.027344	8934.738281
919.824219	8980.992188
918.621094	8989.840820
917.417969	8925.999023
916.212891	8907.860352
915.009766	8835.749023
913.804688	8838.387695
912.599609	8778.765625
911.394531	8762.737305
910.189453	8732.192383
908.984375	8595.868164
907.779297	8573.657227
906.574219	8736.002930
905.367188	8769.751953
904.162109	8594.128906
902.955078	8457.944336
901.750000	8446.134766
900.542969	8515.129883
899.335938	8606.887695
898.128906	8483.218750
896.921875	8483.836914
895.712891	8169.754883
894.505859	8331.888672
893.298828	8115.214355
892.089844	8260.746094
890.880859	8097.951660
889.673828	8030.368652
888.464844	7995.900879
887.255859	7971.783691
886.046875	8148.227539
884.835938	8078.614258
883.626953	7901.547852
882.417969	7848.531738
881.207031	7826.525391
879.998047	7732.224121
878.787109	7668.936035
877.576172	7622.189941
876.365234	7848.002930
875.154297	7578.290039
873.943359	7525.391113
872.732422	7544.737793
871.519531	7549.634277
870.308594	7434.877441
869.095703	7547.045898
867.884766	7426.142090
866.671875	7453.735352
865.458984	7301.964844
864.246094	7181.164063
863.033203	7239.696777
861.820313	7114.826660
860.605469	7148.628906
859.392578	7042.354492
858.177734	7107.048340
856.964844	6836.091797
855.750000	7018.144531
854.535156	6848.155273
853.320313	6964.287109
852.105469	6843.748535
850.890625	6735.595215
849.675781	6827.001953
848.458984	6850.509766
847.244141	6874.009277
846.027344	6961.232910
844.810547	6877.817383
843.595703	6856.085449
842.378906	6801.482910
841.162109	6685.265137
839.943359	6708.767578
838.726563	6701.454590
837.509766	6632.541504
836.291016	6662.199219
835.074219	6753.427734
833.855469	6618.865234
832.636719	6601.312988
831.417969	6721.227539
830.199219	6588.790039
828.980469	6663.543945
827.761719	6676.753906
826.542969	6540.291504
825.322266	6537.118164
824.103516	6652.819824
822.882813	6674.218262
821.664063	6671.023438
820.443359	6663.732422
819.222656	6642.106445
818.001953	6591.818848
816.779297	6750.386230
815.558594	6786.074219
814.337891	6639.590820
813.115234	6650.728516
811.894531	6639.355957
810.671875	6752.772949
809.449219	6573.669434
808.226563	6783.172363
807.003906	6726.801758
805.781250	6897.364746
804.558594	6667.260742
803.333984	6709.029785
802.111328	6789.605469
800.886719	6968.210449
799.664063	6817.909180
798.439453	6826.948242
797.214844	6868.652832
795.990234	6849.099121
794.765625	6815.264160
793.541016	6793.684570
792.314453	6747.627930
791.089844	6826.029785
789.863281	6788.141602
788.638672	6842.037109
787.412109	6814.353516
786.185547	6870.264160
784.958984	6979.150879
783.732422	6916.812012
782.505859	6980.825684
781.279297	6855.353027
780.050781	6937.687012
778.824219	7040.357422
777.595703	6914.938477
776.367188	6897.461914
775.140625	7000.085938
773.912109	7104.709473
772.683594	7011.921387
771.453125	6955.784668
770.224609	7078.667969
768.996094	6992.032227
767.765625	6817.990234
766.537109	6946.932129
765.306641	6961.998535
764.076172	7021.770996
762.845703	7014.466309
761.615234	6883.233398
760.384766	7129.867188
759.154297	7025.061523
757.921875	7072.586914
756.691406	7000.310547
755.458984	7112.779785
754.228516	7028.343750
752.996094	7096.126465
751.763672	7117.222168
750.531250	7051.084473
749.298828	7047.842285
748.066406	7139.907715
746.832031	7023.113281
745.599609	7113.123535
744.365234	7188.915039
743.132813	7130.937500
741.898438	7154.021973
740.664063	7160.892578
739.429688	7364.221191
738.195313	7188.801270
736.960938	7149.094238
735.724609	7212.640625
734.490234	7456.298340
733.255859	7250.627930
732.019531	7229.145996
730.783203	7146.983398
729.546875	7267.106445
728.310547	7401.342773
727.074219	7236.295410
725.837891	7445.287109
724.601563	7353.051270
723.363281	7384.117188
722.126953	7259.594727
720.888672	7262.383789
719.650391	7275.270508
718.414063	7427.493652
717.175781	7278.819336
715.937500	7394.651367
714.697266	7472.094238
713.458984	7448.606934
712.220703	7370.650391
710.980469	7431.916992
709.742188	7495.179688
708.501953	7439.437500
707.261719	7480.497070
706.021484	7416.711914
704.781250	7469.854492
703.541016	7551.191895
702.300781	7592.202637
701.058594	7602.980469
699.818359	7561.384277
698.576172	7564.107422
697.335938	7582.937988
696.093750	7537.339844
694.851563	7588.372559
693.609375	7713.850098
692.367188	7491.183594
691.123047	7775.565430
689.880859	7778.246094
688.638672	7710.537598
687.394531	7755.454102
686.150391	7681.741211
684.908203	7756.797363
683.664063	7697.177246
682.419922	7740.054199
681.175781	7738.718262
679.929688	7681.139648
678.685547	7890.687012
677.439453	7901.372559
676.195313	7853.833008
674.949219	7874.556641
673.703125	7881.225098
672.458984	7855.784668
671.212891	7980.821289
669.964844	7929.295898
668.718750	7883.804199
667.472656	7906.504883
666.224609	8005.382324
664.978516	7837.625488
663.730469	7792.179688
662.482422	7965.165527
661.234375	7981.820801
659.986328	7904.323242
658.738281	8039.146484
657.490234	7865.548340
656.242188	7948.276855
654.992188	8089.026855
653.744141	7979.554199
652.494141	7988.180176
651.244141	7972.794922
649.994141	8057.432129
648.744141	7930.039063
647.494141	8056.646973
646.244141	7845.325684
644.994141	7951.914551
643.742188	8058.465820
642.492188	8071.060547
641.240234	8017.718750
639.988281	8056.284180
638.738281	8144.767578
637.486328	8043.514160
636.232422	8100.023438
634.980469	8170.486328
633.728516	8057.305176
632.474609	8077.862305
631.222656	8210.141602
629.968750	8043.151367
628.714844	8175.390625
627.462891	8281.660156
626.208984	8184.525391
624.953125	8252.879883
623.699219	8317.224609
622.445313	8257.996094
621.191406	8322.316406
619.935547	8269.083008
618.679688	8195.950195
617.425781	8427.523438
616.169922	8585.348633
614.914063	8557.983398
613.658203	8528.637695
612.400391	8634.622070
611.144531	8754.496094
609.888672	8725.130859
608.630859	8745.499023
607.373047	8881.200195
606.117188	8895.569336
604.859375	8880.113281
603.601563	9015.720703
602.343750	9049.929688
601.083984	9157.642578
599.826172	9279.223633
598.568359	9269.671875
597.308594	9236.292969
596.048828	9514.653320
594.791016	9459.405273
593.531250	9628.462891
592.271484	9581.152344
591.011719	9639.017578
589.750000	9855.566406
588.490234	9770.553711
587.230469	9933.460938
585.968750	9935.705078
584.707031	10003.369141
583.447266	9862.889648
582.185547	10085.118164
580.923828	10140.832031
579.662109	10265.862305
578.398438	10341.331055
577.136719	10151.403320
575.875000	10312.006836
574.611328	10333.976563
573.347656	10247.073242
572.085938	10251.234375
570.822266	10746.100586
569.558594	10732.368164
568.292969	10540.622070
567.029297	10617.900391
565.765625	10548.831055
564.500000	10604.333984
563.236328	10695.395508
561.970703	10622.395508
560.705078	10711.446289
559.439453	10786.635742
558.173828	10798.591797
556.908203	10769.070313
555.642578	10717.838867
554.376953	10915.375000
553.109375	10759.520508
551.843750	10759.627930
550.576172	10886.017578
549.308594	10872.291992
548.041016	10947.333008
546.773438	10909.935547
545.505859	10957.337891
544.238281	10914.035156
542.968750	10906.228516
541.701172	11000.904297
540.431641	10998.995117
539.164063	11138.933594
537.894531	11381.250000
536.625000	11188.241211
535.355469	11381.237305
534.085938	11255.232422
532.814453	11524.916016
531.544922	11335.951172
530.273438	11515.011719
529.003906	11591.707031
527.732422	11715.583984
526.460938	11778.450195
525.189453	11562.074219
523.917969	11766.497070
522.646484	11941.362305
521.375000	11778.132813
520.101563	11886.125977
518.830078	11980.328125
517.556641	11995.926758
516.283203	12080.256836
515.011719	12186.157227
513.738281	12180.113281
512.462891	12111.257813
511.189453	12350.551758
509.916016	12254.218750
508.642578	12538.527344
507.367188	12626.581055
506.091797	12618.502930
504.818359	12563.367188
503.542969	12902.317383
502.267578	12819.707031
500.992188	12743.004883
499.714844	12879.916016
498.439453	12891.391602
497.164063	12910.697266
495.886719	12822.279297
494.609375	12872.920898
493.333984	12970.532227
492.056641	12844.956055
490.779297	12911.222656
489.501953	12687.859375
488.222656	12965.426758
486.945313	12945.567383
485.666016	12886.598633
484.388672	12747.477539
483.109375	12561.481445
481.830078	12842.736328
480.550781	12693.921875
479.271484	12636.999023
477.992188	12763.748047
476.712891	12536.886719
475.433594	12409.710938
474.152344	12477.849609
472.871094	12649.440430
471.591797	12368.098633
470.310547	12473.290039
469.029297	12352.086914
467.748047	12453.340820
466.466797	12181.980469
465.183594	12150.605469
463.902344	12187.490234
462.619141	12286.751953
461.337891	12243.677734
460.054688	12093.423828
458.771484	12019.218750
457.488281	11810.606445
456.205078	11997.502930
454.921875	12065.529297
453.638672	11923.223633
452.353516	11718.666016
451.070313	11930.751953
449.785156	11630.895508
448.500000	11835.138672
447.214844	11842.805664
445.929688	11782.385742
444.644531	11739.490234
443.359375	11684.942383
442.072266	11679.018555
440.787109	11663.376953
439.500000	11661.344727
438.214844	11775.907227
436.927734	11575.681641
435.640625	11517.331055
434.353516	11550.284180
433.066406	11408.457031
431.777344	11515.195313
430.490234	11637.424805
429.203125	11573.289063
427.914063	11421.853516
426.625000	11559.554688
425.335938	11481.886719
424.046875	11464.369141
422.757813	11429.405273
421.468750	11458.434570
420.179688	11656.100586
418.888672	11444.749023
417.599609	11301.293945
416.308594	11128.826172
415.017578	11460.072266
413.728516	11390.286133
412.437500	11314.714844
411.144531	11277.891602
409.853516	11417.237305
408.562500	11150.089844
407.269531	11306.824219
405.978516	11070.745117
404.685547	11035.928711
403.392578	11175.192383
402.099609	10999.205078
400.806641	11068.822266
399.513672	11068.824219
398.220703	10977.987305
396.927734	10916.166992
395.632813	10891.078125
394.337891	11092.009766
393.044922	10966.464844
391.750000	10939.447266
390.455078	10810.110352
389.160156	10858.413086
387.865234	10833.357422
386.568359	10966.546875
385.273438	10825.717773
383.976563	10848.905273
382.681641	10806.508789
381.384766	10808.478516
380.087891	10904.920898
378.791016	10577.237305
377.494141	10718.014648
376.197266	10716.143555
374.898438	10804.826172
373.601563	10662.316406
372.302734	10777.940430
371.005859	10752.950195
369.707031	10918.576172
368.408203	10701.069336
367.109375	10728.070313
365.810547	10766.607422
364.509766	10676.222656
363.210938	10545.472656
361.910156	10714.805664
360.611328	10837.927734
359.310547	10712.984375
358.009766	10895.654297
356.708984	10755.368164
355.408203	10707.369141
354.107422	10811.169922
352.804688	10816.963867
351.503906	10934.153320
350.201172	10828.545898
348.900391	10920.731445
347.597656	10884.268555
346.294922	10677.001953
344.992188	10907.329102
343.689453	10715.479492
342.386719	10794.173828
341.082031	10631.178711
339.779297	10734.788086
338.474609	10995.578125
337.169922	10740.619141
335.867188	10784.739258
334.562500	10911.243164
333.257813	10704.330078
331.951172	10880.608398
330.646484	10761.874023
329.341797	10612.541992
328.035156	10566.650391
326.728516	10618.400391
325.423828	10549.555664
324.117188	10702.710938
322.810547	10467.420898
321.503906	10457.937500
320.195313	10503.922852
318.888672	10481.049805
317.580078	10505.982422
316.273438	10578.695313
314.964844	10282.511719
313.656250	10527.219727
312.347656	10492.897461
311.039063	10393.637695
309.730469	10424.287109
308.421875	10403.366211
307.111328	10636.381836
305.802734	10479.898438
304.492188	10479.971680
303.181641	10668.960938
301.871094	10501.104492
300.560547	10434.408203
299.250000	10733.924805
297.939453	10436.474609
296.628906	10669.155273
295.316406	10661.567383
294.005859	10532.004883
292.693359	10503.481445
291.380859	10743.606445
290.068359	10579.807617
288.755859	10528.435547
287.443359	10675.121094
286.130859	10673.250977
284.816406	10629.501953
283.503906	10679.027344
282.189453	10582.010742
280.875000	10808.463867
279.560547	10637.271484
278.246094	10595.466797
276.931641	10618.330078
275.617188	10523.308594
274.300781	10654.527344
272.986328	10688.769531
271.669922	10774.306641
270.355469	10679.323242
269.039063	10650.856445
267.722656	10814.222656
266.406250	10681.301758
265.089844	10738.285156
263.771484	10506.715820
262.455078	10688.968750
261.136719	10635.860352
259.820313	10706.089844
258.501953	10579.016602
257.183594	10776.300781
255.865234	10609.437500
254.546875	10810.438477
253.228516	10751.674805
251.908203	10689.140625
250.589844	10694.844727
249.269531	10793.380859
247.949219	10791.487305
246.628906	10821.790039
245.310547	11014.928711
243.988281	11041.394531
242.667969	10821.772461
241.347656	11043.197266
240.025391	10988.276367
238.705078	11043.104492
237.382813	11018.466797
236.060547	10812.278320
234.738281	11109.144531
233.416016	11095.851563
232.093750	11195.976563
230.771484	11163.772461
229.449219	11199.603516
228.125000	11105.063477
226.800781	11154.114258
225.478516	11159.709961
224.154297	10991.583008
222.830078	11051.954102
221.505859	11182.144531
220.181641	11014.100586
218.855469	11317.850586
217.531250	11129.087891
216.205078	11162.971680
214.878906	11176.098633
213.554688	11174.134766
212.228516	11079.792969
210.902344	11202.252930
209.574219	11239.861328
208.248047	11328.331055
206.921875	11207.651367
205.593750	11282.910156
204.265625	11171.696289
202.939453	11246.934570
201.611328	11452.046875
200.283203	11397.329102
198.955078	11429.201172
197.625000	11466.706055
196.296875	11523.010742
194.968750	11361.101563
193.638672	11415.523438
192.308594	11706.845703
190.978516	11593.867188
189.648438	11708.367188
188.318359	11717.583984
186.988281	11644.121094
185.658203	11880.664063
184.326172	11923.654297
182.996094	12017.334961
181.664063	11878.150391
180.332031	12097.586914
179.000000	11958.437500
177.667969	12115.851563
176.335938	12265.704102
175.003906	12220.397461
173.669922	12193.863281
172.337891	12249.853516
171.003906	12223.322266
169.669922	12198.674805
168.335938	12293.995117
167.001953	12162.522461
165.667969	12254.066406
164.333984	12023.357422
163.000000	12073.686523
161.664063	12075.305664
160.328125	12144.331055
158.994141	12179.633789
157.658203	12123.208984
156.322266	12373.713867
154.986328	12515.607422
153.650391	12244.016602
152.312500	12288.621094
150.976563	12278.976563
149.638672	12445.091797
148.302734	12590.583984
146.964844	12638.832031
145.626953	12660.899414
144.289063	12759.565430
142.949219	12738.635742
141.611328	12932.508789
140.273438	13010.530273
138.933594	13265.900391
137.595703	13358.769531
136.255859	13141.772461
134.916016	13148.787109
133.576172	13347.976563
132.236328	13203.847656
130.894531	13453.316406
129.554688	13484.511719
128.212891	13685.364258
126.873047	13541.275391
125.531250	13589.211914
124.189453	13596.133789
122.847656	13893.708008
121.505859	13719.875977
120.164063	13723.043945
118.820313	13746.695313
117.478516	13831.778320
116.134766	13747.431641
114.792969	13709.644531
113.449219	13937.975586
112.105469	13557.825195
110.761719	13815.865234
109.417969	13709.273438
108.072266	13863.058594
106.728516	13974.026367
105.382813	14034.763672
104.039063	13935.641602
102.693359	13983.355469
101.347656	14008.756836
100.001953	14117.741211
98.654297	14115.250000
97.308594	14153.611328
95.962891	14145.542969
94.615234	14588.555664
93.269531	14591.548828
91.921875	14642.786133
90.574219	14719.979492
89.226563	14708.105469
87.878906	14429.166016
86.529297	14283.835938
85.181641	14653.966797
83.832031	14897.916992
82.484375	14911.966797
81.134766	14788.887695
79.785156	14714.021484
78.435547	14478.025391
77.085938	14742.161133
75.736328	14804.366211
74.384766	14718.439453
73.035156	14564.053711
71.683594	14528.167969
70.332031	14479.340820
68.982422	14228.874023
67.630859	14226.360352
66.279297	14144.321289
64.925781	13818.232422
63.574219	13636.459961
62.220703	13606.324219
60.869141	13548.476563
59.515625	13472.170898
58.162109	12930.333008
56.808594	12386.838867
55.455078	11847.229492
54.101563	11320.737305
52.748047	11329.812500
51.392578	11010.328125
