#Wave		#Intensity
4002.114258	4051.981201
4001.416016	4051.981201
4000.717773	4130.065918
4000.018555	4079.305664
3999.320313	3992.783691
3998.621094	4067.262939
3997.921875	4080.915771
3997.223633	4026.619385
3996.524414	3979.491211
3995.824219	4121.847168
3995.125000	4063.995850
3994.425781	4063.342773
3993.725586	3991.226318
3993.026367	4079.899902
3992.326172	4086.388184
3991.625977	4128.588867
3990.925781	4145.779785
3990.225586	4127.262207
3989.525391	4212.272461
3988.825195	4115.228516
3988.125000	4007.509766
3987.423828	4088.929932
3986.723633	3977.682617
3986.022461	4116.150879
3985.321289	4037.031250
3984.620117	4129.091309
3983.918945	4167.644043
3983.217773	4127.764160
3982.516602	4137.792969
3981.814453	4094.367188
3981.113281	3997.512695
3980.411133	4014.681641
3979.708984	4014.926758
3979.006836	4015.171875
3978.304688	4015.417236
3977.602539	4015.662354
3976.900391	4136.037109
3976.198242	4071.313721
3975.495117	4045.751709
3974.792969	4062.890137
3974.089844	4176.065430
3973.386719	3972.671143
3972.683594	4092.936279
3971.980469	4078.057129
3971.277344	3935.208496
3970.574219	4115.844238
3969.870117	3997.910889
3969.166992	3986.609375
3968.462891	3993.073975
3967.759766	4194.895996
3967.055664	4112.539551
3966.351563	4136.734863
3965.647461	4065.064697
3964.943359	4025.364990
3964.238281	4212.822754
3963.534180	4002.780762
3962.829102	3995.041748
3962.125000	4005.042236
3961.419922	3979.571045
3960.714844	3911.552490
3960.009766	4056.298584
3959.304688	4119.459961
3958.599609	4062.084961
3957.893555	3958.656250
3957.188477	4252.125977
3956.482422	4152.242676
3955.777344	3960.291504
3955.071289	4189.868164
3954.365234	3909.443359
3953.659180	4245.171875
3952.953125	4180.769531
3952.246094	4134.085449
3951.540039	4112.187988
3950.833008	3980.609863
3950.126953	4004.734863
3949.419922	4188.025391
3948.712891	4197.962891
3948.005859	4038.166504
3947.298828	4055.195313
3946.591797	4043.939453
3945.884766	4075.099121
3945.176758	4130.985352
3944.469727	4070.257324
3943.761719	4101.397461
3943.053711	4118.399414
3942.345703	4145.990234
3941.637695	4053.520020
3940.929688	4130.537109
3940.221680	3960.443359
3939.513672	3973.924316
3938.804688	3966.229004
3938.095703	4046.738525
3937.387695	4056.671631
3936.678711	3950.210938
3935.969727	4094.159424
3935.260742	4086.450439
3934.551758	4022.339355
3933.841797	4067.514893
3933.132813	4010.475586
3932.422852	4048.591064
3931.713867	4051.464111
3931.003906	3938.095215
3930.293945	3986.769287
3929.583984	4095.290039
3928.874023	4168.568359
3928.164063	4030.612061
3927.453125	4075.719971
3926.743164	4092.660889
3926.032227	4018.115723
3925.322266	4084.311279
3924.611328	4009.791016
3923.900391	3931.777832
3923.189453	4001.471191
3922.478516	4152.002441
3921.766602	4081.033936
3921.055664	4090.922607
3920.344727	4125.405762
3919.632813	4117.716797
3918.920898	4095.978516
3918.208984	4000.489502
3917.497070	4049.011475
3916.785156	4178.273926
3916.073242	3988.031494
3915.361328	4054.082031
3914.648438	3958.675781
3913.936523	4056.289551
3913.223633	4132.821777
3912.510742	4135.666504
3911.797852	4047.322266
3911.084961	4099.272461
3910.372070	3923.310303
3909.659180	4076.923584
3908.945313	3981.635254
3908.232422	4089.632568
3907.518555	4071.457031
3906.804688	4007.744629
3906.091797	4066.647461
3905.377930	4058.990479
3904.663086	4072.345459
3903.949219	4001.671387
3903.235352	4053.536133
3902.520508	4038.885986
3901.806641	4076.730713
3901.091797	4167.044434
3900.376953	4036.941895
3899.662109	4004.815186
3898.947266	4074.114258
3898.232422	4118.915527
3897.517578	4121.750488
3896.802734	4058.171631
3896.086914	4249.737305
3895.372070	3917.097656
3894.656250	3989.837402
3893.940430	3957.758789
3893.224609	4016.497803
3892.508789	4040.297607
3891.792969	4036.157959
3891.076172	4196.092773
3890.360352	4125.612305
3889.643555	4044.684814
3888.927734	4061.481934
3888.210938	4074.784912
3887.494141	3962.511230
3886.777344	4063.014648
3886.060547	3919.395508
3885.342773	4093.089111
3884.625977	3952.996826
3883.909180	3997.671875
3883.191406	3972.636963
3882.473633	4146.209961
3881.755859	4089.806396
3881.038086	3970.725098
3880.320313	4144.214844
3879.602539	4150.513672
3878.884766	4076.738037
3878.166016	4110.892578
3877.448242	4221.602539
3876.729492	4050.418213
3876.010742	3987.143066
3875.291992	4153.477051
3874.573242	4076.293457
3873.854492	4218.217285
3873.135742	3991.538818
3872.416016	4102.143066
3871.697266	4056.299072
3870.977539	4041.747314
3870.257813	4103.644043
3869.539063	4005.708984
3868.819336	4081.485596
3868.099609	3962.747314
3867.378906	4000.309082
3866.659180	4020.498779
3865.938477	4030.268066
3865.218750	4119.862793
3864.498047	4216.369141
3863.777344	4170.586914
3863.056641	4183.794434
3862.335938	3957.664795
3861.615234	4043.730713
3860.894531	4029.212158
3860.173828	4097.904297
3859.452148	4180.439941
3858.730469	4096.589844
3858.009766	4092.467529
3857.288086	4025.981689
3856.566406	4046.120850
3855.844727	4128.598145
3855.122070	4138.324707
3854.400391	4106.498535
3853.678711	4175.078613
3852.956055	4170.947266
3852.233398	4104.522949
3851.510742	3979.295410
3850.788086	4023.633301
3850.065430	4026.447266
3849.342773	4212.565430
3848.620117	4094.316406
3847.896484	4062.542480
3847.173828	4048.063232
3846.450195	4144.192383
3845.727539	4219.555664
3845.003906	4101.399902
3844.280273	4128.379883
3843.555664	4165.713379
3842.832031	4137.416504
3842.108398	4133.299805
3841.383789	4063.587158
3840.660156	4021.512207
3839.935547	4183.082520
3839.210938	3975.361572
3838.486328	4174.840332
3837.761719	4049.980469
3837.037109	4125.212891
3836.312500	4207.318359
3835.586914	4106.649414
3834.862305	4061.173340
3834.136719	4163.930664
3833.411133	4094.334961
3832.685547	4190.162598
3831.959961	4168.818359
3831.234375	4078.586426
3830.508789	4108.930176
3829.782227	4173.700684
3829.056641	4138.600586
3828.330078	4014.005127
3827.603516	4202.670898
3826.876953	4040.249512
3826.150391	4215.086914
3825.423828	4121.521973
3824.697266	4045.185791
3823.970703	4023.901611
3823.243164	4222.700195
3822.516602	4177.327148
3821.789063	4162.907227
3821.061523	3983.514160
3820.333984	3955.383545
3819.606445	4181.520508
3818.878906	3967.856689
3818.151367	4108.048340
3817.422852	4062.744141
3816.695313	4110.164551
3815.966797	4099.206055
3815.238281	4150.038086
3814.509766	4145.940918
3813.781250	4021.741211
3813.052734	4196.075684
3812.324219	3965.564941
3811.595703	4253.038086
3810.866211	4087.749023
3810.136719	4107.666016
3809.408203	3921.883789
3808.678711	4037.795654
3807.949219	4122.826172
3807.219727	4276.360840
3806.489258	4097.522461
3805.759766	4113.992676
3805.030273	4031.135010
3804.299805	4040.761719
3803.569336	4088.047607
3802.839844	4214.053223
3802.109375	4055.932373
3801.378906	4065.548584
3800.647461	4164.124023
3799.916992	4266.088867
3799.186523	4036.229248
3798.455078	3974.022461
3797.723633	4192.229492
3796.993164	4181.300781
3796.261719	4060.988281
3795.530273	4145.782227
3794.798828	4104.110352
3794.066406	4113.702637
3793.334961	4048.136475
3792.602539	4098.721680
3791.871094	4104.894531
3791.138672	4152.039551
3790.406250	4144.545898
3789.673828	4014.171875
3788.941406	4139.804199
3788.208984	4169.851563
3787.476563	4087.300781
3786.743164	4277.673828
3786.010742	4184.899902
3785.277344	4249.021484
3784.543945	4142.643555
3783.810547	4165.842773
3783.077148	4171.991699
3782.343750	4092.940430
3781.610352	4109.321289
3780.875977	4122.290039
3780.142578	4193.161621
3779.408203	4209.518066
3778.673828	4120.308105
3777.939453	4095.814697
3777.205078	4187.069336
3776.470703	4121.730469
3775.736328	4219.757813
3775.000977	4120.409180
3774.266602	4184.385742
3773.531250	4010.243896
3772.795898	4254.461914
3772.061523	4121.168457
3771.326172	4171.503906
3770.589844	4177.633789
3769.854492	4234.741699
3769.119141	4125.322754
3768.382813	4090.686035
3767.647461	4188.544434
3766.911133	4211.648438
3766.174805	4183.805664
3765.438477	4230.670898
3764.702148	4080.618896
3763.965820	4191.977051
3763.229492	4089.492188
3762.492188	4160.094727
3761.755859	4145.856934
3761.018555	4331.760254
3760.281250	4266.625488
3759.543945	4157.428223
3758.806641	4322.896484
3758.069336	4186.605469
3757.332031	4128.313965
3756.593750	4297.096191
3755.856445	4245.582520
3755.118164	4265.229004
3754.379883	4186.638672
3753.641602	4250.314941
3752.903320	4266.564453
3752.165039	4211.710938
3751.426758	4278.737305
3750.688477	4223.899414
3749.949219	4142.006348
3749.210938	4266.530273
3748.471680	4336.887695
3747.732422	4180.603516
3746.993164	4227.279297
3746.253906	4257.033203
3745.514648	4219.163086
3744.774414	4204.965820
3744.035156	4380.034180
3743.294922	4092.107422
3742.554688	4206.323242
3741.815430	4361.038574
3741.075195	4275.902344
3740.334961	4238.070801
3739.593750	4186.745605
3738.853516	4287.350586
3738.113281	4279.912598
3737.372070	4228.604980
3736.630859	4207.682129
3735.890625	4277.855469
3735.149414	4169.228516
3734.408203	4229.267578
3733.666016	4235.333984
3732.924805	4389.746094
3732.183594	4355.333008
3731.441406	4320.930176
3730.699219	4185.440918
3729.958008	4299.329102
3729.215820	4083.034424
3728.473633	4419.210449
3727.731445	4401.663086
3726.988281	4367.285645
3726.246094	4268.952148
3725.502930	4365.886230
3724.760742	4395.477051
3724.017578	4388.042480
3723.274414	4239.300293
3722.531250	4433.731934
3721.788086	4342.208496
3721.044922	4358.327148
3720.300781	4293.744141
3719.557617	4229.181152
3718.813477	4285.645508
3718.070313	4389.142090
3717.326172	4321.234375
3716.582031	4330.621094
3715.837891	4363.518555
3715.092773	4483.728516
3714.348633	4382.268555
3713.604492	4401.711426
3712.859375	4451.360840
3712.114258	4413.726563
3711.369141	4292.206543
3710.624023	4315.006348
3709.878906	4253.928223
3709.133789	4420.961426
3708.388672	4306.225098
3707.642578	4443.017090
3706.897461	4408.778320
3706.151367	4475.114746
3705.405273	4464.342773
3704.659180	4466.978516
3703.913086	4416.004883
3703.166992	4395.197266
3702.420898	4367.697266
3701.673828	4316.763672
3700.927734	4446.659180
3700.180664	4529.643066
3699.433594	4572.432129
3698.687500	4491.376953
3697.940430	4440.463867
3697.192383	4406.295410
3696.445313	4492.563477
3695.698242	4535.324219
3694.950195	4387.457031
3694.202148	4436.907227
3693.455078	4566.574707
3692.707031	4468.910645
3691.958984	4451.484863
3691.210938	4561.038574
3690.461914	4393.263672
3689.713867	4546.215820
3688.964844	4502.069824
3688.216797	4538.080566
3687.467773	4677.580566
3686.718750	4626.757813
3685.969727	4559.263184
3685.220703	4478.441406
3684.471680	4704.612793
3683.721680	4597.104980
3682.972656	4626.388184
3682.222656	4699.017090
3681.473633	4681.591797
3680.723633	4587.491699
3679.973633	4640.090820
3679.223633	4649.346191
3678.472656	4718.580078
3677.722656	4831.104980
3676.972656	4630.455566
3676.221680	4916.156250
3675.470703	4728.877441
3674.719727	4738.108887
3673.968750	4737.349609
3673.217773	4636.732910
3672.466797	4759.128418
3671.715820	4818.261230
3670.963867	4917.299316
3670.212891	4813.391113
3669.460938	4809.293945
3668.708984	4781.920410
3667.957031	4857.625977
3667.205078	4860.172363
3666.453125	4846.098145
3665.701172	4935.050293
3664.948242	4841.222656
3664.196289	4793.936523
3663.443359	4969.216797
3662.690430	4961.778320
3661.937500	4904.533203
3661.184570	4920.347656
3660.431641	4959.394043
3659.678711	5114.592773
3658.924805	5050.722168
3658.171875	4927.149414
3657.417969	5108.817871
3656.664063	4991.908203
3655.910156	5070.701172
3655.156250	5096.415039
3654.402344	4996.140137
3653.648438	5114.670898
3652.893555	5143.679199
3652.139648	5073.267578
3651.384766	5317.629395
3650.629883	5111.394043
3649.875000	5140.383789
3649.120117	5232.284668
3648.365234	5297.666992
3647.610352	5250.471191
3646.854492	5348.929199
3646.099609	5205.766113
3645.343750	5449.792480
3644.587891	5422.452148
3643.832031	5388.504883
3643.076172	5490.168457
3642.320313	5400.005371
3641.564453	5333.015137
3640.808594	5322.243164
3640.051758	5466.819824
3639.294922	5475.858398
3638.539063	5365.943848
3637.782227	5404.728027
3637.025391	5463.317383
3636.267578	5660.596191
3635.510742	5484.681641
3634.753906	5477.199707
3633.996094	5684.284180
3633.239258	5491.947266
3632.481445	5649.463379
3631.723633	5608.965820
3630.965820	5670.745605
3630.208008	5633.555664
3629.449219	5556.803223
3628.691406	5674.615234
3627.933594	5686.893066
3627.174805	5791.460938
3626.416016	5820.194336
3625.657227	5792.900879
3624.898438	5722.785645
3624.139648	5935.985840
3623.380859	5948.208984
3622.621094	5687.104980
3621.862305	5775.091797
3621.102539	6077.030762
3620.342773	5954.272949
3619.583984	5811.808105
3618.824219	5731.907227
3618.063477	5964.571289
3617.303711	5818.883789
3616.543945	5765.330078
3615.783203	5902.515137
3615.023438	5845.677246
3614.262695	5966.369629
3613.501953	5962.126953
3612.741211	5862.585449
3611.980469	5966.788086
3611.219727	6011.824219
3610.458008	6142.246094
3609.697266	6131.409668
3608.935547	6084.457520
3608.173828	6001.406738
3607.412109	5944.642578
3606.650391	6179.993652
3605.888672	6159.314941
3605.126953	5977.876465
3604.365234	6068.770020
3603.602539	5992.360352
3602.839844	6043.870605
3602.078125	6075.690430
3601.315430	6182.901367
3600.552734	6188.466797
3599.790039	6203.861328
3599.026367	6098.012207
3598.263672	6110.140137
3597.500000	6191.053223
3596.737305	6144.208984
3595.973633	6284.034668
3595.209961	6214.271484
3594.446289	6059.416992
3593.682617	6064.992188
3592.918945	6214.557617
3592.154297	6180.841797
3591.390625	6327.068848
3590.625977	6067.648926
3589.861328	6269.444336
3589.096680	6268.439941
3588.332031	6064.732910
3587.567383	6308.927246
3586.802734	6258.891113
3586.038086	6235.013672
3585.272461	6351.637695
3584.506836	6102.344727
3583.742188	6264.680176
3582.976563	6198.361816
3582.210938	6184.308105
3581.445313	6291.051758
3580.678711	6214.968262
3579.913086	6168.281738
3579.146484	6206.450684
3578.380859	6205.456543
3577.614258	6201.200195
3576.847656	6206.729980
3576.081055	6222.040527
3575.314453	6243.867676
3574.547852	6115.728027
3573.780273	6274.461426
3573.013672	6214.795410
3572.246094	6164.923828
3571.478516	6118.325684
3570.710938	6133.632324
3569.943359	6184.759277
3569.175781	6170.743164
3568.408203	6199.056641
3567.639648	6272.935059
3566.872070	6158.013184
3566.103516	6183.060547
3565.334961	5938.041016
3564.567383	6181.079590
3563.798828	6189.847656
3563.029297	6071.778320
3562.260742	6083.812012
3561.492188	6105.595215
3560.722656	6211.886719
3559.953125	5999.636719
3559.184570	6083.164063
3558.415039	6085.438477
3557.645508	6191.664551
3556.875000	6096.480469
3556.105469	6046.791992
3555.335938	6029.588379
3554.565430	6317.554688
3553.794922	6238.640625
3553.025391	5952.046875
3552.254883	6012.745605
3551.484375	6066.936523
3550.712891	6052.989258
3549.942383	6029.316406
3549.171875	6021.864746
3548.400391	6127.895020
3547.628906	5805.979492
3546.858398	6093.519043
3546.086914	6111.987305
3545.315430	5978.160156
3544.542969	5831.416992
3543.771484	5979.483887
3543.000000	6091.877930
3542.227539	5831.852539
3541.455078	6028.412109
3540.682617	6004.786621
3539.911133	5754.608887
3539.137695	5954.321777
3538.365234	5956.603516
3537.592773	6039.759277
3536.819336	5970.867188
3536.046875	5876.125488
3535.273438	5968.954102
3534.500000	5916.270996
3533.726563	5970.274414
3532.953125	5849.737305
3532.179688	6029.757324
3531.406250	5931.865723
3530.631836	6031.055664
3529.857422	6010.710449
3529.083984	5751.402832
3528.309570	5999.098145
3527.535156	5856.093262
3526.760742	5826.104980
3525.985352	5886.489258
3525.210938	5775.837402
3524.436523	5691.030762
3523.661133	5761.083984
3522.885742	5805.313477
3522.110352	5962.391602
3521.334961	5838.918945
3520.559570	5802.523438
3519.784180	5759.693359
3519.008789	5813.554688
3518.232422	5815.845215
3517.456055	5737.595703
3516.680664	5794.655273
3515.904297	5851.696289
3515.127930	5757.378418
3514.351563	5653.432129
3513.574219	5810.256348
3512.797852	5831.854492
3512.020508	5766.561035
3511.244141	5662.679688
3510.466797	5796.882813
3509.689453	5783.088379
3508.912109	5666.389648
3508.134766	5646.189453
3507.356445	5735.300781
3506.579102	5734.381836
3505.800781	5755.959961
3505.023438	5738.971191
3504.245117	5750.902832
3503.466797	5570.093750
3502.688477	5607.742188
3501.910156	5748.138672
3501.130859	5580.259277
3500.352539	5723.825195
3499.573242	5719.698242
3498.794922	5770.128906
3498.015625	5820.543457
3497.236328	5771.488281
3496.457031	5722.448730
3495.677734	5840.195801
3494.897461	5710.995117
3494.118164	5620.309082
3493.337891	5673.903320
3492.557617	5692.224609
3491.777344	5723.358398
3490.998047	5594.279297
3490.216797	5792.002441
3489.436523	5618.110840
3488.656250	5658.843262
3487.875000	5763.602539
3487.094727	5673.037109
3486.313477	5576.098633
3485.532227	5636.014160
3484.750977	5529.512695
3483.969727	5714.193848
3483.188477	5722.875000
3482.406250	5689.974121
3481.625000	5711.447266
3480.842773	5592.229004
3480.060547	5610.514160
3479.278320	5769.433105
3478.496094	5592.736816
3477.713867	5537.520020
3476.931641	5654.840820
3476.148438	5468.664551
3475.366211	5627.478516
3474.583008	5572.290527
3473.799805	5641.638672
3473.016602	5659.888184
3472.233398	5601.529785
3471.450195	5610.206055
3470.666992	5596.543945
3469.882813	5659.451660
3469.099609	5569.232910
3468.315430	5654.448730
3467.531250	5516.428711
3466.747070	5582.496582
3465.962891	5613.478516
3465.178711	5666.760742
3464.394531	5586.186523
3463.609375	5617.152344
3462.825195	5507.941406
3462.040039	5497.502930
3461.254883	5576.237305
3460.469727	5451.164063
3459.684570	5669.957520
3458.899414	5522.627441
3458.113281	5537.655273
3457.328125	5609.955078
3456.541992	5539.062012
3455.755859	5525.450195
3454.969727	5550.008789
3454.183594	5650.879883
3453.397461	5573.666016
3452.611328	5598.204590
3451.824219	5489.239258
3451.038086	5501.071289
3450.250977	5538.319336
3449.463867	5473.892578
3448.676758	5469.838867
3447.889648	5624.583008
3447.102539	5347.419434
3446.315430	5460.859375
3445.527344	5520.297852
3444.740234	5500.370117
3443.952148	5747.012695
3443.164063	5435.149414
3442.375977	5342.279297
3441.587891	5522.219238
3440.799805	5641.846191
3440.011719	5587.037109
3439.222656	5636.867188
3438.434570	5629.624023
3437.645508	5514.625977
3436.856445	5513.742188
3436.067383	5386.125977
3435.278320	5486.632324
3434.489258	5317.886719
3433.699219	5399.370605
3432.910156	5534.655273
3432.120117	5429.297852
3431.330078	5456.915039
3430.540039	5557.312500
3429.750000	5385.552246
3428.959961	5625.133301
3428.169922	5443.927246
3427.378906	5326.033691
3426.588867	5306.207031
3425.797852	5476.088867
3425.006836	5538.435059
3424.215820	5376.351563
3423.424805	5353.368652
3422.633789	5365.149414
3421.842773	5459.064941
3421.050781	5483.458984
3420.259766	5672.070313
3419.467773	5282.768555
3418.675781	5360.850586
3417.883789	5502.040527
3417.091797	5359.132324
3416.299805	5285.693359
3415.506836	5288.001465
3414.714844	5381.792480
3413.921875	5112.829590
3413.128906	5291.766113
3412.336914	5372.898438
3411.543945	5365.731934
3410.750000	5178.897949
3409.957031	5300.979980
3409.164063	5319.036621
3408.370117	5229.967773
3407.576172	5282.680664
3406.783203	5360.573242
3405.989258	5284.136230
3405.195313	5292.734863
3404.400391	5345.403320
3403.606445	5325.661133
3402.812500	5280.748535
3402.017578	5342.833008
3401.222656	5408.043457
3400.427734	5337.974609
3399.633789	5387.439453
3398.837891	5414.876465
3398.042969	5281.959473
3397.248047	5277.969238
3396.452148	5324.268066
3395.657227	5285.704590
3394.861328	5058.632324
3394.065430	5312.283203
3393.269531	5393.097656
3392.473633	5244.629395
3391.677734	5268.908691
3390.880859	5192.716309
3390.084961	5292.331543
3389.288086	5175.358887
3388.491211	5347.118164
3387.694336	5314.886230
3386.897461	5210.513672
3386.100586	5165.767578
3385.302734	5249.610840
3384.505859	5129.621582
3383.708008	5207.172852
3382.911133	5290.968750
3382.113281	5167.895996
3381.315430	5229.736328
3380.517578	5257.094238
3379.718750	5249.986816
3378.920898	5318.047852
3378.123047	5173.148438
3377.324219	5247.461914
3376.525391	5234.098633
3375.726563	5205.089844
3374.927734	5229.291016
3374.128906	5337.965332
3373.330078	5199.458008
3372.530273	5220.520020
3371.731445	5207.173340
3370.931641	5250.115234
3370.131836	5208.629883
3369.332031	5142.149902
3368.532227	5260.091797
3367.732422	5131.126465
3366.932617	5142.801270
3366.131836	5263.809570
3365.332031	5250.471680
3364.531250	5184.048828
3363.730469	5151.993164
3362.929688	5247.946289
3362.128906	5175.312500
3361.327148	5177.603516
3360.526367	5310.951172
3359.725586	5122.904297
3358.923828	5175.112793
3358.122070	5196.115234
3357.320313	5260.769043
3356.518555	5197.566895
3355.716797	5146.854980
3354.915039	5170.964844
3354.112305	5251.162109
3353.310547	5032.206055
3352.507813	5293.094238
3351.705078	5027.477051
3350.902344	5294.510742
3350.099609	5197.130371
3349.296875	5218.090820
3348.493164	5217.253906
3347.690430	5210.192383
3346.886719	5150.230469
3346.083008	4956.496094
3345.279297	5139.245605
3344.475586	5213.071777
3343.671875	5283.763672
3342.868164	5180.305176
3342.063477	5104.860352
3341.259766	4995.246582
3340.455078	5193.353027
3339.650391	5093.082031
3338.845703	5216.542480
3338.041016	5091.448730
3337.236328	5115.479492
3336.431641	5123.975098
3335.625977	5191.461914
3334.821289	4988.840820
3334.015625	5140.133789
3333.209961	5030.688477
3332.404297	5051.602539
3331.598633	5171.787598
3330.791992	5226.793457
3329.986328	5136.012695
3329.180664	5097.977539
3328.374023	5134.365234
3327.567383	5257.540527
3326.760742	5185.409180
3325.954102	5131.895020
3325.147461	5134.170410
3324.339844	5080.681152
3323.533203	5045.793945
3322.725586	5007.820801
3321.918945	5016.307129
3321.111328	5164.109863
3320.303711	5107.562500
3319.496094	5007.703125
3318.687500	5074.979004
3317.879883	5074.165039
3317.071289	5113.566406
3316.263672	5060.165039
3315.455078	5142.851074
3314.646484	5046.173340
3313.837891	5063.913086
3313.029297	5069.282715
3312.219727	5059.197754
3311.411133	4999.675781
3310.601563	5057.574707
3309.792969	4942.468750
3308.983398	4963.295898
3308.173828	5092.197754
3307.364258	4989.491211
3306.553711	5130.695801
3305.744141	5074.314453
3304.933594	5036.467285
3304.124023	5078.857422
3303.313477	5111.978516
3302.502930	5086.481934
3301.692383	5045.572754
3300.881836	5106.435059
3300.070313	5068.618652
3299.259766	5036.979004
3298.448242	4986.857422
3297.637695	4995.301758
3296.826172	5074.609863
3296.014648	5129.246582
3295.203125	5036.019531
3294.390625	5050.609863
3293.579102	5148.332031
3292.766602	4968.944336
3291.955078	4943.521973
3291.142578	5056.602051
3290.330078	5114.256836
3289.517578	5147.279785
3288.705078	4955.730469
3287.891602	4930.330078
3287.079102	4981.816895
3286.265625	5048.661133
3285.453125	4989.440918
3284.639648	4973.271973
3283.826172	4920.229004
3283.012695	4934.803223
3282.198242	5013.889160
3281.384766	4976.223633
3280.570313	5055.277832
3279.756836	4962.343750
3278.942383	4949.266602
3278.127930	4966.890625
3277.313477	4963.024414
3276.499023	4959.159180
3275.683594	4921.543945
3274.869141	4926.889648
3274.053711	4981.310547
3273.238281	4934.508789
3272.423828	4939.849609
3271.608398	4932.925293
3270.791992	5005.701660
3269.976563	4922.147461
3269.161133	5001.030762
3268.344727	5092.144043
3267.528320	4898.334473
3266.712891	4857.730469
3265.896484	4936.573242
3265.080078	4941.904785
3264.262695	4965.602539
3263.446289	4998.476074
3262.629883	4798.746094
3261.812500	5030.530762
3260.995117	4836.978516
3260.177734	5120.684570
3259.360352	4847.659668
3258.542969	4920.272949
3257.725586	4937.828125
3256.907227	4964.548340
3256.089844	4884.282715
3255.271484	4895.722656
3254.453125	4925.491699
3253.634766	4961.361328
3252.816406	4991.110352
3251.998047	4953.660645
3251.179688	4946.758301
3250.360352	4887.956055
3249.541992	5018.432129
3248.722656	5048.147461
3247.903320	5126.678711
3247.083984	4939.738281
3246.264648	5030.463867
3245.444336	4956.453125
3244.625000	4824.523438
3243.804688	4976.206055
3242.985352	5033.331543
3242.165039	4901.452637
3241.344727	5016.477539
3240.524414	4985.200195
3239.703125	4853.391602
3238.882813	4910.490723
3238.061523	5052.851074
3237.241211	4869.326172
3236.419922	4978.154785
3235.598633	5001.709961
3234.777344	4949.162598
3233.956055	4994.017090
3233.134766	4941.488281
3232.312500	5129.317383
3231.490234	4973.361328
3230.668945	4884.364746
3229.846680	5041.703613
3229.024414	4840.231445
3228.202148	4973.208008
3227.378906	4911.622070
3226.556641	4971.611328
3225.733398	5037.657715
3224.911133	5012.545410
3224.087891	4914.542969
3223.264648	5153.671387
3222.441406	5028.349609
3221.618164	5036.650391
3220.793945	4972.096680
3219.970703	4965.228516
3219.146484	4988.707031
3218.322266	4915.089844
3217.498047	4859.697266
3216.673828	4946.874512
3215.849609	5121.967773
3215.025391	5154.498047
3214.201172	5026.344238
3213.375977	4910.355957
3212.550781	4967.148926
3211.725586	4987.562012
3210.900391	4980.701660
3210.075195	4970.814453
3209.250000	5000.302734
3208.424805	5002.527832
3207.598633	5050.166992
3206.772461	5031.192871
3205.947266	5090.918945
3205.121094	5084.048828
3204.294922	5016.666504
3203.467773	5021.911133
3202.641602	4951.535156
3201.815430	5177.560547
3200.988281	4995.301270
3200.161133	4967.289551
3199.333984	4884.875488
3198.506836	5077.520020
3197.679688	4976.983887
3196.852539	4894.607422
3196.024414	5078.094727
3195.197266	5071.238281
3194.369141	4934.527832
3193.541016	4963.929688
3192.712891	4836.336914
3191.884766	5176.645020
3191.056641	5006.807617
3190.227539	4984.880859
3189.399414	5038.386230
3188.570313	5046.626465
3187.741211	4895.014160
3186.913086	4951.522949
3186.083008	4812.035156
3185.253906	4901.699219
3184.424805	5024.489746
3183.594727	5047.791016
3182.765625	5107.242676
3181.935547	4952.777832
3181.105469	4951.981934
3180.275391	5086.711914
3179.445313	4914.256836
3178.615234	5048.949219
3177.784180	4987.933594
3176.954102	5023.249023
3176.123047	5148.830566
3175.291992	5033.669922
3174.460938	5065.952637
3173.629883	5047.091797
3172.798828	5022.222168
3171.966797	5024.422363
3171.135742	4966.494141
3170.303711	5049.860840
3169.471680	4964.898438
3168.639648	5075.282227
3167.807617	4846.130859
3166.975586	5049.619629
3166.143555	4949.694336
3165.310547	5035.985352
3164.478516	4972.124023
3163.645508	5040.371094
3162.812500	4874.477051
3161.979492	5008.740723
3161.146484	5025.939453
3160.312500	5052.132324
3159.479492	5054.320313
3158.645508	4936.542480
3157.812500	4833.795898
3156.978516	5048.885742
3156.144531	5096.037109
3155.310547	5065.246094
3154.475586	4920.590332
3153.641602	5060.622070
3152.807617	4898.038574
3151.972656	4912.228027
3151.137695	4938.391602
3150.302734	4961.552246
3149.467773	5026.618652
3148.632813	5016.831055
3147.796875	5013.031738
3146.961914	4877.569336
3146.125977	5014.412598
3145.290039	5109.331543
3144.455078	4988.873047
3143.618164	5011.995117
3142.782227	5002.219727
3141.946289	4983.478516
3141.109375	5021.534668
3140.273438	5104.406250
3139.436523	4882.470215
3138.599609	4935.461914
3137.762695	4940.642578
3136.925781	4892.062500
3136.088867	4759.886719
3135.250977	5123.370605
3134.414063	4925.525879
3133.576172	4984.427734
3132.738281	4929.911133
3131.900391	4896.297363
3131.062500	4868.661133
3130.224609	4912.620117
3129.385742	4980.422852
3128.547852	4982.604004
3127.708984	5011.616211
3126.870117	5061.484863
3126.031250	5048.750000
3125.192383	5155.214355
3124.353516	4945.826660
3123.514648	4903.326172
3122.674805	4911.473633
3121.835938	4883.881836
3120.996094	4981.354004
3120.156250	4923.989746
3119.316406	4994.635254
3118.476563	5053.353516
3117.635742	4969.224609
3116.795898	5140.981934
3115.955078	4914.083496
3115.114258	4803.250000
3114.274414	4945.213867
3113.433594	5054.426758
3112.591797	4884.169434
3111.750977	5034.967773
3110.910156	4956.892578
3110.068359	4849.129395
3109.226563	4845.378906
3108.384766	4906.976563
3107.542969	4983.403320
3106.701172	4946.969727
3105.859375	4931.329590
3105.017578	4909.757813
3104.174805	5042.525391
3103.332031	5109.965820
3102.490234	4987.498047
3101.647461	4995.595215
3100.803711	4908.777344
3099.960938	4943.574219
3099.118164	4895.337891
3098.274414	5045.745117
3097.431641	5021.220703
3096.587891	4904.831055
3095.744141	4909.968750
3094.900391	4861.775879
3094.056641	4949.860352
3093.211914	4946.102539
3092.368164	5069.679688
3091.523438	5000.766602
3090.678711	4878.589355
3089.833984	4809.728516
3088.989258	4788.239258
3088.144531	4882.153320
3087.299805	5047.038574
3086.454102	4921.993652
3085.609375	4867.967773
3084.763672	4855.356934
3083.917969	5008.313965
3083.072266	4856.750977
3082.226563	4968.280762
3081.380859	4940.885742
3080.534180	5046.456543
3079.688477	4862.488770
3078.841797	4920.779785
3077.995117	4872.737305
3077.148438	4863.095215
3076.301758	5001.067383
3075.455078	5050.442383
3074.607422	5141.119629
3073.760742	4851.114258
3072.913086	4980.147949
3072.065430	4761.057617
3071.217773	4813.380371
3070.370117	4830.299316
3069.522461	4956.304688
3068.673828	5123.540527
3067.826172	5105.031250
3066.977539	4930.336426
3066.128906	4897.131348
3065.280273	4905.181641
3064.431641	4907.337891
3063.583008	4933.054199
3062.734375	4938.149902
3061.884766	4825.477051
3061.035156	4877.687012
3060.186523	4794.492188
3059.336914	4952.628418
3058.487305	4931.235352
3057.636719	4868.664551
3056.787109	5009.063965
3055.937500	4887.683594
3055.086914	5045.676758
3054.236328	5056.624512
3053.385742	5091.083984
3052.535156	4987.400879
3051.684570	4739.766113
3050.833984	4988.733887
3049.982422	4929.180176
3049.130859	4960.694824
3048.280273	4760.208496
3047.428711	4997.267578
3046.577148	5069.854004
3045.725586	4828.354492
3044.873047	4713.124023
3044.021484	4864.944824
3043.168945	4914.035645
3042.316406	4933.777832
3041.464844	4894.856934
3040.612305	5008.430176
3039.758789	4931.395508
3038.906250	4927.670410
3038.053711	4921.015137
3037.200195	4885.057617
3036.346680	4790.512207
3035.493164	4986.018066
3034.639648	4961.782715
3033.786133	4843.841797
3032.932617	4807.924805
3032.079102	4892.051758
3031.224609	4961.515625
3030.370117	4793.896484
3029.515625	4927.729980
3028.661133	4932.788086
3027.806641	4940.769531
3026.952148	4779.110840
3026.097656	4839.751953
3025.242188	4885.754395
3024.386719	4893.737793
3023.532227	4781.879395
3022.676758	4772.342285
3021.820313	4844.623047
3020.964844	4957.781250
3020.109375	4875.194336
3019.252930	4853.965332
3018.397461	4984.587402
3017.541016	4975.025879
3016.684570	4816.591309
3015.828125	4935.481445
3014.970703	4838.385742
3014.114258	4913.467773
3013.256836	4883.503906
3012.400391	4859.382813
3011.542969	4896.512695
3010.685547	5067.759766
3009.828125	4889.104980
3008.970703	4920.381348
3008.112305	4925.417969
3007.254883	4889.657227
3006.396484	4845.166992
3005.538086	4838.560547
3004.679688	4907.683105
3003.821289	4804.968750
3002.962891	4938.130371
3002.104492	4951.890625
3001.245117	4785.183594
3000.385742	4970.666992
2999.527344	4859.295898
2998.667969	4928.335938
2997.808594	4921.724609
2996.948242	4859.856445
2996.088867	4725.310547
2995.229492	4977.494629
2994.369141	4924.367676
2993.508789	4917.761719
2992.648438	4858.849121
2991.788086	4927.799316
2990.927734	4877.619629
2990.067383	4798.409180
2989.206055	4983.500977
2988.344727	4840.418457
2987.484375	4883.186523
2986.623047	4954.968262
2985.761719	4820.665527
2984.899414	4892.434082
2984.038086	4714.664551
2983.176758	4974.982910
2982.314453	4834.961914
2981.452148	4819.683594
2980.589844	5079.858398
2979.727539	5044.251953
2978.865234	4776.774902
2978.002930	4816.578125
2977.139648	5024.428711
2976.276367	4968.573730
2975.414063	4999.636230
2974.550781	4923.529785
2973.687500	4859.030273
2972.824219	4921.942871
2971.959961	4874.833008
2971.096680	4934.828125
2970.232422	4870.368164
2969.368164	4993.999023
2968.503906	5106.018555
2967.639648	5090.733398
2966.775391	4916.393066
2965.911133	4973.431641
2965.045898	4943.719238
2964.181641	4966.047363
2963.316406	4872.762695
2962.451172	5004.901855
2961.585938	5079.214844
2960.720703	4933.959473
2959.854492	4889.839844
2958.989258	4799.529785
2958.123047	4914.250000
2957.256836	4985.629395
2956.391602	4857.823730
2955.524414	4989.794434
2954.658203	5061.126953
2953.791992	4843.935059
2952.924805	4857.577148
2952.058594	4931.780273
2951.191406	5000.191895
2950.324219	5002.269043
2949.457031	5073.529785
2948.589844	4974.716309
2947.722656	4956.623535
2946.854492	4935.655762
2945.986328	5018.403809
2945.119141	4893.739258
2944.250977	4993.746582
2943.382813	4903.679199
2942.513672	5020.926270
2941.645508	5103.593262
2940.777344	4990.526855
2939.908203	4912.027832
2939.039063	5032.074707
2938.169922	4979.483398
2937.300781	4995.937500
2936.431641	4920.363281
2935.562500	5002.952148
2934.692383	4961.898438
2933.822266	5024.333496
2932.953125	5129.856445
2932.083008	5005.473145
2931.212891	4901.239746
2930.341797	4998.113770
2929.471680	4882.427246
2928.601563	5010.859375
2927.730469	5070.344238
2926.859375	4914.512695
2925.988281	5106.020996
2925.117188	4927.276367
2924.246094	4978.127930
2923.375000	5014.619141
2922.502930	5099.859863
2921.630859	5035.944336
2920.759766	5000.723633
2919.887695	5042.920898
2919.015625	4999.110352
2918.142578	4900.860352
2917.270508	4805.506836
2916.397461	4996.691895
2915.525391	4970.104492
2914.652344	5052.362793
2913.779297	4965.637207
2912.906250	5007.784668
2912.033203	5075.683105
2911.159180	5026.205078
2910.286133	4982.466797
2909.412109	4875.791992
2908.538086	5069.547852
2907.664063	5000.079102
2906.790039	5010.712402
2905.916016	4932.696289
2905.041992	5086.290527
2904.166992	5016.863281
2903.291992	5027.486328
2902.417969	4909.510254
2901.542969	5051.579102
2900.666992	5113.613281
2899.791992	4918.559082
2898.916992	5051.990234
2898.041016	4928.393555
2897.165039	5155.992188
2896.290039	5026.709473
2895.414063	4997.358398
2894.538086	4813.925293
2893.661133	5126.987305
2892.785156	5054.844238
2891.908203	4962.759766
2891.032227	4922.035156
2890.155273	4961.158203
2889.278320	5011.671387
2888.401367	5070.719238
2887.523438	5021.453125
2886.646484	4957.956055
2885.768555	4962.854004
2884.891602	4893.689453
2884.013672	4944.163574
2883.135742	4949.061035
2882.256836	4837.225098
2881.378906	5044.249512
2880.500977	5037.742676
2879.622070	4988.552246
2878.743164	5013.354492
2877.865234	5004.010742
2876.985352	5060.089844
2876.106445	4900.015625
2875.227539	4867.946777
2874.348633	4926.863281
2873.468750	5039.768555
2872.588867	4865.589844
2871.708984	4873.329102
2870.829102	5085.626953
2869.949219	4968.338379
2869.069336	4953.335449
2868.188477	4972.414063
2867.308594	5000.003906
2866.427734	5044.618164
2865.546875	4896.208008
2864.666016	4926.634766
2863.785156	4928.676758
2862.903320	4854.118652
2862.022461	4963.960449
2861.140625	5019.880371
2860.258789	4959.521484
2859.376953	4828.302734
2858.495117	5085.482422
2857.613281	5019.473145
2856.731445	4930.814941
2855.848633	4975.352051
2854.965820	4886.729004
2854.083984	4857.615723
2853.201172	4848.335449
2852.318359	4966.476074
2851.434570	4965.673828
2850.551758	4987.516602
2849.667969	4932.938477
2848.785156	4909.504395
2847.901367	4826.663574
2847.017578	5100.274902
2846.133789	4983.490234
2845.249023	4996.824707
2844.365234	4894.231445
2843.480469	5026.307129
2842.596680	4952.006348
2841.711914	4894.686035
2840.827148	4973.011230
2839.942383	4941.131836
2839.056641	4903.613281
2838.171875	4866.106445
2837.286133	5127.928711
2836.401367	4915.353516
2835.515625	4815.760254
2834.629883	4958.923828
2833.743164	5028.670410
2832.857422	5058.894531
2831.971680	4956.520508
2831.084961	5023.413086
2830.198242	4949.278809
2829.311523	4985.134766
2828.424805	4984.329102
2827.538086	4952.517578
2826.651367	5008.083008
2825.763672	5055.176758
2824.876953	4989.560547
2823.989258	4949.317871
2823.101563	5049.910156
2822.213867	4978.694336
2821.325195	5000.414063
2820.437500	5072.798340
2819.549805	5145.159180
2818.661133	5104.929199
2817.772461	4946.535645
2816.883789	5139.852051
2815.995117	4897.119141
2815.106445	5132.566406
2814.216797	4937.714844
2813.328125	4959.408691
2812.438477	5031.692871
2811.548828	5061.795898
2810.659180	5077.838379
2809.769531	5093.875488
2808.879883	5154.854004
2807.989258	5061.332520
2807.099609	5136.337891
2806.208984	5079.351563
2805.318359	5173.980957
2804.427734	4996.308594
2803.537109	5071.275391
2802.646484	4989.081543
2801.754883	4957.414063
2800.863281	5133.333984
2799.972656	5146.527344
2799.081055	5098.023926
2798.189453	5046.732422
2797.296875	4961.817871
2796.405273	5000.255371
2795.513672	5097.530273
2794.621094	5001.440430
2793.728516	5132.301270
2792.835938	5153.879883
2791.943359	5125.040527
2791.050781	5278.218262
2790.157227	5154.179688
2789.264648	5010.586426
2788.371094	5029.367676
2787.477539	4994.974609
2786.583984	4994.166992
2785.690430	5200.367188
2784.796875	4995.349121
2783.903320	5139.958984
2783.008789	5139.127441
2782.114258	5012.495117
2781.219727	5117.899414
2780.325195	5245.627441
2779.430664	5046.388672
2778.536133	5160.117188
2777.640625	5083.862793
2776.746094	5002.046875
2775.850586	5101.765625
2774.955078	5153.987793
2774.059570	5114.072754
2773.164063	5177.440430
2772.267578	5092.884277
2771.372070	5066.948730
2770.475586	5138.662109
2769.579102	5227.087402
2768.683594	5086.800781
2767.786133	5052.517578
2766.889648	5168.792480
2765.993164	5240.430664
2765.095703	5164.333496
2764.199219	5185.790527
2763.301758	5095.795898
2762.404297	5181.327148
2761.506836	5152.636719
2760.608398	5293.825684
2759.710938	5114.773438
2758.812500	5177.974609
2757.914063	5316.307129
2757.016602	5276.485352
2756.118164	5175.461426
2755.218750	5068.905762
2754.320313	5179.350098
2753.421875	5153.481445
2752.522461	5252.752930
2751.623047	5215.759766
2750.723633	5139.860840
2749.824219	5136.249512
2748.924805	5263.248047
2748.025391	5201.270508
2747.125000	5108.754395
2746.224609	5146.813477
2745.325195	5193.191406
2744.424805	5167.360840
2743.523438	5174.853027
2742.623047	5193.445801
2741.722656	5145.424805
2740.821289	5277.785645
2739.919922	5210.345215
2739.019531	5206.728027
2738.118164	5117.132813
2737.215820	5132.942871
2736.314453	5206.972656
2735.413086	5333.649414
2734.510742	5036.211914
2733.608398	5179.502930
2732.706055	5242.393066
2731.803711	5080.862793
2730.901367	5171.447754
2729.999023	5286.928711
2729.095703	5169.773438
2728.193359	5224.308105
2727.290039	5082.287598
2726.386719	5302.879395
2725.483398	5108.314453
2724.579102	5292.861816
2723.675781	5156.454102
2722.771484	5208.171387
2721.868164	5124.364746
2720.963867	5212.014648
2720.059570	5161.408691
2719.155273	5177.157715
2718.250000	5087.882324
2717.345703	5266.666504
2716.440430	5077.946289
2715.536133	5115.796387
2714.630859	5103.920410
2713.725586	5254.971680
2712.819336	5372.842285
2711.914063	5175.975098
2711.007813	5186.177246
2710.102539	5259.847168
2709.196289	5173.460449
2708.290039	5147.793945
2707.383789	5191.092773
2706.477539	5151.642090
2705.570313	5114.961426
2704.664063	5194.084473
2703.756836	5019.583496
2702.849609	5117.988281
2701.942383	5202.583008
2701.035156	5014.389648
2700.127930	5258.746582
2699.219727	5065.096191
2698.312500	5177.182129
2697.404297	5126.782715
2696.496094	5197.527832
2695.587891	5185.675781
2694.679688	5160.067383
2693.770508	5230.772949
2692.862305	5166.648926
2691.953125	5281.341309
2691.043945	5241.981934
2690.134766	5122.890625
2689.225586	5232.035156
2688.316406	5184.455566
2687.406250	5156.130859
2686.497070	5265.216309
2685.586914	5206.664063
2684.676758	5219.555664
2683.766602	4977.001465
2682.856445	5138.223145
2681.946289	5244.476563
2681.035156	5205.191895
2680.124023	5223.562500
2679.213867	5217.227051
2678.302734	5224.613281
2677.391602	5166.151367
2676.479492	5198.231934
2675.568359	5112.365723
2674.657227	5259.618164
2673.745117	5129.901367
2672.833008	5145.518066
2671.920898	5196.761230
2671.008789	5132.887695
2670.096680	5145.755859
2669.183594	5133.963379
2668.270508	5163.261719
2667.358398	5307.575195
2666.445313	5156.111328
2665.532227	5174.439941
2664.619141	5304.994141
2663.705078	5326.029297
2662.791992	5368.949219
2661.877930	5099.948242
2660.963867	5246.842773
2660.049805	5267.873047
2659.135742	5201.386230
2658.221680	5260.696289
2657.306641	5317.253418
2656.392578	5220.723145
2655.477539	5299.131348
2654.562500	5186.240234
2653.647461	5185.399414
2652.732422	5296.553711
2651.817383	5254.727539
2650.901367	5166.492676
2649.986328	5217.529785
2649.070313	5246.711914
2648.154297	5387.788086
2647.238281	5378.727539
2646.321289	5342.384766
2645.405273	5202.387695
2644.489258	5253.368652
2643.572266	5350.694336
2642.655273	5221.670410
2641.738281	5141.761230
2640.821289	5179.088867
2639.903320	5172.798340
2638.986328	5204.658691
2638.068359	5405.427734
2637.151367	5211.142090
2636.233398	5202.125977
2635.315430	5285.700684
2634.396484	5309.347656
2633.478516	5213.206055
2632.559570	5340.287598
2631.641602	5252.335449
2630.722656	5221.552734
2629.803711	5174.456543
2628.884766	5198.097656
2627.965820	5129.262695
2627.045898	5340.528809
2626.125977	5421.225586
2625.207031	5404.035645
2624.287109	5250.957031
2623.367188	5222.930664
2622.447266	5366.084473
2621.526367	5351.630859
2620.606445	5271.994629
2619.685547	5284.717285
2618.764648	5278.429199
2617.843750	5293.861328
2616.922852	5257.715332
2616.001953	5368.132813
2615.080078	5120.334961
2614.159180	5295.851074
2613.237305	5360.094238
2612.315430	5245.313477
2611.393555	5423.435547
2610.471680	5327.660156
2609.548828	5359.325684
2608.626953	5456.029785
2607.704102	5365.715332
2606.781250	5405.487305
2605.858398	5345.009766
2604.935547	5455.196289
2604.012695	5289.110352
2603.089844	5358.653809
2602.166016	5398.393555
2601.242188	5313.603516
2600.318359	5307.328125
2599.394531	5322.702148
2598.470703	5481.465820
2597.546875	5147.846191
2596.622070	5322.814453
2595.698242	5403.077637
2594.773438	5280.528809
2593.848633	5166.129883
2592.923828	5257.190430
2591.998047	5445.510742
2591.073242	5417.605957
2590.147461	5224.912109
2589.222656	5340.213867
2588.296875	5412.266113
2587.371094	5257.470703
2586.445313	5307.914063
2585.518555	5315.149902
2584.592773	5433.041504
2583.666016	5248.658691
2582.739258	5363.824219
2581.812500	5344.069336
2580.885742	5399.843262
2579.958984	5304.578613
2579.031250	5360.339844
2578.104492	5537.399414
2577.176758	5374.771484
2576.249023	5390.068359
2575.321289	5340.689941
2574.393555	5490.695313
2573.465820	5368.585938
2572.537109	5459.285156
2571.608398	5331.834473
2570.680664	5320.198242
2569.751953	5427.012695
2568.823242	5340.001953
2567.893555	5325.678711
2566.964844	5375.936035
2566.035156	5280.904785
2565.105469	5371.499023
2564.176758	5475.510742
2563.246094	5194.974609
2562.316406	5320.488281
2561.386719	5341.127930
2560.456055	5375.198730
2559.526367	5368.950684
2558.595703	5507.788086
2557.665039	5423.618164
2556.734375	5497.940430
2555.802734	5529.271484
2554.872070	5396.809082
2553.940430	5395.931641
2553.009766	5427.264160
2552.078125	5386.126465
2551.146484	5449.648926
2550.213867	5362.913574
2549.282227	5324.488281
2548.349609	5441.627441
2547.417969	5446.105957
2546.485352	5407.686035
2545.552734	5562.282715
2544.620117	5387.166504
2543.686523	5340.734863
2542.753906	5487.228516
2541.820313	5510.446289
2540.887695	5501.515137
2539.954102	5414.924316
2539.020508	5341.749512
2538.085938	5477.415039
2537.152344	5345.365723
2536.217773	5368.583008
2535.284180	5335.600098
2534.349609	5452.449707
2533.415039	5432.838379
2532.480469	5488.119629
2531.544922	5372.241699
2530.610352	5435.535645
2529.674805	5541.580078
2528.739258	5382.984863
2527.803711	5505.037109
2526.868164	5378.562012
2525.932617	5618.120117
2524.997070	5350.102051
2524.060547	5461.397461
2523.124023	5527.263184
2522.187500	5601.116699
2521.250977	5450.724609
2520.314453	5359.096191
2519.377930	5598.383789
2518.440430	5541.444824
2517.503906	5468.519043
2516.566406	5536.975098
2515.628906	5450.739746
2514.691406	5468.516602
2513.752930	5307.676758
2512.815430	5530.707031
2511.876953	5532.472168
2510.938477	5424.990723
2510.000000	5450.749023
2509.061523	5314.015137
2508.123047	5536.861816
2507.184570	5402.820801
2506.245117	5561.683594
2505.306641	5478.258789
2504.367188	5397.521973
2503.427734	5484.458984
2502.487305	5488.887695
2501.547852	5331.042480
2500.608398	5545.616211
2499.667969	5488.867188
2498.727539	5522.539551
2497.787109	5569.493164
2496.846680	5411.762695
2495.906250	5663.354004
2494.964844	5420.629883
2494.024414	5223.148438
2493.083008	5349.801270
2492.141602	5425.950684
2491.200195	5602.981934
2490.258789	5559.589355
2489.317383	5431.264648
2488.375000	5310.943848
2487.432617	5538.298828
2486.490234	5463.104980
2485.547852	5433.034180
2484.605469	5379.101563
2483.663086	5465.741211
2482.720703	5435.684082
2481.777344	5466.612305
2480.833984	5460.420898
2479.890625	5446.280273
2478.947266	5548.736816
2478.003906	5457.753906
2477.059570	5409.183594
2476.116211	5326.198242
2475.171875	5579.548340
2474.227539	5427.722656
2473.283203	5479.783691
2472.338867	5463.010254
2471.394531	5599.731934
2470.449219	5463.876953
2469.503906	5560.870605
2468.559570	5358.938965
2467.614258	5490.298340
2466.667969	5447.096680
2465.722656	5517.591797
2464.777344	5519.336426
2463.831055	5492.007813
2462.884766	5710.440430
2461.938477	5397.746094
2460.992188	5552.723633
2460.045898	5546.536621
2459.099609	5498.098633
2458.152344	5330.861328
2457.205078	5557.025391
2456.257813	5339.682129
2455.310547	5470.765137
2454.363281	5517.368652
2453.416016	5389.836426
2452.467773	5547.224121
2451.520508	5395.991699
2450.572266	5505.862793
2449.624023	5425.871094
2448.675781	5588.421875
2447.726563	5497.899902
2446.778320	5547.072754
2445.829102	5411.795898
2444.879883	5252.854004
2443.930664	5473.245605
2442.981445	5519.755859
2442.032227	5661.040527
2441.083008	5507.426270
2440.132813	5503.896484
2439.182617	5610.901367
2438.232422	5544.203613
2437.282227	5472.265625
2436.332031	5531.874512
2435.381836	5644.063965
2434.430664	5553.737305
2433.480469	5644.853516
2432.529297	5499.351563
2431.578125	5537.879883
2430.626953	5494.930664
2429.674805	5501.916992
2428.723633	5537.798828
2427.771484	5437.084473
2426.819336	5472.964355
2425.867188	5553.470215
2424.915039	5418.673340
2423.962891	5415.164551
2423.010742	5448.399902
2422.057617	5387.158203
2421.104492	5585.674316
2420.151367	5506.067871
2419.198242	5489.433594
2418.245117	5561.963379
2417.291992	5351.304199
2416.337891	5379.267578
2415.383789	5357.421875
2414.430664	5319.859375
2413.475586	5337.333008
2412.521484	5386.237793
2411.567383	5411.552734
2410.612305	5402.812988
2409.658203	5333.851074
2408.703125	5406.286621
2407.748047	5345.199219
2406.792969	5278.896973
2405.837891	5474.293945
2404.881836	5337.351074
2403.925781	5292.009277
2402.970703	5374.841797
2402.013672	5266.747070
2401.058594	5407.078613
2400.101563	5385.282227
2399.144531	5232.804199
2398.189453	5294.670898
2397.232422	5288.581055
2396.275391	5407.893555
2395.318359	5169.311523
2394.361328	5291.215820
2393.404297	5326.909180
2392.445313	5341.705078
2391.488281	5390.430176
2390.529297	5324.301758
2389.572266	5255.584961
2388.613281	5239.072754
2387.656250	5316.477539
2386.697266	5253.012207
2385.738281	5312.134277
2384.779297	5071.386719
2383.820313	5294.758789
2382.861328	5236.550293
2381.902344	5238.301758
2380.943359	5195.755371
2379.982422	5387.696777
2379.023438	5303.462402
2378.064453	5112.474121
2377.103516	5247.046875
2376.142578	5199.326172
2375.183594	5091.748535
2374.222656	5241.874512
2373.261719	5084.880859
2372.300781	5024.208008
2371.339844	5200.285645
2370.378906	5319.083496
2369.417969	5065.957031
2368.455078	5179.537109
2367.494141	5064.302734
2366.533203	5102.465332
2365.570313	5145.813477
2364.609375	5186.548340
2363.646484	5222.074219
2362.683594	5177.061523
2361.720703	5189.202148
2360.757813	5167.580078
2359.794922	5135.580078
2358.832031	5124.357422
2357.869141	5180.621582
2356.906250	5091.542480
2355.943359	5062.169434
2354.978516	5255.909668
2354.015625	4925.637695
2353.050781	5114.149902
2352.085938	5108.128418
2351.123047	5052.851074
2350.158203	5031.288574
2349.193359	5012.324707
2348.228516	5084.061035
2347.263672	5142.819824
2346.298828	5116.075195
2345.333984	5055.669434
2344.367188	5192.090332
2343.402344	5162.761230
2342.437500	5164.506348
2341.470703	5078.248535
2340.503906	5232.691406
2339.539063	5146.450195
2338.572266	5093.868652
2337.605469	5020.610840
2336.638672	4952.549316
2335.671875	4962.083008
2334.705078	5049.173340
2333.738281	5032.838867
2332.771484	5130.227051
2331.802734	5173.317871
2330.835938	5301.654785
2329.867188	5450.615234
2328.900391	5382.571289
2327.931641	5242.242676
2326.962891	5207.819824
2325.994141	5134.685547
2325.027344	5038.344727
2324.058594	5050.424316
2323.089844	4848.336914
2322.119141	5015.234863
2321.150391	4906.078613
2320.181641	4951.698730
2319.210938	4997.303711
2318.242188	5094.457031
2317.271484	5281.799316
2316.302734	5033.512207
2315.332031	5143.496094
2314.361328	5026.713379
2313.390625	5010.434570
2312.419922	5043.098633
2311.449219	4838.831543
2310.478516	5005.401855
2309.507813	4940.224121
2308.537109	5129.888672
2307.564453	5046.696289
2306.593750	4958.385254
2305.621094	5055.336426
2304.650391	5036.503418
2303.677734	4901.943359
2302.705078	4898.570313
2301.732422	4895.197754
2300.759766	5048.632324
2299.787109	5004.113281
2298.814453	4913.353516
2297.841797	4994.768066
2296.869141	4986.244141
2295.896484	4931.490234
2294.921875	4982.044434
2293.949219	5001.770508
2292.974609	4921.368164
2292.000000	5030.935547
2291.027344	5114.802734
2290.052734	4947.178223
2289.078125	5087.473633
2288.103516	5019.947754
2287.128906	4957.573242
2286.154297	4974.711914
2285.177734	5014.919434
2284.203125	5062.804199
2283.228516	5000.462891
2282.251953	4948.392090
2281.277344	5078.253906
2280.300781	4918.592773
2279.324219	5007.435059
2278.347656	4916.982910
2277.371094	4962.267090
2276.394531	4971.695313
2275.417969	4986.239258
2274.441406	4985.422852
2273.464844	4923.194824
2272.488281	4976.115234
2271.509766	4888.328613
2270.533203	4910.546387
2269.554688	5029.929199
2268.578125	5023.991699
2267.599609	5079.408203
2266.621094	4984.008301
2265.642578	4944.859863
2264.664063	4798.411133
2263.685547	4984.114746
2262.707031	5047.154297
2261.728516	4951.836914
2260.750000	4917.831543
2259.769531	5070.204590
2258.791016	4990.245117
2257.810547	5007.292480
2256.832031	4878.886230
2255.851563	4957.177734
2254.871094	4928.305664
2253.890625	5055.021973
2252.910156	4970.042480
2251.929688	4979.426758
2250.949219	5037.242676
2249.968750	4998.185547
2248.988281	5012.657227
2248.005859	4968.520508
2247.025391	4865.804688
2246.042969	5020.382324
2245.062500	4838.743164
2244.080078	5049.292480
2243.097656	4964.451660
2242.115234	5014.546875
2241.132813	5110.437012
2240.150391	4964.556152
2239.167969	5050.245605
2238.185547	4820.477051
2237.203125	4979.919434
2236.218750	4849.412598
2235.236328	4937.606445
2234.253906	4908.833984
2233.269531	5035.114746
2232.285156	4858.940430
2231.300781	4947.074707
2230.318359	5073.286133
2229.333984	5105.475098
2228.349609	5025.910156
2227.365234	5042.860840
2226.378906	4889.706543
2225.394531	4891.443359
2224.410156	4979.469727
2223.423828	5021.791992
2222.439453	5043.802734
2221.453125	4860.332520
2220.468750	4966.060059
2219.482422	4962.709961
2218.496094	4888.367676
2217.509766	4996.573242
2216.523438	4937.457520
2215.537109	4936.647949
2214.550781	4882.628418
2213.564453	4879.294434
2212.576172	5055.801758
2211.589844	5039.777344
2210.601563	4932.601074
2209.615234	4929.260254
2208.626953	4837.325195
2207.638672	4877.025879
2206.650391	4990.097168
2205.664063	4933.617676
2204.675781	4983.400879
2203.685547	4962.349609
2202.697266	5024.756348
2201.708984	4930.380859
2200.720703	4944.740234
2199.730469	4969.204590
2198.742188	4927.955078
2197.751953	4942.306641
2196.763672	4832.863770
2195.773438	4839.648926
2194.783203	5071.200684
2193.792969	4891.087402
2192.802734	4991.271484
2191.812500	4929.870605
2190.822266	4944.204590
2189.832031	5046.854004
2188.839844	4957.720215
2187.849609	4924.112793
2186.857422	4976.270508
2185.867188	4995.627930
2184.875000	5022.542969
2183.882813	4996.509277
2182.892578	4985.606934
2181.900391	4964.627930
2180.908203	4976.411621
2179.916016	4988.190918
2178.921875	4999.966797
2177.929688	4916.036621
2176.937500	4990.770996
2175.943359	4929.528320
2174.951172	4961.442871
2173.957031	5028.582520
2172.964844	5047.887695
2171.970703	4971.579590
2170.976563	5066.354980
2169.982422	5042.886719
2168.988281	4984.219727
2167.994141	5053.802734
2167.000000	4992.638672
2166.005859	4881.224609
2165.009766	4938.224121
2164.015625	4944.951172
2163.019531	5019.507324
2162.025391	4933.279785
2161.029297	5113.293457
2160.033203	4994.435059
2159.039063	4915.785645
2158.042969	4962.672363
2157.046875	5009.542969
2156.050781	5194.414551
2155.052734	5000.370605
2154.056641	5112.434082
2153.060547	5026.317383
2152.062500	5022.983887
2151.066406	4972.012695
2150.068359	4873.426270
2149.072266	5093.197266
2148.074219	5087.348145
2147.076172	5033.893555
2146.078125	5090.687012
2145.080078	5034.744141
2144.082031	5028.908203
2143.083984	5018.065430
2142.085938	5052.291504
2141.085938	5058.970703
2140.087891	5205.804199
2139.087891	5092.341797
2138.089844	5023.951660
2137.089844	5063.150879
2136.089844	5127.348633
2135.089844	5013.972656
2134.089844	5200.672852
2133.089844	5042.323730
2132.089844	5083.986328
2131.089844	5003.179688
2130.089844	5077.317871
2129.089844	5233.874023
2128.087891	5093.133789
2127.087891	5054.834473
2126.085938	5153.885254
2125.083984	5168.017578
2124.082031	5077.304199
2123.082031	5051.511230
2122.080078	5023.231445
2121.078125	5082.285156
2120.076172	5131.340820
2119.072266	5058.166504
2118.070313	5132.147461
2117.068359	5034.062988
2116.064453	5105.530273
2115.062500	4985.049316
2114.058594	5068.961426
2113.054688	5025.769043
2112.052734	5179.402344
2111.048828	4941.916504
2110.044922	5140.341797
2109.041016	5014.993164
2108.037109	5071.430176
2107.031250	5170.166016
2106.027344	5064.784180
2105.023438	5123.673340
2104.017578	5048.189941
2103.013672	5062.285156
2102.007813	5126.119629
2101.001953	5087.974609
2099.998047	5002.600098
2098.992188	5158.393555
2097.986328	5087.949219
2096.980469	5146.755371
2095.972656	5108.637695
2094.966797	5130.155762
2093.960938	5074.665527
2092.955078	5205.457031
2091.947266	5169.836426
2090.939453	5173.951172
2089.933594	5106.077637
2088.925781	5055.599609
2087.917969	5044.841797
2086.910156	5071.303223
2085.902344	5258.998535
2084.894531	5161.403320
2083.886719	5053.920410
2082.878906	5102.677246
2081.871094	5017.550293
2080.861328	5046.467773
2079.853516	5090.245117
2078.843750	5129.051758
2077.833984	5036.543945
2076.826172	5085.254395
2075.816406	5024.979004
2074.806641	5095.960938
2073.796875	4998.566895
2072.787109	5136.363770
2071.777344	5076.119629
2070.765625	5038.165527
2069.755859	5064.551270
2068.744141	5113.191895
2067.734375	5035.676758
2066.722656	5002.699707
2065.712891	5162.588867
2064.701172	5090.047363
2063.689453	5057.077148
2062.677734	5246.533203
2061.666016	5035.644531
2060.654297	5037.285645
2059.642578	4994.464844
2058.628906	5020.808105
2057.617188	5098.997070
2056.605469	5075.937500
2055.591797	5161.496582
2054.578125	5089.073730
2053.566406	4945.113281
2052.552734	5173.749512
2051.539063	5130.961426
2050.525391	5157.246094
2049.511719	5070.086426
2048.498047	5051.992188
2047.484375	5211.396484
2046.468750	5141.523926
2045.455078	5241.715820
2044.439453	5105.333984
2043.425781	5074.930176
2042.410156	5034.683105
2041.394531	5092.959473
2040.380859	5037.948730
2039.365234	5088.818848
2038.349609	5100.287598
2037.333984	5057.607910
2036.316406	5017.402832
2035.300781	5196.178711
2034.285156	5111.685059
2033.267578	5140.356445
2032.251953	5205.904785
2031.234375	5030.479492
2030.218750	5196.813477
2029.201172	5235.282715
2028.183594	5190.185059
2027.166016	5046.819336
2026.148438	5041.074219
2025.130859	5143.405762
2024.113281	5108.175781
2023.093750	5102.422363
2022.076172	5189.962402
2021.056641	5054.101563
2020.039063	5053.268066
2019.019531	4983.727539
2018.001953	5090.856445
2016.982422	5058.127441
2015.962891	5251.049805
2014.943359	5076.076660
2013.923828	5107.112793
2012.904297	5067.048340
2011.882813	4906.897461
2010.863281	5043.321289
2009.843750	5216.452637
2008.822266	5105.352051
2007.802734	5168.193359
2006.781250	4981.218750
2005.759766	5166.488281
2004.738281	5011.401367
2003.716797	5145.201660
2002.695313	5095.405273
2001.673828	5038.284668
2000.652344	5118.189453
1999.630859	5031.729980
1998.609375	5136.066406
1997.585938	5171.898926
1996.564453	5036.573730
1995.541016	5018.630859
1994.517578	5039.799805
1993.494141	4955.881348
1992.472656	5016.146484
1991.449219	5015.318359
1990.425781	5073.111328
1989.400391	5020.989258
1988.376953	4971.326172
1987.353516	4982.712402
1986.328125	4857.403320
1985.304688	4995.710449
1984.279297	5051.007813
1983.255859	5028.216797
1982.230469	5068.854492
1981.205078	4963.145508
1980.179688	4950.133301
1979.154297	4907.868652
1978.128906	4994.814941
1977.103516	5032.986816
1976.078125	4920.059082
1975.050781	5016.705566
1974.025391	4940.358887
1972.998047	4873.779785
1971.972656	5055.620117
1970.945313	4874.604980
1969.917969	4888.406738
1968.892578	4987.395996
1967.865234	4971.970215
1966.837891	4876.251953
1965.808594	4848.685059
1964.781250	4857.613770
1963.753906	4817.898438
1962.724609	4897.347168
1961.697266	4894.106934
1960.667969	4791.202637
1959.640625	4819.576660
1958.611328	4855.230957
1957.582031	4932.177246
1956.552734	4911.928223
1955.523438	4794.532227
1954.494141	4784.026367
1953.464844	4938.630371
1952.435547	4850.419434
1951.404297	4890.880859
1950.375000	4802.706543
1949.343750	4857.720703
1948.314453	4808.397461
1947.283203	4892.499512
1946.251953	5032.354492
1945.222656	4852.085449
1944.191406	4945.835938
1943.158203	4920.778320
1942.126953	4961.166504
1941.095703	4848.877930
1940.064453	4894.109863
1939.031250	4801.248535
1938.000000	4892.492188
1936.966797	4915.899414
1935.935547	4898.138184
1934.902344	4870.699219
1933.869141	4908.620605
1932.835938	4840.048340
1931.802734	4899.738770
1930.769531	5034.404785
1929.736328	4898.118164
1928.703125	5006.137207
1927.667969	4981.129395
1926.634766	5057.669434
1925.599609	4940.806152
1924.566406	5063.247070
1923.531250	4953.670410
1922.496094	4812.721680
1921.460938	4898.888184
1920.425781	4970.534668
1919.390625	4781.355957
1918.355469	4901.286621
1917.320313	4818.398926
1916.285156	4868.287598
1915.248047	4908.507324
1914.212891	5047.639160
1913.175781	4962.369141
1912.138672	4966.372070
1911.103516	4931.787598
1910.066406	4969.551270
1909.029297	4956.674805
1907.992188	5013.705078
1906.955078	4911.653809
1905.917969	4944.576172
1904.878906	4917.256348
1903.841797	5111.558594
1902.802734	4983.064941
1901.765625	4849.797852
1900.726563	5015.122559
1899.687500	4956.518555
1898.650391	4909.968262
1897.611328	4964.503906
1896.572266	5023.833496
1895.533203	4852.200195
1894.494141	5103.948730
1893.453125	4990.075684
1892.414063	4765.634766
1891.375000	5000.443848
1890.333984	4824.148438
1889.292969	5142.983887
1888.253906	5134.923828
1887.212891	4913.046387
1886.171875	4996.305176
1885.130859	4985.871582
1884.089844	5045.077637
1883.048828	4965.013184
1882.007813	4961.790527
1880.964844	4946.568359
1879.923828	4988.943359
1878.880859	4966.523438
1877.839844	4960.903320
1876.796875	5000.855957
1875.753906	4894.511230
1874.712891	4953.643066
1873.669922	4794.600586
1872.626953	5007.130859
1871.583984	4963.164063
1870.539063	4873.686035
1869.496094	4963.915527
1868.453125	4996.627441
1867.408203	4998.194336
1866.365234	4875.245605
1865.320313	5025.268066
1864.275391	4928.686035
1863.230469	4803.416016
1862.187500	4891.158691
1861.142578	4856.852539
1860.095703	4877.577148
1859.050781	4845.676270
1858.005859	4945.309570
1856.960938	4896.670898
1855.914063	4812.189941
1854.869141	4794.661133
1853.822266	4932.472656
1852.775391	4814.576172
1851.730469	4813.778320
1850.683594	4953.906250
1849.636719	4888.604004
1848.589844	4906.895996
1847.541016	4906.082520
1846.494141	4702.374512
1845.447266	4746.940430
1844.400391	4786.718750
1843.351563	4881.357422
1842.302734	4851.922852
1841.255859	4724.712891
1840.207031	4831.237305
1839.158203	4611.087402
1838.109375	4872.543945
1837.060547	4740.646973
1836.011719	4761.308105
1834.962891	4846.293457
1833.912109	4678.732422
1832.863281	4723.211426
1831.814453	4693.850586
1830.763672	4835.936035
1829.712891	4649.441895
1828.664063	4696.275879
1827.613281	4888.266602
1826.562500	4775.620117
1825.511719	4831.926270
1824.460938	4709.811035
1823.408203	4758.974121
1822.357422	4812.875977
1821.306641	4857.250000
1820.253906	4797.016602
1819.203125	4741.555664
1818.150391	4707.500488
1817.097656	4823.140137
1816.046875	4743.946777
1814.994141	4574.524414
1813.941406	4789.867188
1812.888672	4708.344238
1811.833984	4852.374512
1810.781250	4849.195801
1809.728516	4760.583496
1808.673828	4669.627441
1807.621094	4697.320801
1806.566406	4800.908691
1805.511719	4769.281250
1804.458984	4740.035156
1803.404297	4758.214355
1802.349609	4828.537109
1801.294922	4896.465820
1800.238281	4720.300293
1799.183594	4731.362793
1798.128906	4687.937988
1797.072266	4779.529297
1796.017578	4800.048340
1794.960938	4853.707031
1793.906250	4829.228516
1792.849609	4807.124512
1791.792969	4813.425781
1790.736328	4682.491211
1789.679688	4762.147461
1788.623047	4775.548340
1787.564453	4838.607422
1786.507813	4870.907227
1785.451172	4799.174316
1784.392578	4848.015625
1783.335938	4781.036621
1782.277344	4841.679199
1781.218750	4781.810547
1780.160156	4884.951660
1779.101563	4732.986816
1778.042969	4762.897949
1776.984375	4934.458496
1775.925781	4747.151855
1774.865234	4956.420898
1773.806641	4842.326660
1772.746094	4659.846680
1771.687500	4885.538574
1770.626953	4821.043945
1769.566406	4832.033691
1768.507813	4739.274414
1767.447266	4816.282715
1766.386719	4810.768066
1765.324219	4826.465332
1764.263672	4759.687012
1763.203125	4824.860840
1762.140625	4828.770020
1761.080078	4908.040527
1760.017578	4869.549316
1758.957031	4932.306641
1757.894531	4813.790039
1756.832031	4897.717285
1755.769531	4866.312012
1754.707031	4745.512207
1753.644531	4756.484863
1752.582031	4788.621582
1751.517578	4884.240234
1750.455078	4859.916016
1749.390625	4762.725098
1748.328125	4813.642090
1747.263672	4841.041504
1746.199219	4788.544434
1745.136719	4865.272949
1744.072266	4871.510254
1743.007813	4861.306152
1741.941406	4855.801270
1740.876953	4711.785645
1739.812500	4795.503906
1738.748047	4689.095703
1737.681641	4897.154785
1736.615234	4854.109863
1735.550781	4818.116211
1734.484375	4819.660156
1733.417969	4868.102051
1732.351563	4928.250488
1731.285156	4838.352051
1730.218750	4877.391113
1729.152344	4871.892578
1728.085938	4859.367188
1727.017578	4844.502930
1725.951172	4829.643066
1724.882813	4856.941406
1723.814453	4842.084473
1722.748047	4878.734863
1721.679688	4840.472656
1720.611328	4905.194336
1719.542969	4780.364258
1718.474609	4870.808594
1717.404297	4844.267578
1716.335938	4883.219238
1715.267578	4870.714355
1714.197266	4881.593262
1713.128906	4726.502930
1712.058594	4851.921875
1710.988281	4937.574219
1709.917969	4906.379395
1708.847656	4851.834961
1707.777344	4755.267578
1706.707031	4761.480957
1705.636719	4889.103027
1704.566406	4829.928223
1703.494141	4917.817383
1702.423828	4870.325195
1701.351563	4902.179688
1700.281250	4752.059082
1699.208984	4737.272949
1698.136719	4787.790039
1697.064453	4828.962891
1695.992188	4923.742676
1694.919922	4745.771484
1693.847656	4912.779785
1692.773438	4825.745605
1691.701172	4808.633301
1690.626953	4828.796875
1689.554688	4918.822754
1688.480469	4852.802246
1687.406250	4665.736816
1686.332031	4858.168457
1685.257813	4820.120117
1684.183594	4810.008301
1683.109375	4820.840332
1682.035156	4827.015625
1680.960938	4802.952148
1679.884766	4806.802734
1678.810547	4806.001465
1677.734375	4907.488281
1676.658203	4727.696289
1675.583984	4859.373047
1674.507813	4826.033203
1673.431641	4839.167969
1672.355469	4708.285156
1671.279297	4825.942383
1670.201172	4637.054688
1669.125000	4782.543945
1668.048828	4795.673828
1666.970703	4690.436035
1665.892578	4664.128906
1664.816406	4872.157715
1663.738281	4845.828613
1662.660156	4884.448730
1661.582031	4818.704590
1660.503906	4917.597656
1659.425781	4775.371094
1658.347656	4728.219238
1657.267578	4759.874023
1656.189453	4661.766602
1655.109375	4795.351563
1654.031250	4713.484375
1652.951172	4673.329102
1651.871094	4779.059570
1650.791016	4731.960938
1649.710938	4837.645996
1648.630859	4681.782227
1647.550781	4671.745605
1646.470703	4860.673828
1645.388672	4688.691895
1644.308594	4752.666016
1643.226563	4643.192383
1642.146484	4714.088379
1641.064453	4805.764648
1639.982422	4661.668945
1638.900391	4848.065918
1637.818359	4604.663086
1636.736328	4573.863770
1635.654297	4623.912598
1634.570313	4759.387207
1633.488281	4684.708984
1632.406250	4697.777832
1631.322266	4606.977539
1630.238281	4666.208984
1629.156250	4598.517090
1628.072266	4553.917480
1626.988281	4765.360840
1625.904297	4612.357422
1624.820313	4685.373047
1623.734375	4629.260742
1622.650391	4584.692383
1621.566406	4547.052246
1620.480469	4567.031250
1619.396484	4566.268555
1618.310547	4659.948730
1617.224609	4666.079590
1616.138672	4531.743164
1615.052734	4611.567871
1613.966797	4491.096191
1612.880859	4432.807129
1611.794922	4501.101563
1610.708984	4594.682129
1609.621094	4603.116211
1608.535156	4652.947754
1607.447266	4723.459473
1606.359375	4626.101563
1605.273438	4528.775879
1604.185547	4585.481445
1603.097656	4628.379395
1602.009766	4662.071777
1600.921875	4518.857910
1599.832031	4639.840820
1598.744141	4567.872070
1597.654297	4739.322266
1596.566406	4587.007324
1595.476563	4620.671875
1594.388672	4642.850098
1593.298828	4582.413086
1592.208984	4540.350586
1591.119141	4528.122070
1590.029297	4529.658691
1588.939453	4613.746582
1587.847656	4677.171875
1586.757813	4593.865234
1585.666016	4730.615234
1584.576172	4551.080566
1583.484375	4449.507324
1582.392578	4689.298828
1581.302734	4617.511230
1580.210938	4655.669922
1579.119141	4593.070313
1578.025391	4752.552246
1576.933594	4747.179688
1575.841797	4666.287598
1574.750000	4603.727539
1573.656250	4678.453125
1572.562500	4702.831543
1571.470703	4679.175293
1570.376953	4646.379883
1569.283203	4771.344727
1568.189453	4864.266113
1567.095703	4630.335938
1566.001953	4846.643066
1564.908203	4727.028320
1563.812500	4543.492676
1562.718750	4716.311035
1561.623047	4530.554688
1560.529297	4764.962402
1559.433594	4766.447754
1558.337891	4774.779785
1557.242188	4723.776367
1556.146484	4921.488281
1555.050781	4840.820313
1553.955078	4883.346680
1552.859375	4843.761230
1551.761719	4692.463379
1550.666016	4819.342773
1549.568359	4795.742188
1548.472656	4728.849609
1547.375000	4730.336426
1546.277344	4916.357422
1545.179688	4794.809570
1544.082031	4821.336426
1542.984375	4795.481445
1541.886719	4897.128906
1540.787109	4800.704590
1539.689453	4711.140137
1538.589844	4749.035156
1537.492188	4648.133301
1536.392578	4756.543945
1535.292969	4780.765625
1534.193359	4729.936523
1533.095703	4729.144531
1531.994141	4705.620117
1530.894531	4609.371582
1529.794922	4654.048828
1528.695313	4794.139648
1527.593750	4657.033203
1526.494141	4633.540039
1525.392578	4684.995605
1524.291016	4684.210938
1523.189453	4783.314941
1522.089844	4594.118164
1520.988281	4668.240234
1519.884766	4787.718262
1518.783203	4675.750488
1517.681641	4822.406738
1516.580078	4726.345703
1515.476563	4764.102051
1514.373047	4681.685547
1513.271484	4606.097168
1512.167969	4698.247559
1511.064453	4586.425293
1509.960938	4617.375488
1508.857422	4720.803711
1507.753906	4806.077637
1506.650391	4741.866211
1505.544922	4741.071289
1504.441406	4638.407715
1503.335938	4619.523438
1502.232422	4643.641602
1501.126953	4676.802246
1500.021484	4540.284668
1498.916016	4550.832520
1497.810547	4703.849121
1496.705078	4653.316406
1495.599609	4650.275391
1494.494141	4565.863281
1493.386719	4589.957031
1492.281250	4532.698242
1491.173828	4550.011230
1490.068359	4576.354004
1488.960938	4516.867188
1487.853516	4649.334473
1486.746094	4562.763184
1485.638672	4559.740234
1484.531250	4498.038574
1483.423828	4508.566895
1482.314453	4523.603516
1481.207031	4441.636230
1480.097656	4546.895020
1478.990234	4516.816895
1477.880859	4613.008789
1476.771484	4558.132324
1475.662109	4631.745605
1474.552734	4583.644531
1473.443359	4551.331543
1472.333984	4482.984863
1471.224609	4477.728027
1470.113281	4402.660156
1469.003906	4455.960449
1467.892578	4405.685059
1466.783203	4521.990723
1465.671875	4527.982910
1464.560547	4502.471680
1463.449219	4548.959961
1462.337891	4518.955078
1461.226563	4475.465820
1460.115234	4479.211426
1459.001953	4595.366699
1457.890625	4520.416504
1456.777344	4654.505371
1455.666016	4559.346191
1454.552734	4572.060547
1453.439453	4602.741699
1452.326172	4557.049316
1451.212891	4522.600586
1450.099609	4687.985840
1448.986328	4530.060547
1447.873047	4569.699707
1446.757813	4634.010254
1445.644531	4494.122559
1444.529297	4576.370605
1443.414063	4535.229004
1442.300781	4655.565430
1441.185547	4562.853516
1440.070313	4499.316406
1438.955078	4514.250488
1437.839844	4475.394043
1436.722656	4573.231934
1435.607422	4592.625977
1434.492188	4538.096191
1433.375000	4505.979980
1432.257813	4469.395508
1431.142578	4656.703613
1430.025391	4561.907227
1428.908203	4675.281250
1427.791016	4477.580078
1426.673828	4463.403809
1425.556641	4570.025391
1424.437500	4580.439941
1423.320313	4678.061523
1422.201172	4607.965332
1421.083984	4446.240723
1419.964844	4530.424805
1418.845703	4464.857910
1417.726563	4414.953125
1416.607422	4581.753906
1415.488281	4618.953613
1414.369141	4464.088867
1413.250000	4512.459473
1412.128906	4469.284668
1411.009766	4548.886230
1409.888672	4570.437988
1408.769531	4440.254883
1407.648438	4544.360840
1406.527344	4463.296875
1405.406250	4446.935059
1404.285156	4530.918945
1403.164063	4418.686523
1402.042969	4469.210938
1400.919922	4345.882813
1399.798828	4356.292969
1398.675781	4351.104004
1397.554688	4448.383789
1396.431641	4467.679688
1395.308594	4429.072266
1394.185547	4430.553711
1393.062500	4465.424316
1391.939453	4415.708496
1390.816406	4323.728516
1389.693359	4276.277832
1388.568359	4460.194824
1387.445313	4479.461426
1386.320313	4407.546387
1385.197266	4455.719727
1384.072266	4374.939941
1382.947266	4476.446289
1381.822266	4426.802246
1380.697266	4412.725586
1379.572266	4334.228516
1378.445313	4453.441895
1377.320313	4472.679199
1376.195313	4429.738281
1375.068359	4413.452148
1373.941406	4446.003906
1372.816406	4496.298828
1371.689453	4329.122559
1370.562500	4443.757813
1369.435547	4367.591797
1368.308594	4340.242188
1367.179688	4372.772949
1366.052734	4487.323242
1364.923828	4528.684570
1363.796875	4381.645020
1362.667969	4407.498047
1361.541016	4557.414063
1360.412109	4465.823242
1359.283203	4387.552246
1358.154297	4364.668945
1357.025391	4386.074219
1355.894531	4407.472168
1354.765625	4455.422363
1353.636719	4410.412598
1352.505859	4566.762695
1351.376953	4397.865234
1350.246094	4432.513672
1349.115234	4365.422852
1347.984375	4528.307617
1346.853516	4472.276367
1345.722656	4515.729492
1344.591797	4517.178223
1343.460938	4447.918945
1342.328125	4497.981445
1341.197266	4444.210938
1340.064453	4485.422852
1338.933594	4431.671875
1337.800781	4391.185547
1336.667969	4359.541992
1335.535156	4471.363281
1334.402344	4552.254395
1333.269531	4560.312012
1332.134766	4499.984375
1331.001953	4452.909668
1329.869141	4524.928223
1328.734375	4422.746094
1327.599609	4523.401855
1326.466797	4467.538574
1325.332031	4468.988770
1324.197266	4349.258301
1323.062500	4476.292969
1321.927734	4444.702148
1320.791016	4459.367676
1319.656250	4489.439941
1318.519531	4508.495605
1317.384766	4481.322266
1316.248047	4412.345215
1315.113281	4453.406738
1313.976563	4439.455566
1312.839844	4531.087891
1311.703125	4470.945313
1310.566406	4366.846191
1309.427734	4465.039551
1308.291016	4541.218262
1307.154297	4610.778320
1306.015625	4436.411133
1304.878906	4407.101563
1303.740234	4426.126953
1302.601563	4429.772461
1301.462891	4532.229492
1300.324219	4393.149414
1299.185547	4407.773438
1298.046875	4387.276367
1296.906250	4445.783691
1295.767578	4398.958984
1294.626953	4470.605957
1293.488281	4415.019531
1292.347656	4368.223633
1291.207031	4452.993652
1290.066406	4347.019043
1288.925781	4370.394531
1287.785156	4406.910156
1286.644531	4250.602539
1285.503906	4416.375000
1284.361328	4352.110352
1283.220703	4449.921875
1282.078125	4326.555176
1280.937500	4334.581055
1279.794922	4317.988281
1278.652344	4301.395020
1277.509766	4284.801758
1276.367188	4268.208984
1275.224609	4383.416504
1274.080078	4369.554199
1272.937500	4298.844727
1271.794922	4285.000977
1270.650391	4406.684570
1269.505859	4410.311035
1268.363281	4481.674316
1267.218750	4439.406738
1266.074219	4412.443848
1264.929688	4440.090332
1263.783203	4299.586426
1262.638672	4425.489746
1261.494141	4389.814941
1260.347656	4491.651855
1259.203125	4305.408691
1258.056641	4439.952148
1256.910156	4447.927246
1255.763672	4475.528809
1254.617188	4365.737793
1253.470703	4432.589355
1252.324219	4460.179199
1251.177734	4402.755859
1250.031250	4445.595215
1248.882813	4377.299316
1247.734375	4422.307129
1246.587891	4536.998535
1245.439453	4427.344238
1244.291016	4537.641602
1243.142578	4543.404785
1241.994141	4407.685059
1240.845703	4441.759766
1239.697266	4412.721680
1238.546875	4529.453613
1237.398438	4526.512207
1236.248047	4490.949219
1235.099609	4546.724609
1233.949219	4498.125977
1232.798828	4573.443848
1231.648438	4387.937500
1230.498047	4476.286133
1229.347656	4581.985352
1228.197266	4453.048828
1227.044922	4508.763672
1225.894531	4521.029297
1224.742188	4587.568848
1223.591797	4510.815918
1222.439453	4607.719238
1221.287109	4574.389160
1220.134766	4651.722168
1218.982422	4629.241699
1217.830078	4647.978027
1216.677734	4705.742188
1215.523438	4661.581543
1214.371094	4613.100586
1213.216797	4683.845215
1212.064453	4724.226074
1210.910156	4799.261230
1209.755859	4685.798340
1208.601563	4676.340820
1207.447266	4673.383301
1206.292969	4780.854004
1205.136719	4637.162598
1203.982422	4729.450684
1202.828125	4754.619141
1201.671875	4872.821289
1200.515625	4804.930176
1199.361328	4817.094727
1198.205078	4824.929199
1197.048828	4778.703125
1195.892578	4911.934082
1194.736328	4803.022949
1193.578125	4903.785645
1192.421875	4937.528320
1191.265625	4835.148926
1190.107422	4860.250977
1188.949219	4891.823730
1187.792969	4828.372559
1186.634766	4952.776855
1185.476563	4852.639648
1184.318359	4918.723633
1183.160156	4835.889160
1182.000000	4940.789551
1180.841797	5041.339355
1179.681641	5010.289063
1178.523438	5018.065430
1177.363281	4976.249023
1176.203125	5078.879883
1175.044922	4996.115234
1173.884766	5090.087891
1172.724609	5125.853516
1171.562500	4974.186035
1170.402344	5091.806641
1169.242188	5093.096680
1168.080078	5154.674316
1166.919922	5250.676270
1165.757813	5193.822266
1164.595703	5182.180664
1163.433594	5232.942871
1162.271484	5292.292480
1161.109375	5272.036133
1159.947266	5346.412598
1158.785156	5205.739746
1157.621094	5183.357910
1156.458984	5307.150391
1155.294922	5299.802246
1154.132813	5333.283691
1152.968750	5396.831055
1151.804688	5331.473633
1150.640625	5392.852051
1149.476563	5527.218262
1148.312500	5442.548340
1147.146484	5555.394531
1145.982422	5496.503418
1144.818359	5542.779297
1143.652344	5595.476074
1142.486328	5652.444824
1141.320313	5595.721191
1140.156250	5736.302246
1138.990234	5681.727539
1137.822266	5779.372070
1136.656250	5761.244141
1135.490234	5708.834961
1134.324219	5703.580566
1133.156250	5843.999023
1131.988281	5866.567383
1130.822266	6015.476074
1129.654297	5950.220215
1128.486328	5983.461914
1127.318359	5978.165039
1126.150391	6124.812500
1124.982422	6066.000977
1123.812500	6212.583496
1122.644531	6207.250000
1121.474609	6351.620117
1120.306641	6406.134766
1119.136719	6255.395996
1117.966797	6408.233398
1116.796875	6291.738770
1115.626953	6444.517578
1114.457031	6409.240234
1113.287109	6457.279785
1112.115234	6447.640137
1110.945313	6557.581055
1109.773438	6434.773926
1108.603516	6516.929199
1107.431641	6590.520020
1106.259766	6572.328613
1105.087891	6752.560059
1103.916016	6745.012695
1102.744141	6737.467773
1101.572266	6845.075684
1100.398438	6952.646973
1099.226563	6885.382324
1098.052734	6986.516113
1096.880859	7081.221680
1095.707031	7031.013672
1094.533203	7149.111816
1093.359375	7235.221680
1092.185547	7042.333984
1091.011719	7134.819336
1089.837891	7289.008301
1088.662109	7409.089355
1087.488281	7284.400879
1086.312500	7451.250977
1085.138672	7392.545410
1083.962891	7572.081543
1082.787109	7615.452637
1081.611328	7546.116699
1080.435547	7663.883301
1079.259766	7609.440918
1078.082031	7769.660156
1076.906250	7662.097168
1075.728516	7677.789063
1074.552734	7774.190918
1073.375000	7980.993652
1072.197266	7964.771973
1071.019531	8012.245605
1069.841797	8066.070801
1068.664063	8060.453613
1067.486328	8305.225586
1066.308594	8100.141113
1065.128906	8302.398438
1063.951172	8322.193359
1062.771484	8416.198242
1061.591797	8334.200195
1060.412109	8453.608398
1059.232422	8500.915039
1058.052734	8563.039063
1056.873047	8521.326172
1055.693359	8625.791016
1054.513672	8846.707031
1053.332031	8466.151367
1052.152344	8725.128906
1050.970703	8696.124023
1049.789063	8942.275391
1048.607422	9076.185547
1047.425781	9108.492188
1046.244141	9136.556641
1045.062500	9145.576172
1043.880859	9251.868164
1042.697266	9315.836914
1041.515625	9231.804688
1040.332031	9302.094727
1039.150391	9340.662109
1037.966797	9541.910156
1036.783203	9449.444336
1035.599609	9587.239258
1034.416016	9420.881836
1033.232422	9499.512695
1032.046875	9504.226563
1030.863281	9641.916992
1029.677734	9652.935547
1028.494141	9737.801758
1027.308594	9712.935547
1026.123047	9677.531250
1024.937500	9669.554688
1023.751953	9676.339844
1022.566406	9946.653320
1021.380859	9694.120117
1020.193359	9926.401367
1019.007813	9884.672852
1017.820313	9929.336914
1016.634766	10258.354492
1015.447266	9911.208008
1014.259766	10061.129883
1013.072266	10145.733398
1011.884766	10101.903320
1010.697266	10142.273438
1009.509766	10258.382813
1008.320313	10155.645508
1007.132813	10137.083984
1005.943359	10320.437500
1004.753906	10240.871094
1003.566406	10146.614258
1002.376953	10325.666992
1001.187500	10269.258789
999.998047	10133.016602
998.806641	10284.664063
997.617188	10371.138672
996.427734	10287.456055
995.236328	10231.100586
994.046875	10376.328125
992.855469	10366.160156
991.664063	10251.049805
990.472656	10190.541016
989.281250	10098.579102
988.089844	10319.225586
986.898438	10405.557617
985.705078	10208.750000
984.513672	10112.653320
983.320313	10121.409180
982.126953	10157.409180
980.935547	10048.794922
979.742188	10237.753906
978.548828	10070.503906
977.355469	9953.580078
976.162109	10085.913086
974.966797	9950.180664
973.773438	10063.625977
972.578125	9932.129883
971.384766	10014.146484
970.189453	10083.580078
968.994141	9947.962891
967.798828	9873.052734
966.603516	9936.199219
965.408203	9951.229492
964.212891	9861.720703
963.015625	9954.100586
961.820313	9858.351563
960.623047	9973.684570
959.427734	9877.964844
958.230469	9909.699219
957.033203	9669.912109
955.835938	9787.286133
954.638672	9858.687500
953.441406	9844.477539
952.244141	9740.526367
951.044922	9811.898438
949.847656	9797.702148
948.648438	9635.402344
947.449219	9587.871094
946.251953	9715.521484
945.052734	9743.049805
943.853516	9787.246094
942.654297	9685.528320
941.453125	9567.173828
940.253906	9628.043945
939.054688	9555.569336
937.853516	9581.012695
936.652344	9621.023438
935.453125	9529.846680
934.251953	9370.002930
933.050781	9574.459961
931.849609	9574.903320
930.646484	9446.342773
929.445313	9559.145508
928.244141	9559.589844
927.041016	9574.591797
925.839844	9362.947266
924.636719	9529.737305
923.433594	9463.671875
922.230469	9420.488281
921.027344	9229.792969
919.824219	9325.855469
918.621094	9216.248047
917.417969	9320.586914
916.212891	9233.858398
915.009766	9263.418945
913.804688	9284.666016
912.599609	9224.966797
911.394531	9163.212891
910.189453	9122.226563
908.984375	9172.522461
907.779297	9019.554688
906.574219	9020.083984
905.367188	8995.733398
904.162109	9006.630859
902.955078	8833.069336
901.750000	8788.041992
900.542969	8914.989258
899.335938	8869.961914
898.128906	8814.594727
896.921875	8993.239258
895.712891	8797.083008
894.505859	8716.915039
893.298828	8667.819336
892.089844	8589.769531
890.880859	8608.987305
889.673828	8582.689453
888.464844	8614.311523
887.255859	8424.655273
886.046875	8232.997070
884.835938	8458.978516
883.626953	8434.793945
882.417969	8524.274414
881.207031	8260.414063
879.998047	8368.485352
878.787109	8272.041016
877.576172	8245.842773
876.365234	8118.481445
875.154297	8166.634766
873.943359	8086.802246
872.732422	8009.061035
871.519531	7978.801758
870.308594	8043.448242
869.095703	7990.504395
867.884766	7813.843750
866.671875	7721.780762
865.458984	7866.826172
864.246094	7952.046875
863.033203	7886.797852
861.820313	7619.643555
860.605469	7702.802246
859.392578	7847.724609
858.177734	7541.584961
856.964844	7632.949707
855.750000	7617.229492
854.535156	7539.763672
853.320313	7548.760254
852.105469	7572.157227
850.890625	7519.425781
849.675781	7586.014648
848.458984	7568.260742
847.244141	7433.306641
846.027344	7479.316406
844.810547	7360.867676
843.595703	7505.522461
842.378906	7331.628906
841.162109	7367.351563
839.943359	7396.898926
838.726563	7368.930176
837.509766	7289.635742
836.291016	7360.241699
835.074219	7254.290039
833.855469	7306.406250
832.636719	7223.071777
831.417969	7217.728027
830.199219	7415.465820
828.980469	7381.377441
827.761719	7431.375000
826.542969	7393.194336
825.322266	7416.523926
824.103516	7327.119629
822.882813	7311.517090
821.664063	7308.212891
820.443359	7370.460938
819.222656	7338.472656
818.001953	7283.970215
816.779297	7423.991699
815.558594	7344.927246
814.337891	7400.974121
813.115234	7428.352051
811.894531	7230.657227
810.671875	7444.210938
809.449219	7338.620605
808.226563	7529.586914
807.003906	7260.447754
805.781250	7365.502441
804.558594	7578.848145
803.333984	7444.713867
802.111328	7412.786133
800.886719	7503.440918
799.664063	7387.770508
798.439453	7325.235840
797.214844	7601.663086
795.990234	7530.946777
794.765625	7599.049805
793.541016	7571.213867
792.314453	7361.790527
791.089844	7552.290039
789.863281	7483.681152
788.638672	7510.945801
787.412109	7640.150391
786.185547	7461.473633
784.958984	7488.727051
783.732422	7456.869629
782.505859	7608.407227
781.279297	7548.018555
780.050781	7593.569336
778.824219	7553.568359
777.595703	7544.124512
776.367188	7540.791016
775.140625	7535.422363
773.912109	7694.903320
772.683594	7514.516602
771.453125	7720.737793
770.224609	7544.477051
768.996094	7545.212402
767.765625	7545.947754
766.537109	7587.343262
765.306641	7600.266113
764.076172	7615.217285
762.845703	7502.146484
761.615234	7553.678223
760.384766	7694.568848
759.154297	7593.728027
757.921875	7501.043945
756.691406	7566.750977
755.458984	7671.002930
754.228516	7556.027344
752.996094	7715.033691
751.763672	7802.975098
750.531250	7475.041992
749.298828	7575.162598
748.066406	7648.887207
746.832031	7631.350098
745.599609	7735.445801
744.365234	7689.524902
743.132813	7643.619629
741.898438	7670.667969
740.664063	7657.192383
739.429688	7819.927734
738.195313	7537.103516
736.960938	7738.271973
735.724609	7688.354980
734.490234	7618.215332
733.255859	7766.650879
732.019531	7852.313477
730.783203	7755.882813
729.546875	7637.237305
728.310547	7779.499023
727.074219	7808.486328
725.837891	7683.827637
724.601563	7783.562500
723.363281	7753.929199
722.126953	7855.637207
720.888672	7886.605469
719.650391	7949.878906
718.414063	7922.255859
717.175781	7805.801758
715.937500	7848.868652
714.697266	7873.754395
713.458984	7838.089844
712.220703	7792.349121
710.980469	8031.070313
709.742188	7928.834961
708.501953	7955.701172
707.261719	7887.791016
706.021484	7900.541992
704.781250	7929.413574
703.541016	7899.832520
702.300781	7807.798340
701.058594	7895.092773
699.818359	7968.256836
698.576172	7862.160645
697.335938	7872.885742
696.093750	7883.606445
694.851563	8049.311035
693.609375	7989.560059
692.367188	7887.574707
691.123047	7986.803223
689.880859	7939.161621
688.638672	7953.880371
687.394531	8071.141602
686.150391	8140.112793
684.908203	8112.577148
683.664063	8018.729980
682.419922	8095.710938
681.175781	8064.178223
679.929688	8092.916016
678.685547	8047.335938
677.439453	8031.890625
676.195313	8098.763184
674.949219	8133.496094
673.703125	8228.423828
672.458984	8235.029297
671.212891	8151.351563
669.964844	8282.333008
668.718750	8335.052734
667.472656	8195.253906
666.224609	8187.823730
664.978516	8322.715820
663.730469	8251.132813
662.482422	8367.932617
661.234375	8440.615234
659.986328	8200.785156
658.738281	8303.512695
657.490234	8167.915527
656.242188	8228.569336
654.992188	8241.159180
653.744141	8159.679199
652.494141	8264.325195
651.244141	8340.923828
649.994141	8411.495117
648.744141	8278.041016
647.494141	8246.615234
646.244141	8291.173828
644.994141	8313.728516
643.742188	8128.417480
642.492188	8320.845703
641.240234	8327.398438
639.988281	8293.998047
638.738281	8404.409180
637.486328	8291.129883
636.232422	8413.482422
634.980469	8254.327148
633.728516	8352.693359
632.474609	8257.458984
631.222656	8487.470703
629.968750	8304.473633
628.714844	8440.657227
627.462891	8399.314453
626.208984	8525.463867
624.953125	8472.159180
623.699219	8355.093750
622.445313	8333.720703
621.191406	8603.247070
619.935547	8637.616211
618.679688	8693.881836
617.425781	8728.221680
616.169922	8740.649414
614.914063	8862.559570
613.658203	8829.179688
612.400391	8775.912109
611.144531	8951.472656
609.888672	8991.699219
608.630859	9059.755859
607.373047	8916.996094
606.117188	9132.174805
604.859375	9235.954102
603.601563	9168.764648
602.343750	9030.057617
601.083984	9338.451172
599.826172	9426.229492
598.568359	9351.107422
597.308594	9500.414063
596.048828	9643.711914
594.791016	9669.834961
593.531250	9580.827148
592.271484	9668.469727
591.011719	9906.877930
589.750000	9835.728516
588.490234	9949.066406
587.230469	10121.857422
585.968750	9997.171875
584.707031	9900.282227
583.447266	10059.117188
582.185547	10063.319336
580.923828	10251.790039
579.662109	10182.658203
578.398438	10388.869141
577.136719	10499.950195
575.875000	10460.509766
574.611328	10500.269531
573.347656	10470.739258
572.085938	10672.761719
570.822266	10631.338867
569.558594	10568.167969
568.292969	10742.375000
567.029297	10689.094727
565.765625	10542.899414
564.500000	10849.474609
563.236328	10624.238281
561.970703	10646.110352
560.705078	10648.216797
559.439453	10598.956055
558.173828	10774.888672
556.908203	10852.015625
555.642578	10788.922852
554.376953	10789.025391
553.109375	10749.651367
551.843750	10850.409180
550.576172	10909.695313
549.308594	10907.802734
548.041016	10856.598633
546.773438	10994.737305
545.505859	11061.843750
544.238281	10854.891602
542.968750	11050.120117
541.701172	11016.669922
540.431641	11198.009766
539.164063	11148.784180
537.894531	11186.244141
536.625000	11194.149414
535.355469	11156.763672
534.085938	11395.011719
532.814453	11456.022461
531.544922	11353.663086
530.273438	11473.690430
529.003906	11556.294922
527.732422	11686.079102
526.460938	11666.349609
525.189453	11746.910156
523.917969	11864.796875
522.646484	11931.534180
521.375000	11839.057617
520.101563	11823.247070
518.830078	11958.717773
517.556641	12078.426758
516.283203	12135.247070
515.011719	12133.139648
513.738281	12307.725586
512.462891	12229.033203
511.189453	12395.691406
509.916016	12473.990234
508.642578	12348.222656
507.367188	12453.962891
506.091797	12543.976563
504.818359	12571.209961
503.542969	12706.263672
502.267578	12670.732422
500.992188	12750.843750
499.714844	12764.303711
498.439453	12858.084961
497.164063	12869.562500
495.886719	12894.744141
494.609375	12753.473633
493.333984	13005.772461
492.056641	12884.105469
490.779297	12791.836914
489.501953	12695.686523
488.222656	12810.867188
486.945313	12843.849609
485.666016	12606.922852
484.388672	12853.070313
483.109375	12708.113281
481.830078	12789.958008
480.550781	12650.923828
479.271484	12773.784180
477.992188	12664.107422
476.712891	12706.832031
475.433594	12694.856445
474.152344	12595.012695
472.871094	12504.964844
471.591797	12327.105469
470.310547	12362.042969
469.029297	12293.545898
467.748047	12550.891602
466.466797	12445.322266
465.183594	12273.476563
463.902344	12220.640625
462.619141	12124.929688
461.337891	12204.691406
460.054688	12040.801758
458.771484	11984.143555
457.488281	11960.625977
456.205078	11929.324219
454.921875	11790.914063
453.638672	11872.594727
452.353516	11946.458008
451.070313	11917.125977
449.785156	11808.005859
448.500000	11928.542969
447.214844	11786.383789
445.929688	11694.849609
444.644531	11723.930664
443.359375	11704.387695
442.072266	11801.504883
440.787109	11772.235352
439.500000	11525.295898
438.214844	11772.020508
436.927734	11690.311523
435.640625	11738.781250
434.353516	11457.058594
433.066406	11629.830078
431.777344	11571.499023
430.490234	11837.367188
429.203125	11674.213867
427.914063	11540.224609
426.625000	11501.349609
425.335938	11481.886719
424.046875	11679.653320
422.757813	11627.200195
421.468750	11696.909180
420.179688	11661.916016
418.888672	11545.532227
417.599609	11611.342773
416.308594	11491.132813
415.017578	11543.369141
413.728516	11800.886719
412.437500	11576.136719
411.144531	11537.331055
409.853516	11471.438477
408.562500	11357.182617
407.269531	11504.205078
405.978516	11380.307617
404.685547	11411.208008
403.392578	11476.911133
402.099609	11527.120117
400.806641	11296.965820
399.513672	11308.526367
398.220703	11213.782227
396.927734	11294.918945
395.632813	11381.823242
394.337891	11204.049805
393.044922	11163.466797
391.750000	11285.106445
390.455078	11097.788086
389.160156	11091.990234
387.865234	11194.276367
386.568359	11063.032227
385.273438	10978.137695
383.976563	10914.492188
382.681641	11097.742188
381.384766	10991.673828
380.087891	10968.545898
378.791016	11103.497070
377.494141	10995.553711
376.197266	11016.757813
374.898438	11041.807617
373.601563	10943.562500
372.302734	11132.326172
371.005859	11043.726563
369.707031	10847.338867
368.408203	10880.094727
367.109375	11209.236328
365.810547	11028.315430
364.509766	10920.569336
363.210938	10932.126953
361.910156	10918.677734
360.611328	10966.767578
359.310547	10970.619141
358.009766	10880.275391
356.708984	10984.083008
355.408203	11068.637695
354.107422	11068.624023
352.804688	10891.881836
351.503906	10968.724609
350.201172	10913.039063
348.900391	10916.891602
347.597656	10790.207031
346.294922	10907.317383
344.992188	11039.737305
343.689453	10949.550781
342.386719	11064.651367
341.082031	10847.906250
339.779297	10999.418945
338.474609	10892.044922
337.169922	11148.927734
335.867188	10807.738281
334.562500	10830.759766
333.257813	11018.542969
331.951172	10899.764648
330.646484	10811.670898
329.341797	10817.439453
328.035156	10880.643555
326.728516	10907.454102
325.423828	10666.304688
324.117188	10853.884766
322.810547	10643.440430
321.503906	10704.704102
320.195313	10894.089844
318.888672	10660.800781
317.580078	10624.521484
316.273438	10580.606445
314.964844	10609.334961
313.656250	10601.745117
312.347656	10708.792969
311.039063	10739.392578
309.730469	10720.323242
308.421875	10594.324219
307.111328	10529.463867
305.802734	10800.594727
304.492188	10737.628906
303.181641	10770.097656
301.871094	10655.644531
300.560547	10598.459961
299.250000	10615.675781
297.939453	10625.257813
296.628906	10753.043945
295.316406	10703.504883
294.005859	10829.325195
292.693359	10722.622070
291.380859	10894.120117
290.068359	10751.249023
288.755859	10916.966797
287.443359	10842.693359
286.130859	10907.430664
284.816406	10717.066406
283.503906	10734.220703
282.189453	10915.017578
280.875000	10778.022461
279.560547	10797.058594
278.246094	10546.017578
276.931641	10964.415039
275.617188	10715.333008
274.300781	10789.490234
272.986328	10857.919922
271.669922	11878.340820
270.355469	11682.468750
269.039063	13224.766602
267.722656	13167.370117
266.406250	13136.577148
265.089844	12448.891602
263.771484	11932.288086
262.455078	11176.729492
261.136719	10937.573242
259.820313	10745.931641
258.501953	10819.922852
257.183594	10713.713867
255.865234	11017.128906
254.546875	10914.712891
253.228516	10615.193359
251.908203	10874.874023
250.589844	10969.606445
249.269531	11102.196289
247.949219	11022.583984
246.628906	11086.937500
245.310547	11016.823242
243.988281	11009.209961
242.667969	11020.528320
241.347656	10975.064453
240.025391	11062.073242
238.705078	11143.375977
237.382813	11251.131836
236.060547	11330.480469
234.738281	11389.000977
233.416016	11266.003906
232.093750	11434.148438
230.771484	11528.527344
229.449219	11352.660156
228.125000	11265.650391
226.800781	11395.897461
225.478516	11492.102539
224.154297	11373.011719
222.830078	11399.333984
221.505859	11308.614258
220.181641	11351.921875
218.855469	11285.772461
217.531250	11238.510742
216.205078	11311.987305
214.878906	11251.536133
213.554688	11385.323242
212.228516	11415.373047
210.902344	11290.844727
209.574219	11417.014648
208.248047	11484.727539
206.921875	11296.197266
205.593750	11488.225586
204.265625	11397.691406
202.939453	11504.900391
201.611328	11629.013672
200.283203	11566.736328
198.955078	11638.099609
197.625000	11654.870117
196.296875	11541.823242
194.968750	11737.296875
193.638672	11708.904297
192.308594	11879.833984
190.978516	11889.025391
189.648438	11854.980469
188.318359	12037.069336
186.988281	12001.129883
185.658203	12130.526367
184.326172	12263.631836
182.996094	12160.062500
181.664063	12107.226563
180.332031	12277.812500
179.000000	12292.544922
177.667969	12329.792969
176.335938	12192.526367
175.003906	12317.950195
173.669922	12225.750000
172.337891	12403.632813
171.003906	12521.452148
169.669922	12399.267578
168.335938	12402.708008
167.001953	12559.818359
165.667969	12426.448242
164.333984	12521.676758
163.000000	12420.200195
161.664063	12459.213867
160.328125	12389.614258
158.994141	12587.744141
157.658203	12405.840820
156.322266	12654.424805
154.986328	12622.258789
153.650391	12846.396484
152.312500	12619.684570
150.976563	12675.434570
149.638672	12725.554688
148.302734	12788.743164
146.964844	12894.898438
145.626953	12933.740234
144.289063	12888.487305
142.949219	12947.864258
141.611328	13137.964844
140.273438	13206.613281
138.933594	13379.794922
137.595703	13299.032227
136.255859	13365.748047
134.916016	13454.833008
133.576172	13521.497070
132.236328	13724.316406
130.894531	13774.121094
129.554688	13835.097656
128.212891	13689.092773
126.873047	13865.639648
125.531250	13807.280273
124.189453	14216.680664
122.847656	14068.846680
121.505859	14122.250977
120.164063	13879.496094
118.820313	13925.465820
117.478516	14129.676758
116.134766	14153.246094
114.792969	14124.693359
113.449219	14042.184570
112.105469	14019.241211
110.761719	14109.780273
109.417969	14090.551758
108.072266	14298.197266
106.728516	14485.316406
105.382813	14471.607422
104.039063	14333.377930
102.693359	14037.245117
101.347656	14339.467773
100.001953	14491.118164
98.654297	14718.862305
97.308594	14623.417969
95.962891	14890.045898
94.615234	14685.082031
93.269531	14986.867188
91.921875	14754.124023
90.574219	14976.010742
89.226563	15054.986328
87.878906	14952.177734
86.529297	14955.100586
85.181641	15004.372070
83.832031	15040.649414
82.484375	15186.260742
81.134766	14946.393555
79.785156	15075.294922
78.435547	14961.490234
77.085938	15049.597656
75.736328	14928.430664
74.384766	15062.795898
73.035156	15061.985352
71.683594	14826.133789
70.332031	14618.121094
68.982422	14567.436523
67.630859	14625.904297
66.279297	14360.703125
64.925781	14128.878906
63.574219	14057.977539
62.220703	13778.228516
60.869141	13999.414063
59.515625	13806.619141
58.162109	13416.212891
56.808594	12961.294922
55.455078	12281.228516
54.101563	11900.530273
52.748047	11759.964844
51.392578	11311.197266
