#Wave		#Intensity
4002.114258	4087.776123
4001.416016	4069.878662
4000.717773	4147.960449
4000.018555	4186.655762
3999.320313	4146.627441
3998.621094	3992.141846
3997.921875	4113.105469
3997.223633	4155.356445
3996.524414	4029.547607
3995.824219	4286.291992
3995.125000	4067.570068
3994.425781	4124.096191
3993.725586	4016.238525
3993.026367	4251.384277
3992.326172	4079.244141
3991.625977	4210.731934
3990.925781	4188.630371
3990.225586	4066.567139
3989.525391	4190.854004
3988.825195	4158.058105
3988.125000	4221.624512
3987.423828	4128.178223
3986.723633	4116.812500
3986.022461	4130.418457
3985.321289	4136.887207
3984.620117	4168.313965
3983.918945	4231.816406
3983.217773	4234.701172
3982.516602	4187.688965
3981.814453	4105.057617
3981.113281	4307.479980
3980.411133	4203.482422
3979.708984	3996.228271
3979.006836	4173.642578
3978.304688	4094.639893
3977.602539	4133.141602
3976.900391	4153.834473
3976.198242	4146.049316
3975.495117	4152.500000
3974.792969	4169.621094
3974.089844	4072.908936
3973.386719	4082.924316
3972.683594	4256.511719
3971.980469	4092.278809
3971.277344	4038.298828
3970.574219	4226.026367
3969.870117	4132.951172
3969.166992	4132.287598
3968.462891	4131.623535
3967.759766	4088.336182
3967.055664	4155.156250
3966.351563	3980.497559
3965.647461	4274.530762
3964.943359	4121.207031
3964.238281	4191.527832
3963.534180	4222.791504
3962.829102	4204.373535
3962.125000	4139.844727
3961.419922	4029.227051
3960.714844	4195.255371
3960.009766	4123.666992
3959.304688	4186.817383
3958.599609	4225.135254
3957.893555	4189.016602
3957.188477	4220.234863
3956.482422	4092.013916
3955.777344	4052.391357
3955.071289	4172.159180
3954.365234	4157.324707
3953.659180	4007.952148
3952.953125	4145.369629
3952.246094	4211.953613
3951.540039	4133.421387
3950.833008	4107.989258
3950.126953	4110.867676
3949.419922	4110.207520
3948.712891	4127.230469
3948.005859	4020.486084
3947.298828	4189.543457
3946.591797	4220.685059
3945.884766	4198.801270
3945.176758	4092.113770
3944.469727	4070.257324
3943.761719	4172.050293
3943.053711	4001.840820
3942.345703	4170.710449
3941.637695	4254.783691
3940.929688	4088.172852
3940.221680	4052.218262
3939.513672	4079.801514
3938.804688	4072.089111
3938.095703	4251.368652
3937.387695	4144.859863
3936.678711	4151.248535
3935.969727	4062.421875
3935.260742	4114.657227
3934.551758	3965.935059
3933.841797	4074.564209
3933.132813	4183.158691
3932.422852	4150.774902
3931.713867	4181.815430
3931.003906	4163.531738
3930.293945	4036.075684
3929.583984	4102.332520
3928.874023	4003.093262
3928.164063	4122.136719
3927.453125	3994.768799
3926.743164	4103.218262
3926.032227	4215.150879
3925.322266	4010.434814
3924.611328	4132.898438
3923.900391	4079.483154
3923.189453	4240.575195
3922.478516	3888.327637
3921.766602	4172.426758
3921.055664	4277.192871
3920.344727	4297.590332
3919.632813	4156.364258
3918.920898	4169.748535
3918.208984	4165.566895
3917.497070	4101.687012
3916.785156	4062.406006
3916.073242	4065.264648
3915.361328	4131.302734
3914.648438	4056.940674
3913.936523	4059.798340
3913.223633	3999.505127
3912.510742	4153.205078
3911.797852	4268.276855
3911.084961	4116.805664
3910.372070	4060.047607
3909.659180	4136.517578
3908.945313	4139.358398
3908.232422	4117.667969
3907.518555	4050.434082
3906.804688	4091.823242
3906.091797	4255.793945
3905.377930	4206.081055
3904.663086	4138.875488
3903.949219	4204.730957
3903.235352	4123.545410
3902.520508	4049.385742
3901.806641	4178.211426
3901.091797	4020.095947
3900.376953	4047.436523
3899.662109	4116.740234
3898.947266	4388.852539
3898.232422	4139.894531
3897.517578	4020.367188
3896.802734	4163.033691
3896.086914	4123.922363
3895.372070	4081.329346
3894.656250	4223.916992
3893.940430	4121.937500
3893.224609	4114.291016
3892.508789	4214.899902
3891.792969	4280.562012
3891.076172	4154.201660
3890.360352	4003.449463
3889.643555	4090.052246
3888.927734	4127.777832
3888.210938	4141.069824
3887.494141	4067.155029
3886.777344	4136.253418
3886.060547	4139.077148
3885.342773	4068.683838
3884.625977	3987.855713
3883.909180	4151.026367
3883.191406	4112.027832
3882.473633	4031.231201
3881.755859	4096.773926
3881.038086	4113.531738
3880.320313	4130.284668
3879.602539	4080.874268
3878.884766	4059.331055
3878.166016	4100.450195
3877.448242	4110.232910
3876.729492	4088.695313
3876.010742	4296.790039
3875.291992	4163.913086
3874.573242	4121.508301
3873.854492	4058.251953
3873.135742	4168.863281
3872.416016	4095.190186
3871.697266	4188.380859
3870.977539	4076.500000
3870.257813	4110.593262
3869.539063	4262.796875
3868.819336	4293.375488
3868.099609	4146.818848
3867.378906	4222.548340
3866.659180	4100.353516
3865.938477	4196.894043
3865.218750	4033.092285
3864.498047	4195.547852
3863.777344	4174.056641
3863.056641	4166.448730
3862.335938	4124.157227
3861.615234	4192.856445
3860.894531	4122.833984
3860.173828	4281.651367
3859.452148	4197.771484
3858.730469	4193.632324
3858.009766	4196.425293
3857.288086	4178.428711
3856.566406	4170.830078
3855.844727	4166.697266
3855.122070	4176.417969
3854.400391	4179.210938
3853.678711	4053.911133
3852.956055	4018.647461
3852.233398	4294.867676
3851.510742	4190.371094
3850.788086	4120.504883
3850.065430	4112.925781
3849.342773	4143.393555
3848.620117	4087.400391
3847.896484	4062.542480
3847.173828	4051.520020
3846.450195	4016.306396
3845.727539	4095.146240
3845.003906	4191.236816
3844.280273	4218.202148
3843.555664	4165.713379
3842.832031	4123.602051
3842.108398	4250.703613
3841.383789	4180.972168
3840.660156	4173.397461
3839.935547	4141.666016
3839.210938	4047.829102
3838.486328	4078.232422
3837.761719	4129.324219
3837.037109	4280.425781
3836.312500	4265.944824
3835.586914	4203.195313
3834.862305	4195.626465
3834.136719	4160.483887
3833.411133	4225.298340
3832.685547	4093.678467
3831.959961	4182.599609
3831.234375	4123.368164
3830.508789	4250.142578
3829.782227	4294.228516
3829.056641	4052.522949
3828.330078	4155.149414
3827.603516	4216.438965
3826.876953	4119.402832
3826.150391	4080.892334
3825.423828	4090.558838
3824.697266	4206.855469
3823.970703	4164.910156
3823.243164	4250.209473
3822.516602	4201.394043
3821.789063	4238.533691
3821.061523	4306.594727
3820.333984	4178.754395
3819.606445	4150.597168
3818.878906	4256.428223
3818.151367	4214.527832
3817.422852	4152.035156
3816.695313	4350.525391
3815.966797	4064.874512
3815.238281	4184.364258
3814.509766	4180.261230
3813.781250	4148.707520
3813.052734	4237.247559
3812.324219	4246.859375
3811.595703	4102.124023
3810.866211	4104.895508
3810.136719	4196.814453
3809.408203	4079.581787
3808.678711	4257.166504
3807.949219	4198.223145
3807.219727	4039.927734
3806.489258	4186.599121
3805.759766	4161.949219
3805.030273	4140.732422
3804.299805	4160.614746
3803.569336	4252.391113
3802.839844	4330.444824
3802.109375	4134.654785
3801.378906	4192.169434
3800.647461	4215.448730
3799.916992	4163.456543
3799.186523	4108.060547
3798.455078	4097.142090
3797.723633	4127.259766
3796.993164	4256.516113
3796.261719	4023.386475
3795.530273	4203.884766
3794.798828	4271.555664
3794.066406	4168.369629
3793.334961	4167.701660
3792.602539	4126.046387
3791.871094	4121.969727
3791.138672	4271.547363
3790.406250	4031.885254
3789.673828	4133.641602
3788.941406	4208.061523
3788.208984	4156.202637
3787.476563	4244.242188
3786.743164	4250.384277
3786.010742	4130.329102
3785.277344	4276.302734
3784.543945	4313.122559
3783.810547	4264.704590
3783.077148	4277.655273
3782.343750	4242.890137
3781.610352	4235.395020
3780.875977	4163.172363
3780.142578	4268.100098
3779.408203	4277.633301
3778.673828	4273.542480
3777.939453	4419.258301
3777.205078	4258.556152
3776.470703	4162.573242
3775.736328	4199.339355
3775.000977	4310.948242
3774.266602	4221.807129
3773.531250	4217.729004
3772.795898	4254.461914
3772.061523	4226.577637
3771.326172	4253.098145
3770.589844	4170.835449
3769.854492	4370.688477
3769.119141	4081.147217
3768.382813	4226.589355
3767.647461	4293.852539
3766.911133	4242.216797
3766.174805	4187.201660
3765.438477	4281.602051
3764.702148	4223.203125
3763.965820	4266.652344
3763.229492	4293.118652
3762.492188	4126.162109
3761.755859	4135.679199
3761.018555	4236.780273
3760.281250	4310.716309
3759.543945	4306.634277
3758.806641	4261.867676
3758.069336	4308.644043
3757.332031	4362.184082
3756.593750	4276.763184
3755.856445	4232.029297
3755.118164	4363.475098
3754.379883	4118.893555
3753.641602	4301.115723
3752.903320	4124.345703
3752.165039	4387.763184
3751.426758	4302.433105
3750.688477	4389.741211
3749.949219	4233.374023
3749.210938	4310.515137
3748.471680	4255.697754
3747.732422	4366.633789
3746.993164	4318.588379
3746.253906	4280.702148
3745.514648	4357.773438
3744.774414	4401.017578
3744.035156	4352.997070
3743.294922	4332.024414
3742.554688	4284.030273
3741.815430	4205.648926
3741.075195	4316.432129
3740.334961	4312.363770
3739.593750	4480.492676
3738.853516	4186.074219
3738.113281	4323.791992
3737.372070	4302.850098
3736.630859	4285.289551
3735.890625	4352.076660
3735.149414	4388.484375
3734.408203	4337.191406
3733.666016	4282.543457
3732.924805	4362.773926
3732.183594	4405.897949
3731.441406	4422.043945
3730.699219	4391.006348
3729.958008	4491.383789
3729.215820	4335.697754
3728.473633	4462.998047
3727.731445	4378.088867
3726.988281	4444.731934
3726.246094	4420.452637
3725.502930	4298.563477
3724.760742	4415.670410
3724.017578	4357.756836
3723.274414	4457.994141
3722.531250	4507.739746
3721.788086	4322.027832
3721.044922	4294.432129
3720.300781	4475.312012
3719.557617	4289.693848
3718.813477	4504.129395
3718.070313	4523.572266
3717.326172	4553.088867
3716.582031	4491.885254
3715.837891	4521.397949
3715.092773	4443.425781
3714.348633	4422.564941
3713.604492	4317.773438
3712.859375	4367.436035
3712.114258	4454.003906
3711.369141	4480.137695
3710.624023	4281.452637
3709.878906	4559.217773
3709.133789	4545.070313
3708.388672	4463.851563
3707.642578	4449.723633
3706.897461	4579.765137
3706.151367	4605.848633
3705.405273	4524.671875
3704.659180	4601.021484
3703.913086	4590.232910
3703.166992	4545.947266
3702.420898	4411.240234
3701.673828	4507.652344
3700.927734	4446.659180
3700.180664	4482.772949
3699.433594	4605.905273
3698.687500	4598.474121
3697.940430	4644.584473
3697.192383	4600.346191
3696.445313	4499.253906
3695.698242	4565.425781
3694.950195	4788.749023
3694.202148	4533.870605
3693.455078	4666.865234
3692.707031	4505.678223
3691.958984	4578.479004
3691.210938	4510.916992
3690.461914	4640.488770
3689.713867	4532.854004
3688.964844	4592.244629
3688.216797	4741.776367
3687.467773	4670.902832
3686.718750	4583.361328
3685.969727	4429.093750
3685.220703	4908.932129
3684.471680	4604.514648
3683.721680	4603.776855
3682.972656	4766.480469
3682.222656	4532.267090
3681.473633	4664.919434
3680.723633	4774.191895
3679.973633	4683.425293
3679.223633	4775.995117
3678.472656	4658.598145
3677.722656	4827.773438
3676.972656	4853.649902
3676.221680	4752.950684
3675.470703	4725.547363
3674.719727	4897.932617
3673.968750	4757.324707
3673.217773	4853.091797
3672.466797	4908.891113
3671.715820	4828.244141
3670.963867	4977.185059
3670.212891	4866.614746
3669.460938	4952.309082
3668.708984	4958.166504
3667.957031	4904.174316
3667.205078	4906.712891
3666.453125	4989.021484
3665.701172	4958.312988
3664.948242	4901.032227
3664.196289	4923.502441
3663.443359	4886.175293
3662.690430	4915.282715
3661.937500	4990.869141
3661.184570	5202.554199
3660.431641	5009.187012
3659.678711	5171.016113
3658.924805	5047.403809
3658.171875	5106.318359
3657.417969	5062.374023
3656.664063	5167.703125
3655.910156	5083.966309
3655.156250	5079.835938
3654.402344	5161.904297
3653.648438	5101.411621
3652.893555	5209.963867
3652.139648	5146.168945
3651.384766	5264.618652
3650.629883	5257.149902
3649.875000	5398.728027
3649.120117	5232.284668
3648.365234	5390.376465
3647.610352	5323.302246
3646.854492	5425.059082
3646.099609	5334.834473
3645.343750	5373.687012
3644.587891	5498.544922
3643.832031	5510.895508
3643.076172	5410.792969
3642.320313	5429.766602
3641.564453	5455.347168
3640.808594	5623.065918
3640.051758	5420.546875
3639.294922	5449.420898
3638.539063	5636.884277
3637.782227	5500.532715
3637.025391	5542.591797
3636.267578	5620.965332
3635.510742	5550.722168
3634.753906	5463.993652
3633.996094	5671.080078
3633.239258	5670.171387
3632.481445	5642.863770
3631.723633	5641.959961
3630.965820	5568.480957
3630.208008	5834.753906
3629.449219	5724.991699
3628.691406	5816.397949
3627.933594	5759.421387
3627.174805	5755.202637
3626.416016	5876.221191
3625.657227	5647.913574
3624.898438	5679.955078
3624.139648	5672.457031
3623.380859	5918.566895
3622.621094	5924.204590
3621.862305	6035.201660
3621.102539	5820.254883
3620.342773	5888.443359
3619.583984	5973.064453
3618.824219	6041.206543
3618.063477	5911.932617
3617.303711	6022.824219
3616.543945	5949.504883
3615.783203	5886.073730
3615.023438	6088.973145
3614.262695	6074.849121
3613.501953	5925.972656
3612.741211	6201.064453
3611.980469	6035.787109
3611.219727	6113.664063
3610.458008	6079.838379
3609.697266	6118.273438
3608.935547	6091.024902
3608.173828	6198.389648
3607.412109	6236.786621
3606.650391	6239.069336
3605.888672	6205.255371
3605.126953	6132.080566
3604.365234	6055.648438
3603.602539	6185.874023
3602.839844	6250.470215
3602.078125	6246.190430
3601.315430	6248.467773
3600.552734	6224.522461
3599.790039	6098.989258
3599.026367	6245.465332
3598.263672	6244.464844
3597.500000	6220.534668
3596.737305	6281.766113
3595.973633	6156.323242
3595.209961	6283.027832
3594.446289	6219.822754
3593.682617	6474.125488
3592.918945	6234.192871
3592.154297	6321.538574
3591.390625	6192.937500
3590.625977	6113.442383
3589.861328	6138.626465
3589.096680	6428.666016
3588.332031	6342.631836
3587.567383	6299.120605
3586.802734	6311.184570
3586.038086	6221.942383
3585.272461	6113.124512
3584.506836	6236.282715
3583.742188	6408.395508
3582.976563	6364.914063
3582.210938	6363.894531
3581.445313	6297.581055
3580.678711	6260.666504
3579.913086	6191.126953
3579.146484	6320.660156
3578.380859	6296.809082
3577.614258	6230.559082
3576.847656	6239.345215
3576.081055	6264.434082
3575.314453	6201.480957
3574.547852	6311.326660
3573.780273	6235.348145
3573.013672	6377.742676
3572.246094	6298.518555
3571.478516	6069.457031
3570.710938	6231.353516
3569.943359	6152.190430
3569.175781	6248.895020
3568.408203	6117.661621
3567.639648	6175.276367
3566.872070	6245.892090
3566.103516	6264.416992
3565.334961	6214.607422
3564.567383	6187.586426
3563.798828	6274.417480
3563.029297	6244.142578
3562.260742	6191.116211
3561.492188	6193.375488
3560.722656	6192.383301
3559.953125	6080.888672
3559.184570	6135.156738
3558.415039	6160.166016
3557.645508	6224.149414
3556.875000	6226.400391
3556.105469	6280.609863
3555.335938	6152.972656
3554.565430	6126.015137
3553.794922	6128.279785
3553.025391	6208.432617
3552.254883	6028.970215
3551.484375	6044.226074
3550.712891	6130.841309
3549.942383	6120.128906
3549.171875	6216.432129
3548.400391	6027.384277
3547.628906	5951.858398
3546.858398	6022.211914
3546.086914	5982.358887
3545.315430	5926.316895
3544.542969	6178.062012
3543.771484	5982.723145
3543.000000	6043.298340
3542.227539	5935.472168
3541.455078	6122.302246
3540.682617	5729.634766
3539.911133	6058.846191
3539.137695	5983.446289
3538.365234	5969.545410
3537.592773	6068.874512
3536.819336	6042.026367
3536.046875	6005.484375
3535.273438	5926.919434
3534.500000	5916.270996
3533.726563	6044.619629
3532.953125	6114.752930
3532.179688	5936.047363
3531.406250	5960.943359
3530.631836	5930.915039
3529.857422	6017.170410
3529.083984	5938.702637
3528.309570	5960.353027
3527.535156	5914.202148
3526.760742	6039.137207
3525.985352	5802.581055
3525.210938	5808.104492
3524.436523	6016.877441
3523.661133	5873.982910
3522.885742	5931.095215
3522.110352	5955.941895
3521.334961	5932.418945
3520.559570	5957.257324
3519.784180	5843.494141
3519.008789	5919.899902
3518.232422	6144.496582
3517.456055	5850.350586
3516.680664	5820.423828
3515.904297	5848.476074
3515.127930	5873.298828
3514.351563	5820.845703
3513.574219	5832.789063
3512.797852	5889.787109
3512.020508	5882.407227
3511.244141	5755.984863
3510.466797	5896.606934
3509.689453	5937.475586
3508.912109	5878.638184
3508.134766	5845.542480
3507.356445	5831.746582
3506.579102	5956.171387
3505.800781	5707.752441
3505.023438	5835.370605
3504.245117	5795.881836
3503.466797	5769.254883
3502.688477	5691.248047
3501.910156	5796.307617
3501.130859	5711.899414
3500.352539	5685.302734
3499.573242	5645.875000
3498.794922	5847.149902
3498.015625	5810.917480
3497.236328	5742.614746
3496.457031	5735.279297
3495.677734	5753.603027
3494.897461	5653.275879
3494.118164	5690.843262
3493.337891	5734.809570
3492.557617	5701.839844
3491.777344	5689.715820
3490.998047	5677.591797
3490.216797	5665.467773
3489.436523	5653.343750
3488.656250	5678.058105
3487.875000	5565.078125
3487.094727	5612.208984
3486.313477	5828.976074
3485.532227	5655.216797
3484.750977	5779.108887
3483.969727	5765.384766
3483.188477	5796.450195
3482.406250	5696.370605
3481.625000	5660.281250
3480.842773	5790.466797
3480.060547	5661.664063
3479.278320	5715.094727
3478.496094	5528.819824
3477.713867	5818.709473
3476.931641	5603.723633
3476.148438	5673.100586
3475.366211	5624.284668
3474.583008	5763.888184
3473.799805	5708.687012
3473.016602	5710.964844
3472.233398	5579.187500
3471.450195	5539.998535
3470.666992	5819.895020
3469.882813	5681.783203
3469.099609	5467.162109
3468.315430	5491.799316
3467.531250	5602.523438
3466.747070	5694.082520
3465.962891	5552.913086
3465.178711	5638.076172
3464.394531	5637.172852
3463.609375	5693.619629
3462.825195	5721.377930
3462.040039	5663.128906
3461.254883	5588.975586
3460.469727	5626.289063
3459.684570	5755.914063
3458.899414	5611.753418
3458.113281	5664.957520
3457.328125	5571.770508
3456.541992	5599.511230
3455.755859	5709.950195
3454.969727	5524.564453
3454.183594	5599.999512
3453.397461	5735.820801
3452.611328	5534.625000
3451.824219	5635.449219
3451.038086	5577.342773
3450.250977	5563.738770
3449.463867	5639.094238
3448.676758	5555.603027
3447.889648	5500.721680
3447.102539	5515.717285
3446.315430	5441.810059
3445.527344	5625.053711
3444.740234	5570.195801
3443.952148	5683.544922
3443.164063	5587.447754
3442.375977	5558.000977
3441.587891	5595.172363
3440.799805	5635.503418
3440.011719	5545.816406
3439.222656	5608.333984
3438.434570	5572.567383
3437.645508	5625.552734
3436.856445	5320.444336
3436.067383	5649.095703
3435.278320	5622.848145
3434.489258	5742.304199
3433.699219	5516.541992
3432.910156	5442.833008
3432.120117	5492.613281
3431.330078	5355.626465
3430.540039	5592.124512
3429.750000	5489.972168
3428.959961	5451.127441
3428.169922	5681.169922
3427.378906	5398.776367
3426.588867	5546.535645
3425.797852	5491.897461
3425.006836	5405.664551
3424.215820	5426.922852
3423.424805	5381.810547
3422.633789	5422.023438
3421.842773	5553.840332
3421.050781	5353.953613
3420.259766	5507.845703
3419.467773	5377.498535
3418.675781	5483.979980
3417.883789	5473.630859
3417.091797	5400.162109
3416.299805	5512.899414
3415.506836	5505.705566
3414.714844	5517.441406
3413.921875	5598.563965
3413.128906	5528.287109
3412.336914	5442.267090
3411.543945	5343.664063
3410.750000	5298.677734
3409.957031	5335.647461
3409.164063	5423.022949
3408.370117	5516.670898
3407.576172	5386.633301
3406.783203	5461.359375
3405.989258	5366.012207
3405.195313	5280.140625
3404.400391	5398.920410
3403.606445	5294.185547
3402.812500	5161.160645
3402.017578	5443.522461
3401.222656	5414.335449
3400.427734	5265.627441
3399.633789	5494.370605
3398.837891	5279.661621
3398.042969	5571.209473
3397.248047	5277.969238
3396.452148	5443.702637
3395.657227	5376.837402
3394.861328	5460.809570
3394.065430	5393.962402
3393.269531	5295.726563
3392.473633	5326.282715
3391.677734	5250.068848
3390.880859	5318.295898
3390.084961	5383.361816
3389.288086	5300.898438
3388.491211	5381.635742
3387.694336	5205.074219
3386.897461	5411.280273
3386.100586	5466.869141
3385.302734	5215.115234
3384.505859	5324.020020
3383.708008	5376.460938
3382.911133	5143.648926
3382.113281	5355.933105
3381.315430	5442.811523
3380.517578	5373.013672
3379.718750	5177.940430
3378.920898	5390.082520
3378.123047	5367.298340
3377.324219	5285.033203
3376.525391	5271.664063
3375.726563	5226.999512
3374.927734	5160.443359
3374.128906	5388.028320
3373.330078	5240.127930
3372.530273	5161.089355
3371.731445	5250.957031
3370.931641	5046.864746
3370.131836	5327.434082
3369.332031	5057.750000
3368.532227	5294.471680
3367.732422	5306.122070
3366.932617	5255.280762
3366.131836	5166.968262
3365.332031	5209.867188
3364.531250	5296.473633
3363.730469	5064.565430
3362.929688	5251.068359
3362.128906	5075.426758
3361.327148	5177.603516
3360.526367	5298.469238
3359.725586	5325.698730
3358.923828	5315.486816
3358.122070	5217.947754
3357.320313	5326.255859
3356.518555	5284.868652
3355.716797	5084.506348
3354.915039	5270.706055
3354.112305	5216.881836
3353.310547	5275.247559
3352.507813	5215.208496
3351.705078	5416.841797
3350.902344	5291.396484
3350.099609	5371.509766
3349.296875	5174.502930
3348.493164	5226.592773
3347.690430	5359.588379
3346.886719	5265.371582
3346.083008	5339.201172
3345.279297	5304.124512
3344.475586	5200.629883
3343.671875	5240.225098
3342.868164	5245.603516
3342.063477	5269.633301
3341.259766	5200.402832
3340.455078	5292.806641
3339.650391	5223.594238
3338.845703	5185.473145
3338.041016	5153.577148
3337.236328	5174.492188
3336.431641	5276.141602
3335.625977	5278.400391
3334.821289	5153.375977
3334.015625	5180.484863
3333.209961	5123.791992
3332.404297	5129.176270
3331.598633	5252.451660
3330.791992	5195.773926
3329.986328	5139.114258
3329.180664	5156.895508
3328.374023	5249.082520
3327.567383	5269.940430
3326.760742	5126.519531
3325.954102	5128.795898
3325.147461	5131.071777
3324.339844	5167.424316
3323.533203	5228.545410
3322.725586	5125.505859
3321.918945	5174.227539
3321.111328	5080.518066
3320.303711	5191.140625
3319.496094	5230.542969
3318.687500	5127.585449
3317.879883	5194.831055
3317.071289	5125.940430
3316.263672	5125.118164
3315.455078	5102.648438
3314.646484	5327.547363
3313.837891	5054.638672
3313.029297	5223.833984
3312.219727	5105.556152
3311.411133	5222.158203
3310.601563	5270.752930
3309.792969	5047.496582
3308.983398	5065.217773
3308.173828	5209.543945
3307.364258	5146.957031
3306.553711	5161.566406
3305.744141	5108.266602
3304.933594	5107.447266
3304.124023	5122.055664
3303.313477	5139.744141
3302.502930	5055.635742
3301.692383	5054.824707
3300.881836	5050.930176
3300.070313	5111.781738
3299.259766	5064.722656
3298.448242	5116.305664
3297.637695	5189.443848
3296.826172	5003.743652
3296.014648	5144.649902
3295.203125	5109.942871
3294.390625	5170.715820
3293.579102	5216.073242
3292.766602	5012.045410
3291.955078	5032.788574
3291.142578	5028.903320
3290.330078	5123.488281
3289.517578	5064.209473
3288.705078	5152.606445
3287.891602	4997.995117
3287.079102	5037.170410
3286.265625	5137.827637
3285.453125	5026.331543
3284.639648	5176.137207
3283.826172	5058.523926
3283.012695	5091.512207
3282.198242	4995.456055
3281.384766	4970.080566
3280.570313	4953.926758
3279.756836	4922.423828
3278.942383	4857.158691
3278.127930	4973.030273
3277.313477	5116.488281
3276.499023	5103.392090
3275.683594	4933.816895
3274.869141	4887.008301
3274.053711	4895.425781
3273.238281	5173.720703
3272.423828	4976.645508
3271.608398	5003.439453
3270.791992	5011.832520
3269.976563	5072.325195
3269.161133	5096.025879
3268.344727	5089.080078
3267.528320	4959.601563
3266.712891	5124.201172
3265.896484	5046.819336
3265.080078	4920.471191
3264.262695	5017.646484
3263.446289	5108.668945
3262.629883	5012.975586
3261.812500	4975.452148
3260.995117	4950.177734
3260.177734	5096.212891
3259.360352	4963.881348
3258.542969	4859.113281
3257.725586	4916.425781
3256.907227	5056.257813
3256.089844	4988.203613
3255.271484	5091.307129
3254.453125	4867.437012
3253.634766	4982.746582
3252.816406	5137.728027
3251.998047	4877.309570
3251.179688	5001.722656
3250.360352	5104.723633
3249.541992	5039.800293
3248.722656	5081.720703
3247.903320	4952.737793
3247.083984	5034.322754
3246.264648	4960.299805
3245.444336	4965.603516
3244.625000	5068.494141
3243.804688	5082.926270
3242.985352	5018.088379
3242.165039	4956.319336
3241.344727	5053.049316
3240.524414	5030.907715
3239.703125	5167.201660
3238.882813	5056.708496
3238.061523	5028.485352
3237.241211	4978.954102
3236.419922	5011.646973
3235.598633	5065.639160
3234.777344	5067.869629
3233.956055	5015.320313
3233.134766	5114.927246
3232.312500	5129.317383
3231.490234	4936.859863
3230.668945	4942.149902
3229.846680	5047.785156
3229.024414	5068.257324
3228.202148	5043.124512
3227.378906	4920.740234
3226.556641	5011.116699
3225.733398	5080.194824
3224.911133	5127.985840
3224.087891	5048.189453
3223.264648	5068.637695
3222.441406	4991.912598
3221.618164	4954.679688
3220.793945	5090.479980
3219.970703	4971.298340
3219.146484	4979.603516
3218.322266	5075.892090
3217.498047	4920.367676
3216.673828	5153.120605
3215.849609	5161.391113
3215.025391	4966.510254
3214.201172	5117.291504
3213.375977	5019.475098
3212.550781	4961.087402
3211.725586	5102.706055
3210.900391	5059.471680
3210.075195	5134.387695
3209.250000	4954.872559
3208.424805	4960.133301
3207.598633	4974.475098
3206.772461	5170.443848
3205.947266	5012.224609
3205.121094	4981.157715
3204.294922	5065.078125
3203.467773	5082.416016
3202.641602	5184.441895
3201.815430	5008.201172
3200.988281	5019.491699
3200.161133	4961.242676
3199.333984	5032.993652
3198.506836	4944.537598
3197.679688	5137.141602
3196.852539	5000.354980
3196.024414	5023.719238
3195.197266	5080.299805
3194.369141	5158.000977
3193.541016	5072.628906
3192.712891	5050.681641
3191.884766	4935.168945
3191.056641	5251.262695
3190.227539	5042.212891
3189.399414	5125.878906
3188.570313	5106.956543
3187.741211	5006.607422
3186.913086	4981.678711
3186.083008	5203.992676
3185.253906	4989.122070
3184.424805	4976.264160
3183.594727	5080.940918
3182.765625	4959.599609
3181.935547	5043.156738
3181.105469	5000.176758
3180.275391	4969.256348
3179.445313	5143.106934
3178.615234	5006.799316
3177.784180	4948.800781
3176.954102	5029.268555
3176.123047	5028.460449
3175.291992	5096.854004
3174.460938	5008.794922
3173.629883	5017.013672
3172.798828	5145.522461
3171.966797	5111.620605
3171.135742	5089.754883
3170.303711	5137.030762
3169.471680	5199.318359
3168.639648	5108.335938
3167.807617	5041.417969
3166.975586	5127.722168
3166.143555	5063.825684
3165.310547	4999.949707
3164.478516	4930.088867
3163.645508	5031.364746
3162.812500	5033.558105
3161.979492	5071.762695
3161.146484	5031.940430
3160.312500	4959.129883
3159.479492	5102.313965
3158.645508	4945.540039
3157.812500	5091.678223
3156.978516	5024.900391
3156.144531	5027.090820
3155.310547	5080.232422
3154.475586	4989.514648
3153.641602	5123.542969
3152.807617	5002.889648
3151.972656	5097.934082
3151.137695	5010.266113
3150.302734	5006.466797
3149.467773	5119.427246
3148.632813	4921.044434
3147.796875	5108.803223
3146.961914	5110.974609
3146.125977	5062.282715
3145.290039	4998.649414
3144.455078	5045.700684
3143.618164	5047.880371
3142.782227	4966.339844
3141.946289	5031.310547
3141.109375	4845.183105
3140.273438	4817.507813
3139.436523	4990.040039
3138.599609	5060.939453
3137.762695	5191.558105
3136.925781	4936.861816
3136.088867	5133.152832
3135.250977	4950.203125
3134.414063	5173.294922
3133.576172	5053.075684
3132.738281	5001.531738
3131.900391	5060.402344
3131.062500	4907.443359
3130.224609	5097.551758
3129.385742	5040.068848
3128.547852	4958.749512
3127.708984	4940.064453
3126.870117	5004.849121
3126.031250	4908.672363
3125.192383	4943.642090
3124.353516	5073.941406
3123.514648	4945.031250
3122.674805	5006.784180
3121.835938	5128.076172
3120.996094	4912.871582
3120.156250	5007.346680
3119.316406	5012.494629
3118.476563	4883.717773
3117.635742	5037.663086
3116.795898	4986.276367
3115.955078	4911.108887
3115.114258	4937.086426
3114.274414	4998.739746
3113.433594	4926.579590
3112.591797	4988.214355
3111.750977	5049.829102
3110.910156	4956.892578
3110.068359	4982.836914
3109.226563	4946.386230
3108.384766	5016.878418
3107.542969	4989.343262
3106.701172	5039.020020
3105.859375	4931.329590
3105.017578	5034.431152
3104.174805	4986.134766
3103.332031	4976.430176
3102.490234	4957.828125
3101.647461	5001.528320
3100.803711	4896.913086
3099.960938	4955.436523
3099.118164	4862.722168
3098.274414	5081.320313
3097.431641	5024.185059
3096.587891	4970.031250
3095.744141	5010.716309
3094.900391	4701.790527
3094.056641	4935.049316
3093.211914	5120.844727
3092.368164	4995.648438
3091.523438	4983.001465
3090.678711	5026.604980
3089.833984	4919.242188
3088.989258	5033.865723
3088.144531	4938.372070
3087.299805	5044.080078
3086.454102	5081.722168
3085.609375	5086.819336
3084.763672	5020.947754
3083.917969	4866.401855
3083.072266	4998.640137
3082.226563	5059.902832
3081.380859	5100.459961
3080.534180	5055.320313
3079.688477	4939.296387
3078.841797	5033.018555
3077.995117	5100.131836
3077.148438	5072.736816
3076.301758	4968.592773
3075.455078	4979.600586
3074.607422	5037.825195
3073.760742	4983.899902
3072.913086	5089.310059
3072.065430	5020.644531
3071.217773	4822.228516
3070.370117	5069.160645
3069.522461	5015.272949
3068.673828	4934.871582
3067.826172	5081.451172
3066.977539	4903.813477
3066.128906	4991.420410
3065.280273	4993.563477
3064.431641	4957.412598
3063.583008	4980.175781
3062.734375	5041.211914
3061.884766	4854.918457
3061.035156	4965.997559
3060.186523	5121.188477
3059.336914	4958.513672
3058.487305	5004.791992
3057.636719	5201.086914
3056.787109	5106.127441
3055.937500	5055.311523
3055.086914	4969.227051
3054.236328	4930.208984
3053.385742	4997.021973
3052.535156	4863.965332
3051.684570	5021.860352
3050.833984	4959.354004
3049.982422	5078.994629
3049.130859	4896.079590
3048.280273	4915.847656
3047.428711	4788.803223
3046.577148	4970.042480
3045.725586	4928.149902
3044.873047	5103.438477
3044.021484	4894.287109
3043.168945	4925.770996
3042.316406	4910.311523
3041.464844	4979.908691
3040.612305	4932.189453
3039.758789	4910.872559
3038.906250	4901.288086
3038.053711	5035.321289
3037.200195	4920.223145
3036.346680	5030.770020
3035.493164	4927.427734
3034.639648	4999.860352
3033.786133	5042.983887
3032.932617	5059.740723
3032.079102	4880.341309
3031.224609	4943.952637
3030.370117	4922.669922
3029.515625	4954.065918
3028.661133	4754.318359
3027.806641	4888.115234
3026.952148	4992.620605
3026.097656	5082.470703
3025.242188	5026.099121
3024.386719	5004.826172
3023.532227	4974.791504
3022.676758	4991.524902
3021.820313	4891.374512
3020.964844	5042.504883
3020.109375	5035.850586
3019.252930	4821.839355
3018.397461	5051.749512
3017.541016	4919.553223
3016.684570	4962.548340
3015.828125	4967.586426
3014.970703	4969.705078
3014.114258	4855.112793
3013.256836	4848.496582
3012.400391	4908.968262
3011.542969	4844.018555
3010.685547	4968.620605
3009.828125	4941.582031
3008.970703	4911.636719
3008.112305	5079.883789
3007.254883	4962.506348
3006.396484	4947.139648
3005.538086	4931.777832
3004.679688	4875.644531
3003.821289	5040.849121
3002.962891	4917.748535
3002.104492	4713.175293
3001.245117	4898.700684
3000.385742	4944.475098
2999.527344	5010.603027
2998.667969	4971.975098
2997.808594	4898.454102
2996.948242	4798.780762
2996.088867	5048.085938
2995.229492	4832.124023
2994.369141	5026.110840
2993.508789	5007.862305
2992.648438	4940.217773
2991.788086	5084.698730
2990.927734	4988.012207
2990.067383	4984.304199
2989.206055	4893.472656
2988.344727	4991.409180
2987.484375	4912.218750
2986.623047	4949.163086
2985.761719	5035.433594
2984.899414	4802.478516
2984.038086	4990.291016
2983.176758	5099.719727
2982.314453	4884.269043
2981.452148	4906.681152
2980.589844	4810.208496
2979.727539	4890.605469
2978.865234	5011.555664
2978.002930	5039.728516
2977.139648	4899.832031
2976.276367	4794.746094
2975.414063	5077.846191
2974.550781	4909.048828
2973.687500	4795.324219
2972.824219	4948.000488
2971.959961	5071.679199
2971.096680	4920.356934
2970.232422	4962.971680
2969.368164	4898.517090
2968.503906	4776.224609
2967.639648	5009.744629
2966.775391	4922.177246
2965.911133	4953.190918
2965.045898	5082.490234
2964.181641	4954.484863
2963.316406	4945.016113
2962.451172	4941.329590
2961.585938	4894.305664
2960.720703	4925.292969
2959.854492	5063.136230
2958.989258	4978.573730
2958.123047	5003.757324
2957.256836	5037.593262
2956.391602	5132.032715
2955.524414	4966.706543
2954.658203	4931.280273
2953.791992	4967.990723
2952.924805	5010.458008
2952.058594	4900.055176
2951.191406	5098.234863
2950.324219	4982.086914
2949.457031	5134.066406
2948.589844	4943.011719
2947.722656	4947.978516
2946.854492	4990.400391
2945.986328	5006.880371
2945.119141	4905.260742
2944.250977	4987.986816
2943.382813	4895.040527
2942.513672	5026.684082
2941.645508	5109.350586
2940.777344	4941.600098
2939.908203	4906.272461
2939.039063	4988.917969
2938.169922	4873.047363
2937.300781	5171.385254
2936.431641	5081.403809
2935.562500	4945.447266
2934.692383	4967.647949
2933.822266	5001.338867
2932.953125	4974.667480
2932.083008	5106.041992
2931.212891	5070.743652
2930.341797	5012.476074
2929.471680	5049.003906
2928.601563	5148.694336
2927.730469	5096.184082
2926.859375	5026.467285
2925.988281	5074.449219
2925.117188	4941.625000
2924.246094	5127.328125
2923.375000	5169.532715
2922.502930	5045.361816
2921.630859	5121.979980
2920.759766	4972.049805
2919.887695	5051.521484
2919.015625	5059.306152
2918.142578	5075.686035
2917.270508	5100.657227
2916.397461	5185.786621
2915.525391	4924.270508
2914.652344	5083.868652
2913.779297	4957.046387
2912.906250	5231.116211
2912.033203	5081.408691
2911.159180	4997.582031
2910.286133	4993.914063
2909.412109	5133.315918
2908.538086	5006.607422
2907.664063	5094.474121
2906.790039	5159.432129
2905.916016	4972.729980
2905.041992	5137.753906
2904.166992	5065.459473
2903.291992	5181.826660
2902.417969	5175.275391
2901.542969	5063.008301
2900.666992	5079.332031
2899.791992	5024.242676
2898.916992	5080.548828
2898.041016	4959.802734
2897.165039	4964.712402
2896.290039	5046.690918
2895.414063	5102.956543
2894.538086	4987.991211
2893.661133	5221.139160
2892.785156	4935.034180
2891.908203	5051.176758
2891.032227	4947.700195
2890.155273	5052.397461
2889.278320	5011.671387
2888.401367	5122.024902
2887.523438	5101.249512
2886.646484	5057.685059
2885.768555	5056.868652
2884.891602	5016.173828
2884.013672	4984.036133
2883.135742	5176.865723
2882.256836	5096.311523
2881.378906	5084.102051
2880.500977	5017.819336
2879.622070	5068.232422
2878.743164	5107.248047
2877.865234	5004.010742
2876.985352	4954.849121
2876.106445	4965.424805
2875.227539	5086.890625
2874.348633	5051.954102
2873.468750	4914.697754
2872.588867	5030.428711
2871.708984	4941.527344
2870.829102	5037.328125
2869.949219	5027.992676
2869.069336	5024.340820
2868.188477	4935.497070
2867.308594	5034.075684
2866.427734	4945.258789
2865.546875	4964.329102
2864.666016	4946.500000
2863.785156	5062.037598
2862.903320	5086.753418
2862.022461	5074.585449
2861.140625	4980.175293
2860.258789	5228.906738
2859.376953	4879.335938
2858.495117	5045.796387
2857.613281	4954.285156
2856.731445	4973.321777
2855.848633	5108.519531
2854.965820	5053.869629
2854.083984	4854.783203
2853.201172	5040.909668
2852.318359	5037.263672
2851.434570	5002.477539
2850.551758	4998.839355
2849.667969	5063.125000
2848.785156	4864.229492
2847.901367	5047.343750
2847.017578	4905.089844
2846.133789	5079.653320
2845.249023	5042.070313
2844.365234	5024.291504
2843.480469	5037.614746
2842.596680	5076.372070
2841.711914	4948.380371
2840.827148	4780.872559
2839.942383	5045.661133
2839.056641	5067.443359
2838.171875	5063.800781
2837.286133	5139.224121
2836.401367	5076.281250
2835.515625	5072.638184
2834.629883	5037.950195
2833.743164	5014.561035
2832.857422	4909.356445
2831.971680	5046.792969
2831.084961	5139.056152
2830.198242	5079.003418
2829.311523	5007.691895
2828.424805	5074.543457
2827.538086	4946.880371
2826.651367	5146.178711
2825.763672	4942.463867
2824.876953	5175.506836
2823.989258	4977.486816
2823.101563	4999.214355
2822.213867	4936.454102
2821.325195	5003.229492
2820.437500	5036.202148
2819.549805	4934.061523
2818.661133	5054.273926
2817.772461	5098.477051
2816.883789	5086.399902
2815.995117	5015.257324
2815.106445	5076.318848
2814.216797	5036.131836
2813.328125	5198.382324
2812.438477	5132.889160
2811.548828	4935.321289
2810.659180	5080.648438
2809.769531	5023.634277
2808.879883	5062.150879
2807.989258	5145.594727
2807.099609	5001.540527
2806.208984	5143.931152
2805.318359	5224.513672
2804.427734	5091.744141
2803.537109	5102.146484
2802.646484	4989.081543
2801.754883	5089.274902
2800.863281	5164.189941
2799.972656	5053.974121
2799.081055	4997.073242
2798.189453	5203.742188
2797.296875	5160.851563
2796.405273	5109.565918
2795.513672	5156.380371
2794.621094	5253.614258
2793.728516	5087.477539
2792.835938	5221.104004
2791.943359	5203.456543
2791.050781	5020.607910
2790.157227	5134.582031
2789.264648	4999.389648
2788.371094	5116.129395
2787.477539	5185.259277
2786.583984	5240.377930
2785.690430	5177.987793
2784.796875	5101.632813
2783.903320	5374.864258
2783.008789	5206.232910
2782.114258	5163.457031
2781.219727	5176.597656
2780.325195	5209.296387
2779.430664	5186.100098
2778.536133	5151.735840
2777.640625	5271.016113
2776.746094	5203.134277
2775.850586	5135.274414
2774.955078	5134.443848
2774.059570	5030.327148
2773.164063	5185.813477
2772.267578	5307.762207
2771.372070	5234.358887
2770.475586	5200.035645
2769.579102	5254.979980
2768.683594	5106.322754
2767.786133	5219.819336
2766.889648	5294.249023
2765.993164	5103.844727
2765.095703	5133.676270
2764.199219	5163.498047
2763.301758	5232.315430
2762.404297	5145.113281
2761.506836	5144.280762
2760.608398	5171.296387
2759.710938	5148.185059
2758.812500	5069.404297
2757.914063	5154.869629
2757.016602	5270.919434
2756.118164	5181.026367
2755.218750	5174.624023
2754.320313	5107.028320
2753.421875	5139.575684
2752.522461	5288.901855
2751.623047	5199.078125
2750.723633	5075.925293
2749.824219	5150.146484
2748.924805	5190.996582
2748.025391	5190.156250
2747.125000	5269.878906
2746.224609	5182.921387
2745.325195	5226.516602
2744.424805	5197.903809
2743.523438	5366.411621
2742.623047	5212.875977
2741.722656	5256.437500
2740.821289	5050.247070
2739.919922	5318.547363
2739.019531	5167.892578
2738.118164	5250.261230
2737.215820	5277.142090
2736.314453	5254.106934
2735.413086	5256.028809
2734.510742	5274.579590
2733.608398	5154.561523
2732.706055	5126.018555
2731.803711	5097.484863
2730.901367	5210.226563
2729.999023	5126.298828
2729.095703	5119.931152
2728.193359	5132.944824
2727.290039	5179.171875
2726.386719	5045.484863
2725.483398	5321.391113
2724.579102	5165.589844
2723.675781	5222.846191
2722.771484	5246.893555
2721.868164	5044.166992
2720.963867	5311.554688
2720.059570	5186.289551
2719.155273	5135.696289
2718.250000	5223.301270
2717.345703	5156.138672
2716.440430	5171.879883
2715.536133	5259.436523
2714.630859	5261.346680
2713.725586	5252.210449
2712.819336	5174.052734
2711.914063	5256.030273
2711.007813	5213.777832
2710.102539	5323.318359
2709.196289	5253.476563
2708.290039	5225.038574
2707.383789	5364.864746
2706.477539	5322.627930
2705.570313	5114.961426
2704.664063	5180.299805
2703.756836	5237.347168
2702.849609	5288.863770
2701.942383	5139.204102
2701.035156	5196.229980
2700.127930	5236.708984
2699.219727	5208.317871
2698.312500	5229.504395
2697.404297	5228.657227
2696.496094	5216.798340
2695.587891	5273.755371
2694.679688	5311.429688
2693.770508	5346.339844
2692.862305	5095.119141
2691.953125	5135.554199
2691.043945	5142.972656
2690.134766	5263.130859
2689.225586	5157.802246
2688.316406	5236.685059
2687.406250	5092.916016
2686.497070	5284.452637
2685.586914	5250.625488
2684.676758	5247.027344
2683.766602	5356.044434
2682.856445	5324.967773
2681.946289	5340.579590
2681.035156	5227.154785
2680.124023	5352.573242
2679.213867	5285.838379
2678.302734	5090.156250
2677.391602	5218.279297
2676.479492	5225.663086
2675.568359	5318.067383
2674.657227	5196.546875
2673.745117	5127.159668
2672.833008	5285.326660
2671.920898	5215.947266
2671.008789	5294.575195
2670.096680	5343.037109
2669.183594	5281.900391
2668.270508	5248.174805
2667.358398	5085.741211
2666.445313	5230.043457
2665.532227	5237.409180
2664.619141	5209.186523
2663.705078	5298.660156
2662.791992	5316.956055
2661.877930	5258.637695
2660.963867	5413.712891
2660.049805	5276.078613
2659.135742	5392.814941
2658.221680	5312.646973
2657.306641	5224.303711
2656.392578	5267.190430
2655.477539	5323.727539
2654.562500	5227.227539
2653.647461	5357.517578
2652.732422	5293.822266
2651.817383	5238.340820
2650.901367	5270.259766
2649.986328	5291.247070
2649.070313	5159.357422
2648.154297	5297.718750
2647.238281	5310.504395
2646.321289	5113.191895
2645.405273	5398.807617
2644.489258	5403.386719
2643.572266	5257.970703
2642.655273	5338.919434
2641.738281	5318.969727
2640.821289	5416.236816
2639.903320	5363.575684
2638.986328	5215.558105
2638.068359	5231.059082
2637.151367	5336.449219
2636.233398	5341.030762
2635.315430	5321.102051
2634.396484	5325.684082
2633.478516	5512.658691
2632.559570	5294.015625
2631.641602	5249.614258
2630.722656	5319.507813
2629.803711	5449.230469
2628.884766	5366.743164
2627.965820	5357.713379
2627.045898	5297.021484
2626.125977	5347.818848
2625.207031	5251.809570
2624.287109	5308.032715
2623.367188	5557.176270
2622.447266	5273.706055
2621.526367	5335.331055
2620.606445	5323.601074
2619.685547	5322.736816
2618.764648	5392.469238
2617.843750	5402.453125
2616.922852	5377.147461
2616.001953	5416.983398
2615.080078	5329.272949
2614.159180	5211.747070
2613.237305	5457.747559
2612.315430	5421.603516
2611.393555	5279.714355
2610.471680	5555.407715
2609.548828	5313.241211
2608.626953	5361.166016
2607.704102	5316.936035
2606.781250	5429.872559
2605.858398	5233.937500
2604.935547	5411.857910
2604.012695	5400.146484
2603.089844	5290.959473
2602.166016	5422.759277
2601.242188	5419.171875
2600.318359	5364.163086
2599.394531	5441.766113
2598.470703	5321.837891
2597.546875	5299.333008
2596.622070	5266.016113
2595.698242	5405.781738
2594.773438	5361.643066
2593.848633	5409.433105
2592.923828	5359.901855
2591.998047	5364.436523
2591.073242	5285.205566
2590.147461	5335.678223
2589.222656	5367.225586
2588.296875	5269.127441
2587.371094	5360.081543
2586.445313	5359.210938
2585.518555	5339.444824
2584.592773	5441.138672
2583.666016	5216.275879
2582.739258	5382.710938
2581.812500	5300.906738
2580.885742	5529.310059
2579.958984	5272.216797
2579.031250	5384.606934
2578.104492	5362.165039
2577.176758	5261.561523
2576.249023	5516.734863
2575.321289	5502.365723
2574.393555	5420.646973
2573.465820	5371.279297
2572.537109	5459.285156
2571.608398	5291.441895
2570.680664	5540.976074
2569.751953	5462.008301
2568.823242	5436.896973
2567.893555	5462.924805
2566.964844	5502.396973
2566.035156	5428.866699
2565.105469	5549.024902
2564.176758	5346.422363
2563.246094	5455.798828
2562.316406	5425.338867
2561.386719	5523.914551
2560.456055	5450.451660
2559.526367	5500.622070
2558.595703	5327.777344
2557.665039	5439.735840
2556.734375	5540.914063
2555.802734	5558.811035
2554.872070	5415.604004
2553.940430	5366.401855
2553.009766	5446.052734
2552.078125	5429.065430
2551.146484	5339.636230
2550.213867	5515.833008
2549.282227	5536.395020
2548.349609	5489.902344
2547.417969	5373.705566
2546.485352	5343.340820
2545.552734	5589.088867
2544.620117	5454.170898
2543.686523	5480.081543
2542.753906	5385.415039
2541.820313	5483.657715
2540.887695	5547.048340
2539.954102	5449.738281
2539.020508	5475.627930
2538.085938	5496.154785
2537.152344	5396.223145
2536.217773	5523.806152
2535.284180	5469.391602
2534.349609	5358.811035
2533.415039	5526.461914
2532.480469	5512.190430
2531.544922	5393.634277
2530.610352	5489.008301
2529.674805	5480.096191
2528.739258	5546.024414
2527.803711	5494.347656
2526.868164	5624.377930
2525.932617	5583.391113
2524.997070	5456.943848
2524.060547	5626.975098
2523.124023	5431.136719
2522.187500	5438.262695
2521.250977	5394.668945
2520.314453	5625.983398
2519.377930	5510.325195
2518.440430	5570.792969
2517.503906	5481.856934
2516.566406	5512.970703
2515.628906	5424.072754
2514.691406	5452.519043
2513.752930	5419.642090
2512.815430	5546.699707
2511.876953	5484.502930
2510.938477	5664.798828
2510.000000	5490.710449
2509.061523	5463.180176
2508.123047	5459.627930
2507.184570	5655.786621
2506.245117	5540.384766
2505.306641	5675.241699
2504.367188	5389.537598
2503.427734	5705.327637
2502.487305	5422.371582
2501.547852	5389.566895
2500.608398	5441.885254
2499.667969	5528.757324
2498.727539	5570.399902
2497.787109	5675.832031
2496.846680	5435.685059
2495.906250	5461.375977
2494.964844	5423.286621
2494.024414	5446.314453
2493.083008	5583.556152
2492.141602	5481.724121
2491.200195	5448.966309
2490.258789	5514.454590
2489.317383	5574.611816
2488.375000	5454.268066
2487.432617	5397.651855
2486.490234	5468.411621
2485.547852	5403.853027
2484.605469	5501.112793
2483.663086	5410.049316
2482.720703	5470.154297
2481.777344	5501.077148
2480.833984	5638.017090
2479.890625	5433.029297
2478.947266	5662.679199
2478.003906	5542.534668
2477.059570	5486.003418
2476.116211	5580.457520
2475.171875	5431.254883
2474.227539	5507.152832
2473.283203	5580.378418
2472.338867	5470.950684
2471.394531	5501.815918
2470.449219	5389.790527
2469.503906	5518.542480
2468.559570	5477.967285
2467.614258	5492.942871
2466.667969	5452.385254
2465.722656	5546.673340
2464.777344	5527.266113
2463.831055	5497.293457
2462.884766	5570.388184
2461.938477	5593.259277
2460.992188	5383.658691
2460.045898	5401.270020
2459.099609	5442.642578
2458.152344	5528.887207
2457.205078	5538.545898
2456.257813	5413.587891
2455.310547	5689.806641
2454.363281	5530.562012
2453.416016	5458.429199
2452.467773	5417.973633
2451.520508	5641.264160
2450.572266	5558.601074
2449.624023	5515.511230
2448.675781	5393.354492
2447.726563	5511.078125
2446.778320	5636.668945
2445.829102	5540.899414
2444.879883	5592.682617
2443.930664	5346.818359
2442.981445	5417.050781
2442.032227	5431.965820
2441.083008	5373.163086
2440.132813	5506.528809
2439.182617	5589.847168
2438.232422	5604.724121
2437.282227	5593.286621
2436.332031	5502.938965
2435.381836	5388.950195
2434.430664	5451.182617
2433.480469	5497.619141
2432.529297	5441.519043
2431.578125	5414.348633
2430.626953	5429.233398
2429.674805	5578.113770
2428.723633	5348.651855
2427.771484	5505.376465
2426.819336	5528.114258
2425.867188	5458.943359
2424.915039	5368.791992
2423.962891	5381.041016
2423.010742	5335.547363
2422.057617	5497.368164
2421.104492	5412.516113
2420.151367	5348.676758
2419.198242	5457.960449
2418.245117	5580.319824
2417.291992	5343.438477
2416.337891	5442.183105
2415.383789	5451.779297
2414.430664	5445.648926
2413.475586	5350.434082
2412.521484	5375.758789
2411.567383	5490.132813
2410.612305	5402.812988
2409.658203	5349.562012
2408.703125	5479.592285
2407.748047	5489.168945
2406.792969	5380.968262
2405.837891	5327.754883
2404.881836	5439.388672
2403.925781	5373.103027
2402.970703	5448.075684
2402.013672	5326.893555
2401.058594	5344.327148
2400.101563	5400.967773
2399.144531	5491.568848
2398.189453	5258.083984
2397.232422	5335.613770
2396.275391	5345.193359
2395.318359	5407.010742
2394.361328	5322.555664
2393.404297	5428.747559
2392.445313	5328.650879
2391.488281	5254.690430
2390.529297	5191.194336
2389.572266	5258.194336
2388.613281	5437.364258
2387.656250	5201.696289
2386.697266	5234.754395
2385.738281	5129.586914
2384.779297	5321.696777
2383.820313	5143.554199
2382.861328	5301.713867
2381.902344	5306.060547
2380.943359	5227.023438
2379.982422	5132.380371
2379.023438	5214.897949
2378.064453	5341.663086
2377.103516	5155.907227
2376.142578	5269.622559
2375.183594	5201.080078
2374.222656	5343.380371
2373.261719	5181.166016
2372.300781	5138.689941
2371.339844	5267.923340
2370.378906	5277.466797
2369.417969	5190.785645
2368.455078	5319.946289
2367.494141	5222.887207
2366.533203	5125.859375
2365.570313	5195.192383
2364.609375	5181.351563
2363.646484	5222.074219
2362.683594	5093.937500
2361.720703	5025.578613
2360.757813	5255.870605
2359.794922	5073.267578
2358.832031	5085.418457
2357.869141	5154.666504
2356.906250	5042.235840
2355.943359	5189.307617
2354.978516	5012.052246
2354.015625	5164.268066
2353.050781	5241.225586
2352.085938	5232.590820
2351.123047	5234.328125
2350.158203	5137.564941
2349.193359	5224.842773
2348.228516	5229.171875
2347.263672	5171.318848
2346.298828	5035.772461
2345.333984	5117.829102
2344.367188	5057.432617
2343.402344	5126.513184
2342.437500	5079.078613
2341.470703	5042.012207
2340.503906	5201.636719
2339.539063	5143.862793
2338.572266	4987.800293
2337.605469	5237.886230
2336.638672	5159.444336
2335.671875	5068.099121
2334.705078	4909.564941
2333.738281	5094.876953
2332.771484	5179.332520
2331.802734	5046.698242
2330.835938	5376.580566
2329.867188	5347.286133
2328.900391	5491.049316
2327.931641	5249.989746
2326.962891	5236.221680
2325.994141	5147.593262
2325.027344	4989.303223
2324.058594	5029.778809
2323.089844	5106.364746
2322.119141	5025.554199
2321.150391	4924.134766
2320.181641	5150.282715
2319.210938	5051.454102
2318.242188	5037.737305
2317.271484	4905.448242
2316.302734	5030.935059
2315.332031	4970.843750
2314.361328	5055.054688
2313.390625	4989.826172
2312.419922	5007.039551
2311.449219	5031.973145
2310.478516	5013.126465
2309.507813	4935.075195
2308.537109	4882.789063
2307.564453	5000.373047
2306.593750	4917.215332
2305.621094	4952.428711
2304.650391	5093.093262
2303.677734	5012.532715
2302.705078	5063.141602
2301.732422	5021.177246
2300.759766	4979.226074
2299.787109	5027.244629
2298.814453	4900.504883
2297.841797	4940.812012
2296.869141	4916.883789
2295.896484	5121.558105
2294.921875	5110.447754
2293.949219	4978.661621
2292.974609	5042.027832
2292.000000	5079.704590
2291.027344	4901.792969
2290.052734	4960.007813
2289.078125	4918.147461
2288.103516	5073.815430
2287.128906	5006.302734
2286.154297	4990.097656
2285.177734	5037.994141
2284.203125	5003.844727
2283.228516	4977.395508
2282.251953	5061.146973
2281.277344	5014.199219
2280.300781	5051.804688
2279.324219	5002.312500
2278.347656	4899.056152
2277.371094	5003.235352
2276.394531	4933.293945
2275.417969	5006.716797
2274.441406	4987.981934
2273.464844	4997.400879
2272.488281	5032.400391
2271.509766	5057.156250
2270.533203	5005.176758
2269.554688	5050.386230
2268.578125	5000.981445
2267.599609	5012.943848
2266.621094	4963.561035
2265.642578	5182.519531
2264.664063	5059.027832
2263.685547	4961.123047
2262.707031	4901.562988
2261.728516	5064.204102
2260.750000	4935.705566
2259.769531	5075.310547
2258.791016	5028.533203
2257.810547	5017.500977
2256.832031	5019.230957
2255.851563	4901.048828
2254.871094	5053.299316
2253.890625	5021.865723
2252.910156	4992.992676
2251.929688	4930.983398
2250.949219	5019.398438
2249.968750	5023.673340
2248.988281	4954.044434
2248.005859	4996.547852
2247.025391	4980.444336
2246.042969	5002.552246
2245.062500	5027.199707
2244.080078	5095.125977
2243.097656	4954.268066
2242.115234	5045.092773
2241.132813	4942.464355
2240.150391	4867.860352
2239.167969	5070.599121
2238.185547	4919.684570
2237.203125	5058.763672
2236.218750	4882.470703
2235.236328	5021.510254
2234.253906	5053.734863
2233.269531	5014.780762
2232.285156	5013.958984
2231.300781	4840.357910
2230.318359	5103.771973
2229.333984	5006.413574
2228.349609	4970.038574
2227.365234	4887.969238
2226.378906	4996.335938
2225.394531	4952.364258
2224.410156	4847.496094
2223.423828	4955.815918
2222.439453	5081.859375
2221.453125	5032.828613
2220.468750	5009.176758
2219.482422	4896.777344
2218.496094	4997.392578
2217.509766	5011.783691
2216.523438	5041.376953
2215.537109	5058.290039
2214.550781	4864.892090
2213.564453	4907.161621
2212.576172	4896.225098
2211.589844	5014.452148
2210.601563	5018.693848
2209.615234	5043.187988
2208.626953	5047.423340
2207.638672	5102.274902
2206.650391	5076.133301
2205.664063	4908.316895
2204.675781	5102.294434
2203.685547	5010.405273
2202.697266	4804.749023
2201.708984	5051.744141
2200.720703	5028.163574
2199.730469	4956.566895
2198.742188	5003.769531
2197.751953	4924.619629
2196.763672	5014.759277
2195.773438	4991.203613
2194.783203	4997.960938
2193.792969	4908.763184
2192.802734	4948.352539
2191.812500	5045.986328
2190.822266	5072.920410
2189.832031	4983.768066
2188.839844	4957.720215
2187.849609	5113.307617
2186.857422	4961.137207
2185.867188	4980.497559
2184.875000	4934.295410
2183.882813	5001.551270
2182.892578	5015.853516
2181.900391	5055.352051
2180.908203	4976.411621
2179.916016	4968.036621
2178.921875	5090.645996
2177.929688	4843.000977
2176.937500	5088.975098
2175.943359	5090.657227
2174.951172	4961.442871
2173.957031	5015.998535
2172.964844	5020.207520
2171.970703	5104.926758
2170.976563	5008.497070
2169.982422	4977.492676
2168.988281	5069.720703
2167.994141	5061.345703
2167.000000	5005.208008
2166.005859	4956.629883
2165.009766	5046.287109
2164.015625	5025.356934
2163.019531	5057.190918
2162.025391	5068.919922
2161.029297	5035.438477
2160.033203	5119.986816
2159.039063	5081.486328
2158.042969	5075.631348
2157.046875	5170.169922
2156.050781	5134.189453
2155.052734	5002.879395
2154.056641	5034.668945
2153.060547	5081.496582
2152.062500	5030.507324
2151.066406	5117.437012
2150.068359	5111.582520
2149.072266	5128.288086
2148.074219	5157.518555
2147.076172	5154.165527
2146.078125	5110.729492
2145.080078	5014.705566
2144.082031	5094.023438
2143.083984	4970.489258
2142.085938	5109.874512
2141.085938	5116.544434
2140.087891	5088.172852
2139.087891	5102.351074
2138.089844	5073.991211
2137.089844	5118.185059
2136.089844	5037.307129
2135.089844	5006.470703
2134.089844	4990.645996
2133.089844	5094.821777
2132.089844	5193.964355
2131.089844	5120.637207
2130.089844	5119.795410
2129.089844	5046.503906
2128.087891	5083.142090
2127.087891	5112.275879
2126.085938	5091.458984
2125.083984	5240.419922
2124.082031	5104.762695
2123.082031	5103.923340
2122.080078	5133.028809
2121.078125	5057.335449
2120.076172	5203.683594
2119.072266	5232.757813
2118.070313	5172.047363
2117.068359	5083.929688
2116.064453	5137.938477
2115.062500	5181.958984
2114.058594	4911.958008
2113.054688	5135.403809
2112.052734	4965.151367
2111.048828	5200.968750
2110.044922	5028.270508
2109.041016	5072.264648
2108.037109	5081.388672
2107.031250	5102.956055
2106.027344	5005.052246
2105.023438	5141.092285
2104.017578	4963.597168
2103.013672	5146.863770
2102.007813	5312.659668
2101.001953	5152.630859
2099.998047	5174.160645
2098.992188	5121.104004
2097.986328	4973.613281
2096.980469	4945.458008
2095.972656	5148.393555
2094.966797	5090.406738
2093.960938	5131.795898
2092.955078	5048.995117
2091.947266	5152.455078
2090.939453	5161.537598
2089.933594	5036.573730
2088.925781	5120.128906
2087.917969	5077.101074
2086.910156	5006.795410
2085.902344	4951.396973
2084.894531	5158.922852
2083.886719	5108.477051
2082.878906	5162.183594
2081.871094	5079.525879
2080.861328	5031.596191
2079.853516	4988.638184
2078.843750	5186.041504
2077.833984	5162.891113
2076.826172	5107.547363
2075.816406	5126.519043
2074.806641	5088.532227
2073.796875	5107.500488
2072.787109	5171.019043
2071.777344	5113.243652
2070.765625	5139.621582
2069.755859	5099.188965
2068.744141	5063.717285
2067.734375	5025.783691
2066.722656	5173.330566
2065.712891	5058.743652
2064.701172	5196.347656
2063.689453	5076.850586
2062.677734	5224.291504
2061.666016	5233.314453
2060.654297	5212.688965
2059.642578	5147.608887
2058.628906	5159.108887
2057.617188	5190.359375
2056.605469	5179.628906
2055.591797	5102.254395
2054.578125	5172.986328
2053.566406	5088.235352
2052.552734	5089.864258
2051.539063	5187.697754
2050.525391	5120.250000
2049.511719	5079.950684
2048.498047	5101.303711
2047.484375	5068.416016
2046.468750	5188.354980
2045.455078	5148.069824
2044.439453	5194.037109
2043.425781	5146.373535
2042.410156	5175.083008
2041.394531	5230.873535
2040.380859	5153.678711
2039.365234	5101.128418
2038.349609	4994.441895
2037.333984	5175.742188
2036.316406	5120.752930
2035.300781	5238.003906
2034.285156	5224.840820
2033.267578	5179.708496
2032.251953	5186.231934
2031.234375	5069.818848
2030.218750	5059.149902
2029.201172	5159.088867
2028.183594	5109.088379
2027.166016	5177.043945
2026.148438	5183.560547
2025.130859	5167.968262
2024.113281	5014.853027
2023.093750	5153.986816
2022.076172	5138.406738
2021.056641	5110.558105
2020.039063	5144.074707
2019.019531	4932.197266
2018.001953	5174.272949
2016.982422	5094.922852
2015.962891	5133.324219
2014.943359	5063.815918
2013.923828	5080.143066
2012.904297	5106.270508
2011.882813	5095.624512
2010.863281	5153.598145
2009.843750	5111.094727
2008.822266	5073.504883
2007.802734	4977.141602
2006.781250	5125.708496
2005.759766	5164.040039
2004.738281	5165.635742
2003.716797	5025.261230
2002.695313	5036.668945
2001.673828	5141.056641
2000.652344	5049.686035
1999.630859	5229.867676
1998.609375	5055.356934
1997.585938	5135.218750
1996.564453	5122.146973
1995.541016	5148.191406
1994.517578	5064.241211
1993.494141	4985.206055
1992.472656	5001.486816
1991.449219	4990.889160
1990.425781	4965.640625
1989.400391	4913.536133
1988.376953	5073.878418
1987.353516	5019.332031
1986.328125	4950.157715
1985.304688	5056.723145
1984.279297	5019.286621
1983.255859	5062.372559
1982.230469	4949.329102
1981.205078	4833.884277
1980.179688	5015.972656
1979.154297	5039.525391
1978.128906	4936.310547
1977.103516	4952.556152
1976.078125	4890.816406
1975.050781	4926.556152
1974.025391	4998.824707
1972.998047	5012.613281
1971.972656	4902.198242
1970.945313	4928.172363
1969.917969	4861.627441
1968.892578	4980.093750
1967.865234	4816.215820
1966.837891	4917.617188
1965.808594	4858.416504
1964.781250	5069.237305
1963.753906	4966.253906
1962.724609	4924.095215
1961.697266	4901.400391
1960.667969	4983.239746
1959.640625	4916.794434
1958.611328	4884.391602
1957.582031	4949.184570
1956.552734	4953.225586
1955.523438	4971.837891
1954.494141	5070.582520
1953.464844	5062.460449
1952.435547	4814.004883
1951.404297	4953.988770
1950.375000	4948.316406
1949.343750	5063.967773
1948.314453	4854.491699
1947.283203	4865.817871
1946.251953	4852.887207
1945.222656	4905.431641
1944.191406	4967.655762
1943.158203	4942.594238
1942.126953	4890.881348
1941.095703	5003.964355
1940.064453	4906.224121
1939.031250	4820.627930
1938.000000	4865.849609
1936.966797	4952.223633
1935.935547	4987.723145
1934.902344	4880.382324
1933.869141	4775.497070
1932.835938	4958.629395
1931.802734	4994.104004
1930.769531	4821.513184
1929.736328	5101.299316
1928.703125	4906.981934
1927.667969	4956.949219
1926.634766	5038.328613
1925.599609	4991.567871
1924.566406	4908.570313
1923.531250	4873.928711
1922.496094	5018.083984
1921.460938	5082.475586
1920.425781	4970.534668
1919.390625	4969.712402
1918.355469	4956.818359
1917.320313	4975.310547
1916.285156	5128.959473
1915.248047	5072.606934
1914.212891	4941.474609
1913.175781	4996.143066
1912.138672	4976.020508
1911.103516	4934.199219
1910.066406	4943.027832
1909.029297	4947.031250
1907.992188	4914.877441
1906.955078	5049.025879
1905.917969	4983.130371
1904.878906	4972.668457
1903.841797	5005.569336
1902.802734	4925.262207
1901.765625	4912.407227
1900.726563	5075.313965
1899.687500	4961.333008
1898.650391	4986.987305
1897.611328	4976.536133
1896.572266	4958.870117
1895.533203	5071.114746
1894.494141	4918.744141
1893.453125	4978.051270
1892.414063	5145.539063
1891.375000	4923.513672
1890.333984	4865.010742
1889.292969	5061.272949
1888.253906	4990.751953
1887.212891	4992.328125
1886.171875	4998.707520
1885.130859	5029.101563
1884.089844	5078.695313
1883.048828	5032.237793
1882.007813	4887.375488
1880.964844	5049.771973
1879.923828	4943.349121
1878.880859	5067.293457
1877.839844	4941.711914
1876.796875	4835.359863
1875.753906	4870.530273
1874.712891	4908.086914
1873.669922	4998.371094
1872.626953	4918.445313
1871.583984	4953.578125
1870.539063	4892.854492
1869.496094	4954.332520
1868.453125	4991.836914
1867.408203	5031.723633
1866.365234	4913.558105
1865.320313	4788.249512
1864.275391	4914.323730
1863.230469	4901.542969
1862.187500	4939.017578
1861.142578	4919.058594
1860.095703	4944.557129
1859.050781	5020.273438
1858.005859	4914.222168
1856.960938	4860.806641
1855.914063	4898.250000
1854.869141	4816.172852
1853.822266	5020.894043
1852.775391	4938.823242
1851.730469	4811.389160
1850.683594	4712.660156
1849.636719	4852.781250
1848.589844	4720.648926
1847.541016	4886.983398
1846.494141	4814.563477
1845.447266	4844.791016
1844.400391	4920.346191
1843.351563	4836.026855
1842.302734	4744.579590
1841.255859	4886.893555
1840.207031	4819.313965
1839.158203	4780.367188
1838.109375	4801.028809
1837.060547	4807.382813
1836.011719	4751.775879
1834.962891	4748.604980
1833.912109	4797.844727
1832.863281	4894.705078
1831.814453	4727.190918
1830.763672	4800.219727
1829.712891	4689.913086
1828.664063	4820.049805
1827.613281	4666.938477
1826.562500	4870.799316
1825.511719	4767.690918
1824.460938	4688.402832
1823.408203	4678.111816
1822.357422	4732.027344
1821.306641	4755.017578
1820.253906	4961.037109
1819.203125	4881.782227
1818.150391	4828.693359
1817.097656	4756.613770
1816.046875	4741.571289
1814.994141	4802.538086
1813.941406	4687.753418
1812.888672	4867.426270
1811.833984	4783.529785
1810.781250	4801.724121
1809.728516	4836.524902
1808.673828	4717.083008
1807.621094	4761.375488
1806.566406	4845.976563
1805.511719	4759.794922
1804.458984	4740.035156
1803.404297	4829.338867
1802.349609	4790.610352
1801.294922	4853.805664
1800.238281	4819.824707
1799.183594	4790.593750
1798.128906	4846.650391
1797.072266	4755.844727
1796.017578	4783.471680
1794.960938	4761.368652
1793.906250	4800.821289
1792.849609	4875.764160
1791.792969	4915.184570
1790.736328	4812.626465
1789.679688	4757.416016
1788.623047	4699.858398
1787.564453	4812.593750
1786.507813	4835.439453
1785.451172	4907.923828
1784.392578	4819.650879
1783.335938	4932.290527
1782.277344	4796.783203
1781.218750	4732.197266
1780.160156	4858.967773
1779.101563	4834.542480
1778.042969	4895.135254
1776.984375	4884.877930
1775.925781	4773.118652
1774.865234	4741.642578
1773.806641	4825.807617
1772.746094	4758.942383
1771.687500	4843.076172
1770.626953	4830.478027
1769.566406	4994.752441
1768.507813	4762.853027
1767.447266	4837.500000
1766.386719	4883.837402
1765.324219	4788.758789
1764.263672	4884.570313
1763.203125	4820.148926
1762.140625	4784.015625
1761.080078	4799.706055
1760.017578	4815.391113
1758.957031	4913.472168
1757.894531	4905.593262
1756.832031	4916.545410
1755.769531	4875.724609
1754.707031	4832.563965
1753.644531	4810.589355
1752.582031	4859.180664
1751.517578	4806.637695
1750.455078	4758.814941
1749.390625	4819.144043
1748.328125	5008.726074
1747.263672	4852.791504
1746.199219	4835.537109
1745.136719	4822.986816
1744.072266	4845.672852
1743.007813	4854.260742
1741.941406	4806.492188
1740.876953	4890.208984
1739.812500	4863.575195
1738.748047	4801.746582
1737.681641	4868.996582
1736.615234	4893.993652
1735.550781	4865.030762
1734.484375	4826.696289
1733.417969	4856.377441
1732.351563	4918.872070
1731.285156	4948.527832
1730.218750	4809.421875
1729.152344	4796.904297
1728.085938	4990.574707
1727.017578	4973.345703
1725.951172	4761.718750
1724.882813	4964.665039
1723.814453	4872.522949
1722.748047	4813.186035
1721.679688	5048.790527
1720.611328	4853.708496
1719.542969	4883.318848
1718.474609	4938.653320
1717.404297	4898.066895
1716.335938	4897.251465
1715.267578	4835.639648
1714.197266	4940.041504
1713.128906	4855.067383
1712.058594	4779.470215
1710.988281	4748.296875
1709.917969	4822.270020
1708.847656	5008.345703
1707.777344	5000.504883
1706.707031	4894.587891
1705.636719	4844.741699
1704.566406	4927.974121
1703.494141	4738.096191
1702.423828	4947.335449
1701.351563	4822.848633
1700.281250	4808.048340
1699.208984	4863.227051
1698.136719	4820.438965
1697.064453	4842.953125
1695.992188	4928.405273
1694.919922	4827.354004
1693.847656	4929.093750
1692.773438	4804.774414
1691.701172	4850.569336
1690.626953	4833.455566
1689.554688	4797.715332
1688.480469	4834.173340
1687.406250	4784.475586
1686.332031	4825.579102
1685.257813	4952.783691
1684.183594	4903.090332
1683.109375	4762.673828
1682.035156	4931.697754
1680.960938	4802.952148
1679.884766	4923.077637
1678.810547	4901.331055
1677.734375	4784.277832
1676.658203	4820.669434
1675.583984	4743.175781
1674.507813	4828.356934
1673.431641	4804.320313
1672.355469	4819.778809
1671.279297	4784.139160
1670.201172	4827.459961
1669.125000	4812.725098
1668.048828	4900.129395
1666.970703	4741.494629
1665.892578	4780.151855
1664.816406	4832.716797
1663.738281	4734.483887
1662.660156	4833.424316
1661.582031	4874.358398
1660.503906	4794.715820
1659.425781	4777.688965
1658.347656	4762.985840
1657.267578	4866.472656
1656.189453	4784.566406
1655.109375	4760.602539
1654.031250	4776.021973
1652.951172	4708.066406
1651.871094	4751.273926
1650.791016	4769.001953
1649.710938	4670.990234
1648.630859	4718.811035
1647.550781	4801.323730
1646.470703	4689.474121
1645.388672	4536.025879
1644.308594	4831.298828
1643.226563	4763.434570
1642.146484	4651.665527
1641.064453	4745.663574
1639.982422	4742.560547
1638.900391	4524.553711
1637.818359	4717.873535
1636.736328	4654.715332
1635.654297	4635.460938
1634.570313	4570.027832
1633.488281	4629.295898
1632.406250	4598.512695
1631.322266	4750.080078
1630.238281	4652.362793
1629.156250	4704.654785
1628.072266	4703.869141
1626.988281	4650.032715
1625.904297	4626.194824
1624.820313	4673.843750
1623.734375	4564.708984
1622.650391	4752.958984
1621.566406	4604.668457
1620.480469	4751.371582
1619.396484	4580.091797
1618.310547	4560.898926
1617.224609	4723.657227
1616.138672	4614.640625
1615.052734	4715.172363
1613.966797	4539.437012
1612.880859	4614.630371
1611.794922	4494.198242
1610.708984	4500.350098
1609.621094	4646.824219
1608.535156	4627.647461
1607.447266	4659.069336
1606.359375	4738.765137
1605.273438	4627.627441
1604.185547	4601.570801
1603.097656	4651.360352
1602.009766	4604.628418
1600.921875	4640.616699
1599.832031	4632.950195
1598.744141	4684.997070
1597.654297	4675.029297
1596.566406	4637.515137
1595.476563	4712.488770
1594.388672	4546.458496
1593.298828	4731.565430
1592.208984	4577.058594
1591.119141	4626.758789
1590.029297	4694.790527
1588.939453	4629.798340
1587.847656	4567.120605
1586.757813	4726.821289
1585.666016	4641.228516
1584.576172	4734.407227
1583.484375	4797.769043
1582.392578	4648.063965
1581.302734	4590.025879
1580.210938	4669.410156
1579.119141	4590.780762
1578.025391	4644.955566
1576.933594	4776.935059
1575.841797	4716.634766
1574.750000	4626.608887
1573.656250	4744.797852
1572.562500	4663.946289
1571.470703	4686.036133
1570.376953	4644.093262
1569.283203	4666.178711
1568.189453	4624.252930
1567.095703	4767.463379
1566.001953	4764.380371
1564.908203	4820.700684
1563.812500	4712.531738
1562.718750	4739.150391
1561.623047	4754.342285
1560.529297	4819.758301
1559.433594	4700.247070
1558.337891	4822.709961
1557.242188	4835.595215
1556.146484	5026.443359
1555.050781	4900.133301
1553.955078	4821.763184
1552.859375	4916.736816
1551.761719	4792.788086
1550.666016	4817.062988
1549.568359	4843.608887
1548.472656	4813.171387
1547.375000	4764.515137
1546.277344	4836.620117
1545.179688	4683.196777
1544.082031	4841.833008
1542.984375	4804.589355
1541.886719	4733.208008
1540.787109	4812.085938
1539.689453	4847.694824
1538.589844	4894.669434
1537.492188	4827.870117
1536.392578	4733.795898
1535.292969	4728.454590
1534.193359	4811.800781
1533.095703	4715.502930
1531.994141	4655.608398
1530.894531	4698.013184
1529.794922	4797.215332
1528.695313	4719.160645
1527.593750	4802.423828
1526.494141	4790.262695
1525.392578	4716.789063
1524.291016	4768.222168
1523.189453	4699.317383
1522.089844	4807.481445
1520.988281	4779.442871
1519.884766	4726.453613
1518.783203	4712.049316
1517.681641	4799.723633
1516.580078	4708.202637
1515.476563	4748.229004
1514.373047	4781.440918
1513.271484	4671.833984
1512.167969	4675.583984
1511.064453	4677.065918
1509.960938	4685.344727
1508.857422	4580.357422
1507.753906	4690.568848
1506.650391	4642.228027
1505.544922	4765.976563
1504.441406	4760.649902
1503.335938	4716.848145
1502.232422	4673.060547
1501.126953	4642.863281
1500.021484	4556.120117
1498.916016	4652.615723
1497.810547	4764.908691
1496.705078	4680.449219
1495.599609	4634.450195
1494.494141	4608.809570
1493.386719	4669.055176
1492.281250	4643.416992
1491.173828	4660.711914
1490.068359	4678.000488
1488.960938	4604.945801
1487.853516	4619.979980
1486.746094	4567.278320
1485.638672	4564.254883
1484.531250	4561.232422
1483.423828	4583.032715
1482.314453	4534.884277
1481.207031	4549.914063
1480.097656	4601.024902
1478.990234	4557.407227
1477.880859	4651.337891
1476.771484	4591.946289
1475.662109	4550.605469
1474.552734	4518.292969
1473.443359	4612.166016
1472.333984	4539.304199
1471.224609	4452.951660
1470.113281	4465.716309
1469.003906	4586.554688
1467.892578	4657.824219
1466.783203	4560.255371
1465.671875	4514.479980
1464.560547	4563.224609
1463.449219	4602.953613
1462.337891	4527.952148
1461.226563	4641.890137
1460.115234	4548.917969
1459.001953	4523.423828
1457.890625	4673.270020
1456.777344	4620.793457
1455.666016	4629.005859
1454.552734	4569.813965
1453.439453	4573.539063
1452.326172	4514.375977
1451.212891	4628.142578
1450.099609	4526.331055
1448.986328	4574.957031
1447.873047	4538.277344
1446.757813	4591.373047
1445.644531	4561.433594
1444.529297	4527.017578
1443.414063	4633.918457
1442.300781	4738.540527
1441.185547	4784.830078
1440.070313	4649.517578
1438.955078	4671.150879
1437.839844	4580.723633
1436.722656	4555.306641
1435.607422	4635.191895
1434.492188	4641.132813
1433.375000	4682.904297
1432.257813	4570.158691
1431.142578	4616.405273
1430.025391	4653.682617
1428.908203	4603.663574
1427.791016	4636.454590
1426.673828	4631.200684
1425.556641	4657.265625
1424.437500	4571.494141
1423.320313	4644.519043
1422.201172	4531.948730
1421.083984	4535.657715
1419.964844	4566.185547
1418.845703	4482.735352
1417.726563	4622.741699
1416.607422	4659.940918
1415.488281	4560.881836
1414.369141	4618.176758
1413.250000	4423.147949
1412.128906	4493.841309
1411.009766	4513.173828
1409.888672	4565.974609
1408.769531	4665.614258
1407.648438	4517.589844
1406.527344	4664.044922
1405.406250	4518.300293
1404.285156	4419.429688
1403.164063	4465.503906
1402.042969	4462.523438
1400.919922	4582.120605
1399.798828	4525.642578
1398.675781	4515.969238
1397.554688	4468.431152
1396.431641	4487.724121
1395.308594	4571.586426
1394.185547	4450.591309
1393.062500	4416.451660
1391.939453	4373.420898
1390.816406	4490.625000
1389.693359	4523.243164
1388.568359	4362.314941
1387.445313	4470.564941
1386.320313	4494.273926
1385.197266	4475.729980
1384.072266	4472.753906
1382.947266	4427.547363
1381.822266	4353.466797
1380.697266	4397.171875
1379.572266	4347.557617
1378.445313	4402.354980
1377.320313	4401.613770
1376.195313	4292.072266
1375.068359	4468.953125
1373.941406	4441.564453
1372.816406	4558.439453
1371.689453	4499.979492
1370.562500	4621.242188
1369.435547	4391.991699
1368.308594	4513.230957
1367.179688	4481.426758
1366.052734	4442.981934
1364.923828	4417.850098
1363.796875	4507.974609
1362.667969	4387.554688
1361.541016	4524.180664
1360.412109	4372.785645
1359.283203	4489.434082
1358.154297	4433.316406
1357.025391	4549.915527
1355.894531	4513.729492
1354.765625	4377.956055
1353.636719	4503.356934
1352.505859	4493.747559
1351.376953	4528.385742
1350.246094	4507.715820
1349.115234	4398.594727
1347.984375	4508.407715
1346.853516	4514.279785
1345.722656	4502.467285
1344.591797	4570.217285
1343.460938	4604.800781
1342.328125	4581.932129
1341.197266	4486.179199
1340.064453	4476.588867
1338.933594	4478.041992
1337.800781	4503.779785
1336.667969	4500.813477
1335.535156	4440.465820
1334.402344	4490.469238
1333.269531	4624.292969
1332.134766	4385.278809
1331.001953	4596.267578
1329.869141	4544.774414
1328.734375	4561.645996
1327.599609	4565.285156
1326.466797	4560.107422
1325.332031	4550.523438
1324.197266	4477.047852
1323.062500	4533.568359
1321.927734	4420.474609
1320.791016	4534.240723
1319.656250	4416.781250
1318.519531	4495.287109
1317.384766	4569.363770
1316.248047	4542.185059
1315.113281	4640.432129
1313.976563	4551.651855
1312.839844	4484.896973
1311.703125	4481.940918
1310.566406	4520.763184
1309.427734	4524.397461
1308.291016	4567.595215
1307.154297	4487.707031
1306.015625	4522.106934
1304.878906	4514.752930
1303.740234	4461.272461
1302.601563	4528.602051
1301.462891	4562.971191
1300.324219	4590.742188
1299.185547	4526.309082
1298.046875	4360.939453
1296.906250	4485.282227
1295.767578	4434.062988
1294.626953	4396.022461
1293.488281	4493.976563
1292.347656	4420.852539
1291.207031	4492.458984
1290.066406	4404.014648
1288.925781	4462.448730
1287.785156	4433.207031
1286.644531	4333.861816
1285.503906	4473.332031
1284.361328	4360.871582
1283.220703	4421.452637
1282.078125	4449.169922
1280.937500	4492.202148
1279.794922	4316.338379
1278.652344	4350.624023
1277.509766	4437.412109
1276.367188	4309.775391
1275.224609	4326.545898
1274.080078	4463.593262
1272.937500	4451.906250
1271.794922	4418.360352
1270.650391	4456.959473
1269.505859	4252.956055
1268.363281	4363.678223
1267.218750	4373.864258
1266.074219	4379.678223
1264.929688	4400.777832
1263.783203	4238.444824
1262.638672	4401.473633
1261.494141	4444.387695
1260.347656	4491.651855
1259.203125	4453.795898
1258.056641	4394.134277
1256.910156	4177.430176
1255.763672	4405.734863
1254.617188	4518.385742
1253.470703	4465.293945
1252.324219	4340.281738
1251.177734	4463.784180
1250.031250	4487.000488
1248.882813	4438.307129
1247.734375	4437.556152
1246.587891	4480.368164
1245.439453	4497.032227
1244.291016	4467.965332
1243.142578	4438.908691
1241.994141	4405.508301
1240.845703	4500.518555
1239.697266	4571.562012
1238.546875	4459.836426
1237.398438	4578.715820
1236.248047	4554.018555
1235.099609	4507.584961
1233.949219	4513.344238
1232.798828	4547.359863
1231.648438	4681.336426
1230.498047	4602.317383
1229.347656	4553.741699
1228.197266	4561.660156
1227.044922	4621.699707
1225.894531	4568.801758
1224.742188	4676.584473
1223.591797	4664.938965
1222.439453	4557.800781
1221.287109	4615.619629
1220.134766	4734.168457
1218.982422	4601.041016
1217.830078	4580.742188
1216.677734	4653.696777
1215.523438	4722.290527
1214.371094	4680.302734
1213.216797	4718.523926
1212.064453	4737.228516
1210.910156	4762.426758
1209.755859	4731.291504
1208.601563	4726.158203
1207.447266	4796.823242
1206.292969	4856.637207
1205.136719	4844.990234
1203.982422	4705.641113
1202.828125	4748.126953
1201.671875	4831.709961
1200.515625	4753.008301
1199.361328	4851.703125
1198.205078	4749.235352
1197.048828	4802.488770
1195.892578	4855.723633
1194.736328	4738.175293
1193.578125	4901.624512
1192.421875	4866.220703
1191.265625	4904.284668
1190.107422	4866.731445
1188.949219	4785.996094
1187.792969	4824.053711
1186.634766	5028.342285
1185.476563	4919.557617
1184.318359	5082.753418
1183.160156	4874.731445
1182.000000	5035.721680
1180.841797	5131.941406
1179.681641	4924.016602
1178.523438	4897.304199
1177.363281	4965.468750
1176.203125	5001.273926
1175.044922	5088.795898
1173.884766	5143.962402
1172.724609	5177.564453
1171.562500	5129.292480
1170.402344	5137.038086
1169.242188	5241.689941
1168.080078	5031.943848
1166.919922	5278.662598
1165.757813	5161.535645
1164.595703	5171.420410
1163.433594	5164.088379
1162.271484	5313.805664
1161.109375	5302.149414
1159.947266	5275.442871
1158.785156	5422.914551
1157.621094	5359.647949
1156.458984	5354.439453
1155.294922	5306.249512
1154.132813	5384.854492
1152.968750	5379.643555
1151.804688	5365.842285
1150.640625	5429.362793
1149.476563	5510.039551
1148.312500	5530.574219
1147.146484	5469.530762
1145.982422	5387.045410
1144.818359	5641.489258
1143.652344	5784.280273
1142.486328	5725.379883
1141.320313	5649.340820
1140.156250	5701.991699
1138.990234	5806.082031
1137.822266	5847.970215
1136.656250	5724.808105
1135.490234	5820.269043
1134.324219	5780.713867
1133.156250	5858.994629
1131.988281	5917.971680
1130.822266	6075.437988
1129.654297	6048.712402
1128.486328	6079.796875
1127.318359	6087.325684
1126.150391	6094.852051
1124.982422	6070.280273
1123.812500	6212.583496
1122.644531	6213.666992
1121.474609	6133.483398
1120.306641	6414.687988
1119.136719	6270.360840
1117.966797	6320.595703
1116.796875	6323.795898
1115.626953	6344.089355
1114.457031	6503.242188
1113.287109	6583.307129
1112.115234	6509.574707
1110.945313	6534.092285
1109.773438	6650.404785
1108.603516	6640.736328
1107.431641	6742.050781
1106.259766	6802.787109
1105.087891	6737.625488
1103.916016	6685.284668
1102.744141	6841.974121
1101.572266	6900.519043
1100.398438	6899.345703
1099.226563	6859.802246
1098.052734	7127.184082
1096.880859	6925.660645
1095.707031	7241.943848
1094.533203	7170.414551
1093.359375	7086.129395
1092.185547	7165.846191
1091.011719	7243.406738
1089.837891	7327.326660
1088.662109	7358.006836
1087.488281	7378.036133
1086.312500	7366.142578
1085.138672	7284.050293
1083.962891	7586.970703
1082.787109	7494.234863
1081.611328	7675.818848
1080.435547	7674.513184
1079.259766	7813.493164
1078.082031	7688.903320
1076.906250	7719.467285
1075.728516	7815.878906
1074.552734	7776.314941
1073.375000	8008.602539
1072.197266	7998.746094
1071.019531	8218.177734
1069.841797	8384.468750
1068.664063	8138.978516
1067.486328	8124.861328
1066.308594	8136.208008
1065.128906	8359.670898
1063.951172	8407.027344
1062.771484	8407.715820
1061.591797	8387.204102
1060.412109	8402.733398
1059.232422	8433.093750
1058.052734	8560.919922
1056.873047	8623.022461
1055.693359	8831.267578
1054.513672	8685.742188
1053.332031	8929.904297
1052.152344	8775.942383
1050.970703	8867.590820
1049.789063	8883.012695
1048.607422	8964.029297
1047.425781	9089.450195
1046.244141	9087.902344
1045.062500	9113.849609
1043.880859	9201.115234
1042.697266	9277.778320
1041.515625	9303.679688
1040.332031	9346.481445
1039.150391	9420.966797
1037.966797	9320.054688
1036.783203	9259.314453
1035.599609	9528.097656
1034.416016	9467.342773
1033.232422	9607.197266
1032.046875	9609.782227
1030.863281	9660.914063
1029.677734	9764.786133
1028.494141	9758.902344
1027.308594	9858.502930
1026.123047	9896.899414
1024.937500	9950.044922
1023.751953	9988.412109
1022.566406	9925.570313
1021.380859	9995.545898
1020.193359	10076.035156
1019.007813	10116.459961
1017.820313	10129.482422
1016.634766	10018.220703
1015.447266	10029.148438
1014.259766	10296.970703
1013.072266	10053.097656
1011.884766	10274.513672
1010.697266	10285.388672
1009.509766	10416.204102
1008.320313	10378.661133
1007.132813	10208.605469
1005.943359	10467.662109
1004.753906	10432.230469
1003.566406	10182.356445
1002.376953	10531.675781
1001.187500	10422.688477
999.998047	10338.955078
998.806641	10219.531250
997.617188	10335.426758
996.427734	10308.458984
995.236328	10504.097656
994.046875	10506.504883
992.855469	10206.616211
991.664063	10492.423828
990.472656	10419.282227
989.281250	10339.871094
988.089844	10268.877930
986.898438	10273.416992
985.705078	10267.469727
984.513672	10290.877930
983.320313	10190.589844
982.126953	10163.697266
980.935547	10191.301758
979.742188	10200.038086
978.548828	10097.738281
977.355469	10068.784180
976.162109	10196.908203
974.966797	9987.871094
973.773438	10178.770508
972.578125	10128.888672
971.384766	10219.243164
970.189453	10165.186523
968.994141	10255.501953
967.798828	10040.392578
966.603516	9996.849609
965.408203	9995.141602
964.212891	10187.866211
963.015625	10062.796875
961.820313	9768.483398
960.623047	10009.208008
959.427734	9911.392578
958.230469	9882.542969
957.033203	9839.083984
955.835938	9785.198242
954.638672	9785.613281
953.441406	9773.503906
952.244141	9721.742188
951.044922	9868.240234
949.847656	9664.172852
948.648438	9687.553711
947.449219	9769.325195
946.251953	9661.303711
945.052734	9780.579102
943.853516	9564.192383
942.654297	9823.088867
941.453125	9838.081055
940.253906	9698.884766
939.054688	9645.146484
937.853516	9653.911133
936.652344	9535.641602
935.453125	9675.594727
934.251953	9613.569336
933.050781	9501.610352
931.849609	9604.038086
930.646484	9465.069336
929.445313	9434.325195
928.244141	9393.191406
927.041016	9470.610352
925.839844	9464.832031
924.636719	9456.975586
923.433594	9513.557617
922.230469	9391.393555
921.027344	9533.158203
919.824219	9404.799805
918.621094	9237.019531
917.417969	9401.581055
916.212891	9327.297852
915.009766	9344.385742
913.804688	9353.165039
912.599609	9127.425781
911.394531	9175.663086
910.189453	9346.288086
908.984375	9330.167969
907.779297	9127.399414
906.574219	9123.762695
905.367188	9120.127930
904.162109	9110.274414
902.955078	8953.275391
901.750000	9013.907227
900.542969	8931.563477
899.335938	8826.460938
898.128906	8882.940430
896.921875	8699.194336
895.712891	8705.985352
894.505859	8793.505859
893.298828	8593.310547
892.089844	8567.006836
890.880859	8704.160156
889.673828	8555.796875
888.464844	8473.668945
887.255859	8596.291992
886.046875	8510.049805
884.835938	8543.733398
883.626953	8352.120117
882.417969	8363.087891
881.207031	8392.646484
879.998047	8244.538086
878.787109	8272.041016
877.576172	8402.788086
876.365234	8174.229004
875.154297	8191.407227
873.943359	8148.722656
872.732422	8149.389648
871.519531	8069.586914
870.308594	8039.322266
869.095703	7938.939453
867.884766	7902.520508
866.671875	7880.546387
865.458984	8068.856934
864.246094	7914.945801
863.033203	7855.885254
861.820313	7757.695801
860.605469	7851.130859
859.392578	7823.007324
858.177734	7570.416992
856.964844	7723.548340
855.750000	7800.454590
854.535156	7665.323242
853.320313	7672.240723
852.105469	7648.290039
850.890625	7626.405273
849.675781	7569.559082
848.458984	7502.449707
847.244141	7534.062500
846.027344	7501.931152
844.810547	7537.643555
843.595703	7565.123047
842.378906	7442.589844
841.162109	7340.643066
839.943359	7526.308594
838.726563	7432.597168
837.509766	7363.558594
836.291016	7366.400879
835.074219	7475.982910
833.855469	7382.343750
832.636719	7397.492188
831.417969	7332.621094
830.199219	7380.593262
828.980469	7313.695801
827.761719	7472.386719
826.542969	7522.359863
825.322266	7430.873047
824.103516	7390.655762
822.882813	7356.599609
821.664063	7384.020020
820.443359	7433.963867
819.222656	7367.146973
818.001953	7455.983887
816.779297	7303.193359
815.558594	7387.916016
814.337891	7519.684570
813.115234	7442.676758
811.894531	7500.732910
810.671875	7352.155762
809.449219	7473.611816
808.226563	7382.349121
807.003906	7438.330078
805.781250	7614.903320
804.558594	7319.270508
803.333984	7520.325684
802.111328	7474.082520
800.886719	7478.926758
799.664063	7467.428711
798.439453	7562.126953
797.214844	7421.983887
795.990234	7565.651855
794.765625	7433.720215
793.541016	7703.862793
792.314453	7527.063477
791.089844	7544.129883
789.863281	7457.165039
788.638672	7480.355469
787.412109	7499.458984
786.185547	7475.744141
784.958984	7772.051270
783.732422	7495.590820
782.505859	7679.723633
781.279297	7668.216309
780.050781	7632.270020
778.824219	7563.751465
777.595703	7554.305176
776.367188	7583.543457
775.140625	7657.552734
773.912109	7641.989258
772.683594	7559.282227
771.453125	7688.186523
770.224609	7607.534180
768.996094	7449.625977
767.765625	7633.383789
766.537109	7530.417480
765.306641	7661.247070
764.076172	7609.120117
762.845703	7613.906250
761.615234	7545.551758
760.384766	7595.035156
759.154297	7605.913574
757.921875	7754.869141
756.691406	7686.535645
755.458984	7587.777344
754.228516	7687.948730
752.996094	7672.420410
751.763672	7622.406738
750.531250	7681.949707
749.298828	7751.612305
748.066406	7663.082031
746.832031	7643.515137
745.599609	7628.008789
744.365234	7738.166992
743.132813	7665.910156
741.898438	7680.797852
740.664063	7859.763672
739.429688	7783.471191
738.195313	7717.330078
736.960938	7794.962402
735.724609	7623.577148
734.490234	7731.557617
733.255859	7722.131348
732.019531	7785.545410
730.783203	7869.166504
729.546875	7679.711426
728.310547	7995.876953
727.074219	7764.005371
725.837891	7782.882324
724.601563	7888.663574
723.363281	7986.324707
722.126953	7883.923828
720.888672	7727.014648
719.650391	7867.067871
718.414063	7908.119629
717.175781	7702.828125
715.937500	7887.224609
714.697266	7877.791016
713.458984	7878.451172
712.220703	7830.685547
710.980469	7998.792480
709.742188	8160.790527
708.501953	7792.352051
707.261719	7934.166016
706.021484	7892.478516
704.781250	7883.054688
703.541016	7926.030762
702.300781	7890.410156
701.058594	7987.762695
699.818359	7980.342285
698.576172	8003.131836
697.335938	7880.939453
696.093750	7891.659180
694.851563	7972.823242
693.609375	8200.871094
692.367188	8074.703613
691.123047	7870.119141
689.880859	8037.722168
688.638672	8054.435059
687.394531	8036.958984
686.150391	8109.956543
684.908203	7963.833008
683.664063	8077.011719
682.419922	8188.141602
681.175781	8246.998047
679.929688	8131.080566
678.685547	8145.743652
677.439453	8238.711914
676.195313	8150.961426
674.949219	8151.561523
673.703125	8308.701172
672.458984	8220.983398
671.212891	8201.507813
669.964844	8278.321289
668.718750	8272.880859
667.472656	8415.826172
666.224609	8360.241211
664.978516	8354.788086
663.730469	8425.495117
662.482422	8279.764648
661.234375	8218.230469
659.986328	8343.006836
658.738281	8351.580078
657.490234	8402.200195
656.242188	8370.716797
654.992188	8271.185547
653.744141	8303.779297
652.494141	8314.350586
651.244141	8234.886719
649.994141	8269.469727
648.744141	8230.041016
647.494141	8230.618164
646.244141	8361.150391
644.994141	8227.772461
643.742188	8248.334961
642.492188	8342.827148
641.240234	8393.331055
639.988281	8268.029297
638.738281	8352.481445
637.486328	8241.207031
636.232422	8437.441406
634.980469	8364.119141
633.728516	8282.837891
632.474609	8459.006836
631.222656	8164.252930
629.968750	8370.302734
628.714844	8470.574219
627.462891	8277.671875
626.208984	8515.495117
624.953125	8474.153320
623.699219	8588.287109
622.445313	8467.235352
621.191406	8503.626953
619.935547	8571.877930
618.679688	8430.973633
617.425781	8535.058594
616.169922	8668.971680
614.914063	8880.475586
613.658203	8831.169922
612.400391	8897.301758
611.144531	8826.124023
609.888672	8908.147461
608.630859	8898.649414
607.373047	9052.222656
606.117188	9018.842773
604.859375	9074.931641
603.601563	9170.752930
602.343750	9083.712891
601.083984	9306.660156
599.826172	9364.645508
598.568359	9510.003906
597.308594	9478.569336
596.048828	9552.377930
594.791016	9614.250000
593.531250	9944.052734
592.271484	9708.160156
591.011719	9654.890625
589.750000	9944.837891
588.490234	9937.165039
587.230469	9909.663086
585.968750	10195.449219
584.707031	9987.509766
583.447266	10057.134766
582.185547	10301.128906
580.923828	10115.073242
579.662109	10323.313477
578.398438	10378.964844
577.136719	10254.382813
575.875000	10412.988281
574.611328	10524.026367
573.347656	10536.057617
572.085938	10565.895508
570.822266	10566.042969
569.558594	10601.798828
568.292969	10655.344727
567.029297	10675.250977
565.765625	10600.241211
564.500000	10790.166992
563.236328	10560.986328
561.970703	10742.947266
560.705078	10786.530273
559.439453	10709.588867
558.173828	10723.533203
556.908203	10759.196289
555.642578	10753.380859
554.376953	10925.246094
553.109375	11049.677734
551.843750	10929.350586
550.576172	10957.051758
549.308594	11026.172852
548.041016	10886.185547
546.773438	11044.041016
545.505859	10992.830078
544.238281	11040.208984
542.968750	11205.838867
541.701172	10965.429688
540.431641	11241.359375
539.164063	11166.514648
537.894531	11188.213867
536.625000	11202.027344
535.355469	11343.825195
534.085938	11302.481445
532.814453	11296.583008
531.544922	11467.810547
530.273438	11538.624023
529.003906	11650.728516
527.732422	11583.793945
526.460938	11562.116211
525.189453	11721.347656
523.917969	11833.340820
522.646484	11843.080078
521.375000	12008.075195
520.101563	11949.004883
518.830078	11984.257813
517.556641	11919.319336
516.283203	12121.500000
515.011719	12111.540039
513.738281	12286.129883
512.462891	12248.663086
511.189453	12425.129883
509.916016	12393.538086
508.642578	12546.375000
507.367188	12475.540039
506.091797	12457.682617
504.818359	12614.349609
503.542969	12525.893555
502.267578	12843.229492
500.992188	12850.796875
499.714844	12789.777344
498.439453	12744.453125
497.164063	12691.307617
495.886719	12928.038086
494.609375	12884.669922
493.333984	13007.730469
492.056641	12823.423828
490.779297	13005.165039
489.501953	12818.964844
488.222656	12803.041016
486.945313	12924.049805
485.666016	12706.666992
484.388672	12909.778320
483.109375	12667.056641
481.830078	12838.826172
480.550781	12604.018555
479.271484	12572.514648
477.992188	12601.587891
476.712891	12540.793945
475.433594	12394.085938
474.152344	12511.045898
472.871094	12674.821289
471.591797	12311.489258
470.310547	12324.960938
469.029297	12389.162109
467.748047	12131.422852
466.466797	12244.402344
465.183594	12142.803711
463.902344	12376.640625
462.619141	12206.815430
461.337891	12126.718750
460.054688	12130.455078
458.771484	12001.681641
457.488281	12126.231445
456.205078	12032.566406
454.921875	11989.571289
453.638672	11929.065430
452.353516	11889.997070
451.070313	11987.203125
449.785156	11891.695313
448.500000	11778.707031
447.214844	11856.424805
445.929688	11755.152344
444.644531	11756.994141
443.359375	11885.233398
442.072266	11770.397461
440.787109	11752.795898
439.500000	11746.861328
438.214844	11797.282227
436.927734	11740.826172
435.640625	11828.137695
434.353516	11554.168945
433.066406	11827.900391
431.777344	11720.997070
430.490234	11610.248047
429.203125	11775.137695
427.914063	11691.583984
426.625000	11662.383789
425.335938	11745.704102
424.046875	11644.743164
422.757813	11605.869141
421.468750	11551.498047
420.179688	11729.762695
418.888672	11863.388672
417.599609	11646.223633
416.308594	11485.320313
415.017578	11793.258789
413.728516	11508.430664
412.437500	11492.869141
411.144531	11608.967773
409.853516	11411.429688
408.562500	11517.824219
407.269531	11562.257813
405.978516	11388.046875
404.685547	11339.634766
403.392578	11281.567383
402.099609	11453.637695
400.806641	11548.310547
399.513672	11341.389648
398.220703	11395.459961
396.927734	11459.173828
395.632813	11304.541016
394.337891	11244.616211
393.044922	11319.910156
391.750000	11287.037109
390.455078	11288.928711
389.160156	11286.958984
387.865234	11350.610352
386.568359	11284.949219
385.273438	10951.126953
383.976563	11277.151367
382.681641	11269.396484
381.384766	11171.010742
380.087891	10976.257813
378.791016	11120.846680
377.494141	10978.208008
376.197266	11153.576172
374.898438	10985.934570
373.601563	11089.964844
372.302734	11066.841797
371.005859	11140.009766
369.707031	10933.979492
368.408203	10989.819336
367.109375	10962.878906
365.810547	10949.417969
364.509766	11074.488281
363.210938	11049.469727
361.910156	11095.623047
360.611328	10941.768555
359.310547	11237.867188
358.009766	10836.062500
356.708984	11007.146484
355.408203	10993.693359
354.107422	11099.365234
352.804688	11112.792969
351.503906	10853.486328
350.201172	11078.184570
348.900391	11043.608398
347.597656	11126.141602
346.294922	11152.986328
344.992188	11110.738281
343.689453	11133.737305
342.386719	11152.892578
341.082031	11072.306641
339.779297	11066.535156
338.474609	11079.938477
337.169922	11240.940430
335.867188	11030.064453
334.562500	11087.540039
333.257813	11141.163086
331.951172	11127.720703
330.646484	10918.925781
329.341797	11087.444336
328.035156	11152.515625
326.728516	11045.280273
325.423828	11024.208984
324.117188	10922.773438
322.810547	10651.093750
321.503906	10876.867188
320.195313	10873.051758
318.888672	10660.800781
317.580078	10771.738281
316.273438	10601.633789
314.964844	10727.832031
313.656250	10689.647461
312.347656	10659.117188
311.039063	10798.609375
309.730469	10747.061523
308.421875	10680.254883
307.111328	10638.291016
305.802734	10783.414063
304.492188	10632.657227
303.181641	10796.812500
301.871094	10741.500977
300.560547	10562.215820
299.250000	10730.110352
297.939453	10625.257813
296.628906	10838.839844
295.316406	10823.597656
294.005859	10756.901367
292.693359	10871.255859
291.380859	10796.953125
290.068359	10777.916992
288.755859	10861.734375
287.443359	10846.501953
286.130859	10812.235352
284.816406	10848.412109
283.503906	10920.737305
282.189453	10865.541992
280.875000	10808.463867
279.560547	10732.382813
278.246094	10888.359375
276.931641	10892.155273
275.617188	10711.530273
274.300781	10798.995117
272.986328	10867.422852
271.669922	10850.316406
270.355469	10926.309570
269.039063	10717.341797
267.722656	10726.857422
266.406250	10787.640625
265.089844	10738.285156
263.771484	10772.467773
262.455078	10903.431641
261.136719	10774.382813
259.820313	10905.299805
258.501953	11017.201172
257.183594	10996.302734
255.865234	10910.939453
254.546875	10933.671875
253.228516	10982.934570
251.908203	11058.711914
250.589844	11160.992188
249.269531	11164.716797
247.949219	11069.940430
246.628906	11005.499023
245.310547	11117.182617
243.988281	11041.394531
242.667969	11147.352539
241.347656	11171.892578
240.025391	11105.595703
238.705078	11342.027344
237.382813	11166.010742
236.060547	11209.440430
234.738281	11447.619141
233.416016	11271.675781
232.093750	11350.977539
230.771484	11250.708984
229.449219	11415.016602
228.125000	11441.351563
226.800781	11371.340820
225.478516	11512.876953
224.154297	11390.006836
222.830078	11399.333984
221.505859	11544.564453
220.181641	11295.303711
218.855469	11374.458008
217.531250	11195.119141
216.205078	11244.082031
214.878906	11321.316406
213.554688	11447.548828
212.228516	11385.208008
210.902344	11437.871094
209.574219	11720.438477
208.248047	11266.150391
206.921875	11441.261719
205.593750	11414.763672
204.265625	11292.226563
202.939453	11516.197266
201.611328	11410.628906
200.283203	11508.384766
198.955078	11466.840820
197.625000	11771.531250
196.296875	11767.581055
194.968750	11763.630859
193.638672	11831.146484
192.308594	11889.236328
190.978516	11954.825195
189.648438	11965.879883
188.318359	12189.293945
186.988281	12215.335938
185.658203	12032.834961
184.326172	12421.412109
182.996094	12107.478516
181.664063	12186.088867
180.332031	12183.945313
179.000000	12232.480469
177.667969	12470.543945
176.335938	12288.219727
175.003906	12402.371094
173.669922	12390.810547
172.337891	12328.618164
171.003906	12414.575195
169.669922	12388.019531
168.335938	12492.677734
167.001953	12456.746094
165.667969	12555.734375
164.333984	12501.069336
163.000000	12388.358398
161.664063	12352.468750
160.328125	12498.212891
158.994141	12421.129883
157.658203	12549.964844
156.322266	12648.810547
154.986328	12517.478516
153.650391	12567.655273
152.312500	12623.424805
150.976563	12696.004883
149.638672	12774.168945
148.302734	12646.666992
146.964844	12885.552734
145.626953	12935.608398
144.289063	12963.224609
142.949219	13030.061523
141.611328	12964.260742
140.273438	13279.443359
138.933594	13256.565430
137.595703	13467.043945
136.255859	13242.561523
134.916016	13359.660156
133.576172	13631.579102
132.236328	13614.252930
130.894531	13800.233398
129.554688	13644.885742
128.212891	13756.214844
126.873047	13822.763672
125.531250	13838.964844
124.189453	14080.644531
122.847656	13985.002930
121.505859	13919.200195
120.164063	13972.622070
118.820313	14106.097656
117.478516	14051.478516
116.134766	14026.662109
114.792969	13918.099609
113.449219	14073.819336
112.105469	13933.656250
110.761719	14191.629883
109.417969	14137.048828
108.072266	14182.904297
106.728516	14357.029297
105.382813	14380.521484
104.039063	14290.630859
102.693359	14310.408203
101.347656	14207.554688
100.001953	14407.526367
98.654297	14427.270508
97.308594	14606.705078
95.962891	14598.557617
94.615234	14833.584961
93.269531	14791.992188
91.921875	14919.275391
90.574219	14922.207031
89.226563	14982.642578
87.878906	14968.869141
86.529297	14853.113281
85.181641	14778.184570
83.832031	15094.406250
82.484375	15186.260742
81.134766	15072.398438
79.785156	14808.507813
78.435547	14926.295898
77.085938	14760.680664
75.736328	15085.825195
74.384766	15047.984375
73.035156	15008.305664
71.683594	14753.956055
70.332031	14616.270508
68.982422	14535.985352
67.630859	14254.106445
66.279297	14512.355469
64.925781	14093.746094
63.574219	13972.934570
62.220703	13913.164063
60.869141	13888.528320
59.515625	13928.572266
58.162109	13405.127930
56.808594	12904.034180
55.455078	12253.526367
54.101563	11878.372070
52.748047	11719.349609
51.392578	11259.513672
