#Wave		#Intensity
4002.114258	5827.407715
4001.416016	5748.658691
4000.717773	5830.049805
4000.018555	5925.728027
3999.320313	5928.353516
3998.621094	5777.158691
3997.921875	5747.617676
3997.223633	5861.126953
3996.524414	5792.251465
3995.824219	5701.948242
3995.125000	5876.173340
3994.425781	5721.558105
3993.725586	5763.516602
3993.026367	5926.929688
3992.326172	5822.388672
3991.625977	5825.024414
3990.925781	5745.529297
3990.225586	5912.410156
3989.525391	5740.113281
3988.825195	5753.467773
3988.125000	5988.068848
3987.423828	5758.754883
3986.723633	5672.210938
3986.022461	5806.840332
3985.321289	5816.605957
3984.620117	5640.951660
3983.918945	5878.909668
3983.217773	5906.481445
3982.516602	5983.940430
3981.814453	6018.612793
3981.113281	5935.700684
3980.411133	5785.131348
3979.708984	5791.325195
3979.006836	5786.833984
3978.304688	5896.281250
3977.602539	5906.014160
3976.900391	5794.723633
3976.198242	5932.587402
3975.495117	5871.143555
3974.792969	5877.315918
3974.089844	5808.786133
3973.386719	5786.513672
3972.683594	5842.479980
3971.980469	5980.202637
3971.277344	5847.712891
3970.574219	5768.579590
3969.870117	5860.048828
3969.166992	5852.001465
3968.462891	5801.325684
3967.759766	5803.945801
3967.055664	5824.321777
3966.351563	5951.216797
3965.647461	5758.545898
3964.943359	5796.667480
3964.238281	5756.696289
3963.534180	5823.194336
3962.829102	5907.410645
3962.125000	5867.440430
3961.419922	5912.606934
3960.714844	5705.972656
3960.009766	5889.433594
3959.304688	6001.932129
3958.599609	5752.848145
3957.893555	5950.388672
3957.188477	5821.869141
3956.482422	5597.733398
3955.777344	5926.268066
3955.071289	5815.522949
3954.365234	6009.352539
3953.659180	6150.011230
3952.953125	5926.001953
3952.246094	5850.721680
3951.540039	6062.115723
3950.833008	5855.919434
3950.126953	5823.139160
3949.419922	5829.278809
3948.712891	5941.514160
3948.005859	5661.212402
3947.298828	5819.399902
3946.591797	5966.931641
3945.884766	5902.355469
3945.176758	5721.185059
3944.469727	5833.329102
3943.761719	5698.151855
3943.053711	5870.308594
3942.345703	5908.212402
3941.637695	5910.794922
3940.929688	5863.950684
3940.221680	5923.016113
3939.513672	5915.006348
3938.804688	5868.184082
3938.095703	5902.522949
3937.387695	5749.891113
3936.678711	5928.843262
3935.969727	5797.414551
3935.260742	5775.328613
3934.551758	5806.128906
3933.841797	5787.573242
3933.132813	5790.167969
3932.422852	5694.102051
3931.713867	5960.936523
3931.003906	5910.665527
3930.293945	5941.413574
3929.583984	5901.725098
3928.874023	5777.551270
3928.164063	5896.310059
3927.453125	5715.862793
3926.743164	5781.807129
3926.032227	5970.877441
3925.322266	5917.150391
3924.611328	5902.130859
3923.900391	5908.217285
3923.189453	5742.005859
3922.478516	5853.585449
3921.766602	5747.192871
3921.055664	5820.075195
3920.344727	5864.822754
3919.632813	5895.501953
3918.920898	5915.632813
3918.208984	5791.753418
3917.497070	5790.823730
3916.785156	5782.872070
3916.073242	5767.901367
3915.361328	5749.425293
3914.648438	5783.597168
3913.936523	5951.096191
3913.223633	5939.615723
3912.510742	5798.351563
3911.797852	5755.334473
3911.084961	5985.849609
3910.372070	5778.029785
3909.659180	5787.618652
3908.945313	5783.185059
3908.232422	5729.690918
3907.518555	5620.152344
3906.804688	5853.969727
3906.091797	5958.111328
3905.377930	5876.605957
3904.663086	5788.123047
3903.949219	5794.196289
3903.235352	5716.255859
3902.520508	5991.831055
3901.806641	5959.375488
3901.091797	5884.944336
3900.376953	5796.544922
3899.662109	5823.595703
3898.947266	5780.696289
3898.232422	5839.209473
3897.517578	5834.776367
3896.802734	5798.886230
3896.086914	6060.069336
3895.372070	5912.336426
3894.656250	5785.613770
3893.940430	5833.589355
3893.224609	5787.249512
3892.508789	5852.669922
3891.792969	5827.290039
3891.076172	5826.354980
3890.360352	5888.247070
3889.643555	5803.546875
3888.927734	5914.271484
3888.210938	5742.376953
3887.494141	6006.552734
3886.777344	5845.161133
3886.060547	5910.476563
3885.342773	5804.934570
3884.625977	5866.749023
3883.909180	5949.455566
3883.191406	5809.110352
3882.473633	5964.967773
3881.755859	5904.788574
3881.038086	5970.020020
3880.320313	6038.712891
3879.602539	5863.645508
3878.884766	5914.925781
3878.166016	5767.780762
3877.448242	5951.311523
3876.729492	5811.166992
3876.010742	5775.442871
3875.291992	5760.601563
3874.573242	5919.668457
3873.854492	5810.916016
3873.135742	5837.799316
3872.416016	5833.386719
3871.697266	5905.443359
3870.977539	5890.594727
3870.257813	5854.902344
3869.539063	5951.239746
3868.819336	5988.494629
3868.099609	5876.396484
3867.378906	6024.770996
3866.659180	5964.781738
3865.938477	5786.784668
3865.218750	5942.042969
3864.498047	5927.208984
3863.777344	5815.227539
3863.056641	6081.418945
3862.335938	6052.694824
3861.615234	6034.383789
3860.894531	6043.818359
3860.173828	5911.105469
3859.452148	5733.372559
3858.730469	5923.072754
3858.009766	5804.304199
3857.288086	5997.395996
3856.566406	5878.653320
3855.844727	6040.499023
3855.122070	5939.102051
3854.400391	5920.836914
3853.678711	5919.887695
3852.956055	6047.008301
3852.233398	5907.605957
3851.510742	6027.767578
3850.788086	5888.412598
3850.065430	5845.958496
3849.342773	6087.122559
3848.620117	5913.244141
3847.896484	5967.615723
3847.173828	5942.459961
3846.450195	5941.506836
3845.727539	5978.567871
3845.003906	5918.869629
3844.280273	6038.834961
3843.555664	6079.316406
3842.832031	5985.094238
3842.108398	5852.918457
3841.383789	5934.839844
3840.660156	6016.734375
3839.935547	6015.769531
3839.210938	5973.394531
3838.486328	5899.980957
3837.761719	5988.727539
3837.037109	6049.852539
3836.312500	5948.872070
3835.586914	6061.704590
3834.862305	5712.533203
3834.136719	5901.200195
3833.411133	6076.020508
3832.685547	6061.262695
3831.959961	6015.501953
3831.234375	5983.534668
3830.508789	5996.351563
3829.782227	5826.651367
3829.056641	6049.518066
3828.330078	5955.599609
3827.603516	5947.760742
3826.876953	6201.473145
3826.150391	6007.789063
3825.423828	5996.504883
3824.697266	5902.668945
3823.970703	6018.656250
3823.243164	5986.743164
3822.516602	5965.154297
3821.789063	6081.075684
3821.061523	5853.256836
3820.333984	5886.683105
3819.606445	5902.918457
3818.878906	5970.679688
3818.151367	6010.939941
3817.422852	5735.234375
3816.695313	6098.289551
3815.966797	6028.648438
3815.238281	5945.298828
3814.509766	5958.073730
3813.781250	5953.687012
3813.052734	5932.146484
3812.324219	5838.574219
3811.595703	6108.597656
3810.866211	6011.597168
3810.136719	5979.774414
3809.408203	5906.823242
3808.678711	5940.152832
3807.949219	5812.396973
3807.219727	6157.548828
3806.489258	6122.301270
3805.759766	5926.067871
3805.030273	5949.092285
3804.299805	6064.566895
3803.569336	5984.846680
3802.839844	6001.003906
3802.109375	5931.586914
3801.378906	5862.192383
3800.647461	5895.468750
3799.916992	5901.366211
3799.186523	5924.363770
3798.455078	5896.054199
3797.723633	5946.400391
3796.993164	6054.851563
3796.261719	5992.350586
3795.530273	5851.260254
3794.798828	5939.170898
3794.066406	5958.718750
3793.334961	6080.745117
3792.602539	6185.653809
3791.871094	6116.360840
3791.138672	6033.432617
3790.406250	5930.046387
3789.673828	5949.576172
3788.941406	6006.641113
3788.208984	6043.213867
3787.476563	5960.362793
3786.743164	6089.033691
3786.010742	6094.878906
3785.277344	6005.238281
3784.543945	5959.951172
3783.810547	6054.448730
3783.077148	6090.971680
3782.343750	6032.060547
3781.610352	5962.945313
3780.875977	5992.651367
3780.142578	6066.629395
3779.408203	5926.020996
3778.673828	6047.658691
3777.939453	5920.716309
3777.205078	6175.076660
3776.470703	6218.333008
3775.736328	6047.185059
3775.000977	5954.348633
3774.266602	6011.227051
3773.531250	6132.713867
3772.795898	6036.506836
3772.061523	5940.331055
3771.326172	6289.553711
3770.589844	6006.411133
3769.854492	6192.375000
3769.119141	5970.504395
3768.382813	6020.511230
3767.647461	6036.531250
3766.911133	6066.132324
3766.174805	5925.926270
3765.438477	6196.608398
3764.702148	6137.902832
3763.965820	6089.398438
3763.229492	5959.459473
3762.492188	6138.345215
3761.755859	6147.539063
3761.018555	5987.123535
3760.281250	6128.610840
3759.543945	6141.192871
3758.806641	6150.379883
3758.069336	6169.733887
3757.332031	6195.860840
3756.593750	6072.868164
3755.856445	6126.107910
3755.118164	6230.147949
3754.379883	6019.139648
3753.641602	6302.658203
3752.903320	6095.092285
3752.165039	6090.729980
3751.426758	6187.920898
3750.688477	6176.775879
3749.949219	6338.217285
3749.210938	6134.194824
3748.471680	6136.594238
3747.732422	6162.669922
3746.993164	6236.082520
3746.253906	6153.932129
3745.514648	6000.812500
3744.774414	6226.324219
3744.035156	6073.241699
3743.294922	6193.916504
3742.554688	6125.352539
3741.815430	6218.955566
3741.075195	6356.436035
3740.334961	6189.947266
3739.593750	6215.966309
3738.853516	6245.353027
3738.113281	6261.229004
3737.372070	6044.239258
3736.630859	6070.264648
3735.890625	6258.219238
3735.149414	6085.185059
3734.408203	6171.897949
3733.666016	6187.769043
3732.924805	6126.089844
3732.183594	6121.737305
3731.441406	6285.908691
3730.699219	6301.750977
3729.958008	6176.074219
3729.215820	6168.346680
3728.473633	6224.619141
3727.731445	6344.861328
3726.988281	6266.398438
3726.246094	6235.094238
3725.502930	6388.937500
3724.760742	6330.698242
3724.017578	6302.763672
3723.274414	6385.866699
3722.531250	6196.459961
3721.788086	6336.731934
3721.044922	6157.482422
3720.300781	6237.192383
3719.557617	6333.686035
3718.813477	6265.445313
3718.070313	6462.726074
3717.326172	6223.115234
3716.582031	6386.742188
3715.837891	6399.155273
3715.092773	6371.260742
3714.348633	6205.695313
3713.604492	6339.001465
3712.859375	6374.912598
3712.114258	6253.059082
3711.369141	6352.734375
3710.624023	6247.700195
3709.878906	6280.247070
3709.133789	6165.194824
3708.388672	6315.125977
3707.642578	6404.651367
3706.897461	6249.401367
3706.151367	6328.851563
3705.405273	6307.728027
3704.659180	6407.249512
3703.913086	6449.779785
3703.166992	6294.646484
3702.420898	6461.110840
3701.673828	6299.327148
3700.927734	6432.253418
3700.180664	6411.135742
3699.433594	6296.299805
3698.687500	6449.242676
3697.940430	6274.204590
3697.192383	6249.779297
3696.445313	6255.468262
3695.698242	6398.285156
3694.950195	6410.636719
3694.202148	6332.707520
3693.455078	6288.233398
3692.707031	6243.773438
3691.958984	6336.347656
3691.210938	6348.698242
3690.461914	6524.748047
3689.713867	6333.302734
3688.964844	6305.569336
3688.216797	6441.469727
3687.467773	6400.372559
3686.718750	6396.008789
3685.969727	6431.698242
3685.220703	6444.016602
3684.471680	6369.578613
3683.721680	6351.877930
3682.972656	6490.952637
3682.222656	6576.622559
3681.473633	6388.838867
3680.723633	6314.468750
3679.973633	6293.456543
3679.223633	6575.741699
3678.472656	6501.376953
3677.722656	6490.339844
3676.972656	6429.337402
3676.221680	6404.992188
3675.470703	6330.701660
3674.719727	6512.818848
3673.968750	6395.255859
3673.217773	6417.531250
3672.466797	6463.096191
3671.715820	6448.750488
3670.963867	6477.660156
3670.212891	6493.254883
3669.460938	6522.147949
3668.708984	6441.293457
3667.957031	6486.809570
3667.205078	6642.013672
3666.453125	6504.673828
3665.701172	6573.420410
3664.948242	6731.858398
3664.196289	6538.092285
3663.443359	6613.442871
3662.690430	6572.529785
3661.937500	6614.644531
3661.184570	6706.546875
3660.431641	6562.732422
3659.678711	6581.594727
3658.924805	6514.170898
3658.171875	6612.665527
3657.417969	6621.558594
3656.664063	6700.102539
3655.910156	6536.528320
3655.156250	6571.955078
3654.402344	6597.424316
3653.648438	6616.255859
3652.893555	6724.565430
3652.139648	6627.391113
3651.384766	6709.158203
3650.629883	6797.524414
3649.875000	6743.441895
3649.120117	6792.035156
3648.365234	6860.479004
3647.610352	6832.895508
3646.854492	6881.450684
3646.099609	6992.869629
3645.343750	6664.166016
3644.587891	6686.257324
3643.832031	6883.657715
3643.076172	6687.422363
3642.320313	6884.758789
3641.564453	6867.124512
3640.808594	6793.298340
3640.051758	6848.398438
3639.294922	6880.348145
3638.539063	6733.863281
3637.782227	7030.110352
3637.025391	6886.951172
3636.267578	6892.453125
3635.510742	6831.912109
3634.753906	6903.450684
3633.996094	6994.771973
3633.239258	6861.633789
3632.481445	6989.231445
3631.723633	6915.524902
3630.965820	6940.808105
3630.208008	6840.746094
3629.449219	7080.389648
3628.691406	7059.471680
3627.933594	7130.869629
3627.174805	6925.361328
3626.416016	7016.531250
3625.657227	7051.653809
3624.898438	7139.479492
3624.139648	7273.394043
3623.380859	6962.632324
3622.621094	7234.840332
3621.862305	7151.368164
3621.102539	7107.426758
3620.342773	7070.081543
3619.583984	7177.550293
3618.824219	7127.043945
3618.063477	7320.005859
3617.303711	7039.237305
3616.543945	7189.395996
3615.783203	7230.992188
3615.023438	7295.589355
3614.262695	7287.846191
3613.501953	7109.195313
3612.741211	7354.521484
3611.980469	7113.489258
3611.219727	7335.739746
3610.458008	7078.363770
3609.697266	7310.400879
3608.935547	7230.423828
3608.173828	7344.172363
3607.412109	7418.493652
3606.650391	7414.022949
3605.888672	7488.309082
3605.126953	7428.052734
3604.365234	7262.841797
3603.602539	7009.126465
3602.839844	7326.102051
3602.078125	7315.092285
3601.315430	7290.972168
3600.552734	7542.193848
3599.790039	7344.349609
3599.026367	7271.084961
3598.263672	7276.472168
3597.500000	7278.582520
3596.737305	7352.745117
3595.973633	7269.701172
3595.209961	7278.358887
3594.446289	7496.523438
3593.682617	7629.518066
3592.918945	7513.756836
3592.154297	7394.760742
3591.390625	7468.820313
3590.625977	7483.978516
3589.861328	7381.395996
3589.096680	7128.429199
3588.332031	7499.998535
3587.567383	7390.924316
3586.802734	7393.008789
3586.038086	7238.236328
3585.272461	7230.541992
3584.506836	7337.187500
3583.742188	7398.070801
3582.976563	7439.340332
3582.210938	7408.761719
3581.445313	7489.191895
3580.678711	7468.407227
3579.913086	7297.501465
3579.146484	7198.438477
3578.380859	7503.969238
3577.614258	7620.202148
3576.847656	7547.227051
3576.081055	7428.621094
3575.314453	7378.523438
3574.547852	7211.082031
3573.780273	7428.310547
3573.013672	7388.013184
3572.246094	7494.357422
3571.478516	7392.162109
3570.710938	7501.728516
3569.943359	7402.821289
3569.175781	7274.638184
3568.408203	7322.310059
3567.639648	7262.541992
3566.872070	7446.899902
3566.103516	7260.214844
3565.334961	7496.573730
3564.567383	7485.612793
3563.798828	7533.204102
3563.029297	7489.719238
3562.260742	7403.976563
3561.492188	7500.323730
3560.722656	7443.862305
3559.953125	7523.921387
3559.184570	7613.703613
3558.415039	7359.059082
3557.645508	7426.099121
3556.875000	7369.693359
3556.105469	7362.017578
3555.335938	7023.155273
3554.565430	7333.687500
3553.794922	7423.397949
3553.025391	7354.055664
3552.254883	7300.959473
3551.484375	7617.736328
3550.712891	7243.475098
3549.942383	7290.964355
3549.171875	7276.825195
3548.400391	7239.994141
3547.628906	7410.647461
3546.858398	7192.297363
3546.086914	7330.495605
3545.315430	7283.958496
3544.542969	7195.320313
3543.771484	7372.321289
3543.000000	7316.083496
3542.227539	7091.480957
3541.455078	7294.313477
3540.682617	7387.020508
3539.911133	7363.180664
3539.137695	7187.254883
3538.365234	7208.751953
3537.592773	7285.237305
3536.819336	7051.187012
3536.046875	7260.265137
3535.273438	7242.934570
3534.500000	7390.489258
3533.726563	7179.198242
3532.953125	7265.309082
3532.179688	7202.749023
3531.406250	7195.133301
3530.631836	7184.289551
3529.857422	7199.287598
3529.083984	7336.994629
3528.309570	7196.980957
3527.535156	7483.144043
3526.760742	7314.102051
3525.985352	7332.293457
3525.210938	7108.474609
3524.436523	7136.371582
3523.661133	7228.773438
3522.885742	7179.237305
3522.110352	7123.268066
3521.334961	7351.040527
3520.559570	7243.483398
3519.784180	7219.761230
3519.008789	7292.723633
3518.232422	7185.227051
3517.456055	7238.842285
3516.680664	7128.166992
3515.904297	7201.096680
3515.127930	7225.703125
3514.351563	7028.156250
3513.574219	7072.095703
3512.797852	6987.282715
3512.020508	7092.355469
3511.244141	7316.439453
3510.466797	7299.182617
3509.689453	7179.006348
3508.912109	7142.480957
3508.134766	7195.998047
3507.356445	7233.423340
3506.579102	7367.266602
3505.800781	7170.042969
3505.023438	7143.187500
3504.245117	7077.787109
3503.466797	7298.300293
3502.688477	7094.789551
3501.910156	7045.483887
3501.130859	7066.830078
3500.352539	7145.953613
3499.573242	7234.680176
3498.794922	7085.897949
3498.015625	7104.014648
3497.236328	7231.203125
3496.457031	7156.268555
3495.677734	7222.471680
3494.897461	7189.248047
3494.118164	7024.584473
3493.337891	7238.233887
3492.557617	7086.435059
3491.777344	7287.187500
3490.998047	7221.938965
3490.216797	7259.224121
3489.436523	7261.263672
3488.656250	7279.315430
3487.875000	7246.128906
3487.094727	7164.930664
3486.313477	7214.998047
3485.532227	7127.429688
3484.750977	7078.288086
3483.969727	7221.128418
3483.188477	7079.218750
3482.406250	7269.989258
3481.625000	7172.887207
3480.842773	7213.303711
3480.060547	7093.863770
3479.278320	7204.599609
3478.496094	7171.486328
3477.713867	7365.252930
3476.931641	7303.371094
3476.148438	7276.645996
3475.366211	7192.441406
3474.583008	7287.087402
3473.799805	6976.220215
3473.016602	7195.368652
3472.233398	7283.584473
3471.450195	7454.744629
3470.666992	7140.858398
3469.882813	7114.191895
3469.099609	7304.434570
3468.315430	7000.290039
3467.531250	7254.263184
3466.747070	7160.643555
3465.962891	7184.997559
3465.178711	7187.033203
3464.394531	7224.121094
3463.609375	7092.332031
3462.825195	7135.794434
3462.040039	7268.425293
3461.254883	7254.521973
3460.469727	7008.184570
3459.684570	7284.032715
3458.899414	7228.753418
3458.113281	7284.880859
3457.328125	7188.251953
3456.541992	7218.915527
3455.755859	7313.189453
3454.969727	7175.254883
3454.183594	7269.505371
3453.397461	7233.365723
3452.611328	7381.619141
3451.824219	7335.937500
3451.038086	7223.532715
3450.250977	7231.907227
3449.463867	7259.340820
3448.676758	7312.177246
3447.889648	7193.495605
3447.102539	7376.517578
3446.315430	7359.460449
3445.527344	7263.048828
3444.740234	7255.537109
3443.952148	7343.229004
3443.164063	7297.631836
3442.375977	7271.083008
3441.587891	7257.230469
3440.799805	7230.696289
3440.011719	7441.984375
3439.222656	7155.460938
3438.434570	7138.464844
3437.645508	7235.569824
3436.856445	7253.422852
3436.067383	7499.388672
3435.278320	7023.016602
3434.489258	7344.954590
3433.699219	7318.443359
3432.910156	7038.637695
3432.120117	7217.958496
3431.330078	7153.496094
3430.540039	7253.622070
3429.750000	7328.401367
3428.959961	7282.934082
3428.169922	7199.522949
3427.378906	7315.389648
3426.588867	7247.810547
3425.797852	7221.354980
3425.006836	7403.547363
3424.215820	7193.754395
3423.424805	7379.052734
3422.633789	7393.668457
3421.842773	7266.116211
3421.050781	7135.445801
3420.259766	7257.470703
3419.467773	7224.730957
3418.675781	7255.144043
3417.883789	7168.751465
3417.091797	7110.791992
3416.299805	7235.877441
3415.506836	7256.803711
3414.714844	7176.774902
3413.921875	7159.854004
3413.128906	7206.010254
3412.336914	7176.477051
3411.543945	7206.853027
3410.750000	7230.914551
3409.957031	6905.141113
3409.164063	7171.876465
3408.370117	7236.889160
3407.576172	7311.331055
3406.783203	7196.774414
3405.989258	7101.148438
3405.195313	7238.546875
3404.400391	7196.461914
3403.606445	7094.586426
3402.812500	7159.537109
3402.017578	7196.147949
3401.222656	7248.477051
3400.427734	7310.225586
3399.633789	7092.046387
3398.837891	7150.655762
3398.042969	7353.870605
3397.248047	7355.835449
3396.452148	7166.075195
3395.657227	7155.498535
3394.861328	7182.629883
3394.065430	7068.383789
3393.269531	7214.877930
3392.473633	7191.737793
3391.677734	7121.504883
3390.880859	7151.757813
3390.084961	7103.526367
3389.288086	7049.033691
3388.491211	7126.353027
3387.694336	7122.072754
3386.897461	7205.629395
3386.100586	7191.928223
3385.302734	7165.687500
3384.505859	6948.191406
3383.708008	7204.144043
3382.911133	7036.862793
3382.113281	7251.977539
3381.315430	7128.610352
3380.517578	7074.207031
3379.718750	7251.622559
3378.920898	7059.410645
3378.123047	7089.593262
3377.324219	7107.242188
3376.525391	6984.015625
3375.726563	7148.782715
3374.927734	7006.811523
3374.128906	7130.845703
3373.330078	7211.041504
3372.530273	7244.292480
3371.731445	7102.396484
3370.931641	7170.050293
3370.131836	7187.659180
3369.332031	7161.499023
3368.532227	7238.486328
3367.732422	7156.077637
3366.932617	7236.165039
3366.131836	7306.854980
3365.332031	7152.635742
3364.531250	7260.791016
3363.730469	7153.464355
3362.929688	6968.124023
3362.128906	7107.470703
3361.327148	7178.111816
3360.526367	7198.803711
3359.725586	7085.332520
3358.923828	7215.211426
3358.122070	7248.362793
3357.320313	7035.147949
3356.518555	7058.962891
3355.716797	7179.410156
3354.915039	7062.933105
3354.112305	7195.806152
3353.310547	7263.202637
3352.507813	7143.651855
3351.705078	7070.863281
3350.902344	7169.390625
3350.099609	7180.696777
3349.296875	7148.410645
3348.493164	7181.506348
3347.690430	7270.614746
3346.886719	7098.292969
3346.083008	7199.831543
3345.279297	7068.018066
3344.475586	7185.081055
3343.671875	7218.137695
3342.868164	7148.572754
3342.063477	7293.545898
3341.259766	7149.388184
3340.455078	7092.298828
3339.650391	7156.417480
3338.845703	7096.237793
3338.041016	7194.505859
3337.236328	7218.199219
3336.431641	7111.456543
3335.625977	7336.976563
3334.821289	7338.904297
3334.015625	7111.139160
3333.209961	7218.619141
3332.404297	7146.093750
3331.598633	7101.513184
3330.791992	7314.408691
3329.986328	7027.901855
3329.180664	7358.577148
3328.374023	7146.565430
3327.567383	7114.419434
3326.760742	7209.361816
3325.954102	7322.867188
3325.147461	7241.132324
3324.339844	7345.301758
3323.533203	7214.029297
3322.725586	7209.775391
3321.918945	7230.294434
3321.111328	7210.558594
3320.303711	6943.189453
3319.496094	7279.430176
3318.687500	7173.049316
3317.879883	7079.078613
3317.071289	7149.093750
3316.263672	7308.783691
3315.455078	7217.928223
3314.646484	7229.138184
3313.837891	7101.226074
3313.029297	7112.451172
3312.219727	6975.326660
3311.411133	7134.889648
3310.601563	7010.163574
3309.792969	7138.778320
3308.983398	7273.529297
3308.173828	7256.922363
3307.364258	7166.218750
3306.553711	7078.631348
3305.744141	7293.555176
3304.933594	7091.790527
3304.124023	7109.166504
3303.313477	7132.706543
3302.502930	7174.746094
3301.692383	6997.801758
3300.881836	7067.602051
3300.070313	7044.886230
3299.259766	7278.034180
3298.448242	7304.605469
3297.637695	6949.047363
3296.826172	7046.528320
3296.014648	7070.042969
3295.203125	7050.427734
3294.390625	7150.924316
3293.579102	7211.359863
3292.766602	6896.180664
3291.955078	7209.045898
3291.142578	7284.831055
3290.330078	7043.642578
3289.517578	7088.662598
3288.705078	7207.496582
3287.891602	7261.702148
3287.079102	7220.559570
3286.265625	7216.326172
3285.453125	7190.574707
3284.639648	7170.978516
3283.826172	7163.681152
3283.012695	7131.804688
3282.198242	7072.287598
3281.384766	7086.511230
3280.570313	7091.516602
3279.756836	7170.218262
3278.942383	7205.911133
3278.127930	7075.824219
3277.313477	7142.212891
3276.499023	7116.516113
3275.683594	7142.988770
3274.869141	7083.554199
3274.053711	7091.619629
3273.238281	7197.819824
3272.423828	7049.481445
3271.608398	7057.547363
3270.791992	7249.531250
3269.976563	7180.940918
3269.161133	7066.407227
3268.344727	7160.252930
3267.528320	7054.949219
3266.712891	7133.451660
3265.896484	7172.118164
3265.080078	7109.729004
3264.262695	7172.877441
3263.446289	7067.655273
3262.629883	7094.064453
3261.812500	7083.746094
3260.995117	7128.500977
3260.177734	7001.939453
3259.360352	7110.920410
3258.542969	7201.518066
3257.725586	7111.695313
3256.907227	7229.776367
3256.089844	7210.276855
3255.271484	6952.415039
3254.453125	7027.687012
3253.634766	6937.962891
3252.816406	7269.793945
3251.998047	7299.167480
3251.179688	7041.497070
3250.360352	7247.975098
3249.541992	7112.498535
3248.722656	7343.314941
3247.903320	7162.092285
3247.083984	7160.942383
3246.264648	7248.260742
3245.444336	7109.841797
3244.625000	7163.593750
3243.804688	7092.313477
3242.985352	7118.612793
3242.165039	7111.373535
3241.344727	6991.372559
3240.524414	7032.910645
3239.703125	7007.408203
3238.882813	7125.085449
3238.061523	7248.815918
3237.241211	7396.868652
3236.419922	7112.520020
3235.598633	7010.917480
3234.777344	7082.842285
3233.956055	7343.427246
3233.134766	7208.365234
3232.312500	7103.770020
3231.490234	7199.967285
3230.668945	7293.092285
3229.846680	7152.042969
3229.024414	7272.508301
3228.202148	7332.137695
3227.378906	7251.937012
3226.556641	7281.161621
3225.733398	7389.374512
3224.911133	7321.354004
3224.087891	7113.634277
3223.264648	7100.344238
3222.441406	7138.677734
3221.618164	7249.861816
3220.793945	7282.087891
3219.970703	7293.058594
3219.146484	7328.301270
3218.322266	7257.342285
3217.498047	7241.009277
3216.673828	7333.870605
3215.849609	7178.033203
3215.025391	7146.560059
3214.201172	7266.675293
3213.375977	7271.570313
3212.550781	7373.442871
3211.725586	7375.289063
3210.900391	7346.837891
3210.075195	7406.240723
3209.250000	7274.819336
3208.424805	7270.623047
3207.598633	7248.261230
3206.772461	7180.499023
3205.947266	7457.802734
3205.121094	7399.106934
3204.294922	7113.499512
3203.467773	7175.887207
3202.641602	7380.418457
3201.815430	7324.796387
3200.988281	7317.572266
3200.161133	7349.653320
3199.333984	7203.377441
3198.506836	7522.587891
3197.679688	7318.916016
3196.852539	7314.718750
3196.024414	7316.564941
3195.197266	7206.655762
3194.369141	7326.294434
3193.541016	7397.583496
3192.712891	7345.073730
3191.884766	7428.410156
3191.056641	7351.768066
3190.227539	7293.254883
3189.399414	7334.321289
3188.570313	7360.291504
3187.741211	7226.404297
3186.913086	7318.725098
3186.083008	7561.769531
3185.253906	7358.578125
3184.424805	7342.325684
3183.594727	7410.458984
3182.765625	7436.386719
3181.935547	7356.863281
3181.105469	7295.438477
3180.275391	7532.188477
3179.445313	7494.843750
3178.615234	7484.607910
3177.784180	7480.395020
3176.954102	7683.855469
3176.123047	7351.603027
3175.291992	7202.992188
3174.460938	7394.365234
3173.629883	7552.590820
3172.798828	7434.091797
3171.966797	7487.020508
3171.135742	7392.620605
3170.303711	7391.433105
3169.471680	7384.234375
3168.639648	7629.450195
3167.807617	7309.755859
3166.975586	7512.849121
3166.143555	7367.476074
3165.310547	7462.387207
3164.478516	7470.195801
3163.645508	7505.019531
3162.812500	7284.702148
3161.979492	7340.551270
3161.146484	7279.360352
3160.312500	7383.193359
3159.479492	7424.001465
3158.645508	7458.797852
3157.812500	7511.574707
3156.978516	7270.515625
3156.144531	7278.339844
3155.310547	7636.833008
3154.475586	7332.938477
3153.641602	7457.601563
3152.807617	7426.445313
3151.972656	7467.185547
3151.137695	7382.131836
3150.302734	7366.843750
3149.467773	7351.555176
3148.632813	7336.267090
3147.796875	7320.978516
3146.961914	7305.690430
3146.125977	7290.401855
3145.290039	7275.113770
3144.455078	7399.563965
3143.618164	7503.040039
3142.782227	7477.914551
3141.946289	7503.618164
3141.109375	7296.170410
3140.273438	7414.538574
3139.436523	7407.370605
3138.599609	7403.192383
3137.762695	7402.002441
3136.925781	7391.853027
3136.088867	7462.332031
3135.250977	7470.089355
3134.414063	7358.437012
3133.576172	7431.871582
3132.738281	7478.424316
3131.900391	7357.873047
3131.062500	7493.919434
3130.224609	7626.939453
3129.385742	7470.634277
3128.547852	7511.178711
3127.708984	7411.587402
3126.870117	7306.065918
3126.031250	7471.791992
3125.192383	7473.570801
3124.353516	7525.999023
3123.514648	7429.462891
3122.674805	7329.979492
3121.835938	7495.567871
3120.996094	7595.597656
3120.156250	7472.318359
3119.316406	7500.882324
3118.476563	7252.663086
3117.635742	7596.665039
3116.795898	7580.567871
3115.955078	7264.038574
3115.114258	7352.095215
3114.274414	7252.781738
3113.433594	7593.532715
3112.591797	7449.621582
3111.750977	7415.729004
3110.910156	7313.496582
3110.068359	7481.683594
3109.226563	7519.101074
3108.384766	7523.832520
3107.542969	7386.009766
3106.701172	7239.322754
3105.859375	7469.732422
3105.017578	7284.489258
3104.174805	7262.542480
3103.332031	7483.934082
3102.490234	7447.126465
3101.647461	7345.067871
3100.803711	7551.508301
3099.960938	7396.085449
3099.118164	7397.860840
3098.274414	7367.025391
3097.431641	7448.835938
3096.587891	7441.710449
3095.744141	7496.813965
3094.900391	7380.062988
3094.056641	7583.269043
3093.211914	7528.737793
3092.368164	7314.315918
3091.523438	7520.394531
3090.678711	7332.685547
3089.833984	7399.582031
3088.989258	7599.628418
3088.144531	7601.364746
3087.299805	7325.010254
3086.454102	7468.770508
3085.609375	7568.122559
3084.763672	7445.669434
3083.917969	7391.254395
3083.072266	7366.417480
3082.226563	7388.876465
3081.380859	7452.699707
3080.534180	7324.453125
3079.688477	7482.797363
3078.841797	7475.686523
3077.995117	7377.028809
3077.148438	7488.044922
3076.301758	7421.891113
3075.455078	7588.946777
3074.607422	7570.018066
3073.760742	7474.374512
3072.913086	7617.738281
3072.065430	7581.114258
3071.217773	7615.287109
3070.370117	7443.025391
3069.522461	7612.836914
3068.673828	7505.485352
3067.826172	7519.015137
3066.977539	7579.692383
3066.128906	7422.307129
3065.280273	7533.062500
3064.431641	7446.428711
3063.583008	7345.096680
3062.734375	7449.921875
3061.884766	7486.997070
3061.035156	7479.904785
3060.186523	7490.474121
3059.336914	7568.722656
3058.487305	7711.675781
3057.636719	7607.472168
3056.787109	7618.013184
3055.937500	7446.218262
3055.086914	7389.152832
3054.236328	7561.417480
3053.385742	7527.866699
3052.535156	7538.411133
3051.684570	7375.581543
3050.833984	7303.882324
3049.982422	7549.459961
3049.130859	7410.203125
3048.280273	7485.361328
3047.428711	7413.689941
3046.577148	7711.932129
3045.725586	7531.645508
3044.873047	7336.743164
3044.021484	7555.629395
3043.168945	7671.763184
3042.316406	7465.198730
3041.464844	7519.720703
3040.612305	7703.247070
3039.758789	7608.187500
3038.906250	7457.461914
3038.053711	7570.567383
3037.200195	7460.921875
3036.346680	7500.740723
3035.493164	7543.476074
3034.639648	7539.332520
3033.786133	7784.118164
3032.932617	7721.375000
3032.079102	7564.968262
3031.224609	7751.087891
3030.370117	7626.919434
3029.515625	7482.307617
3028.661133	7501.583008
3027.806641	7646.638184
3026.952148	7431.897461
3026.097656	7530.127930
3025.242188	7616.630859
3024.386719	7527.703125
3023.532227	7511.876465
3022.676758	7601.262695
3021.820313	7491.925781
3020.964844	7423.525391
3020.109375	7591.749512
3019.252930	7482.466309
3018.397461	7495.861816
3017.541016	7398.307617
3016.684570	7432.145996
3015.828125	7658.605957
3014.970703	7444.343750
3014.114258	7559.854492
3013.256836	7441.946289
3012.400391	7496.166992
3011.542969	7582.449707
3010.685547	7514.163574
3009.828125	7489.630371
3008.970703	7505.914063
3008.112305	7761.176270
3007.254883	7424.818848
3006.396484	7461.499023
3005.538086	7533.123047
3004.679688	7613.461914
3003.821289	7545.257324
3002.962891	7747.856445
3002.104492	7429.291504
3001.245117	7757.003418
3000.385742	7412.347168
2999.527344	7646.843750
2998.667969	7500.147461
2997.808594	7554.207031
2996.948242	7500.640137
2996.088867	7510.637695
2995.229492	7520.635254
2994.369141	7530.632813
2993.508789	7540.630371
2992.648438	7550.627930
2991.788086	7560.625488
2990.927734	7570.623047
2990.067383	7644.923340
2989.206055	7600.129395
2988.344727	7476.951172
2987.484375	7452.520996
2986.623047	7445.514648
2985.761719	7502.360352
2984.899414	7605.616699
2984.038086	7633.404785
2983.176758	7571.256836
2982.314453	7396.012695
2981.452148	7563.017090
2980.589844	7480.613770
2979.727539	7638.853027
2978.865234	7504.290039
2978.002930	7604.513184
2977.139648	7672.830078
2976.276367	7703.461914
2975.414063	7626.907227
2974.550781	7608.301270
2973.687500	7439.123047
2972.824219	7649.278320
2971.959961	7540.938477
2971.096680	7591.820801
2970.232422	7732.396973
2969.368164	7531.506348
2968.503906	7567.900879
2967.639648	7685.271973
2966.775391	7446.889648
2965.911133	7679.903809
2965.045898	7805.872559
2964.181641	7599.382324
2963.316406	7690.641602
2962.451172	7669.174316
2961.585938	7688.162598
2960.720703	7608.927734
2959.854492	7645.249023
2958.989258	7667.119141
2958.123047	7706.306152
2957.256836	7592.475586
2956.391602	7418.067383
2955.524414	7973.858398
2954.658203	7808.101074
2953.791992	7518.341309
2952.924805	7641.164551
2952.058594	7625.512695
2951.191406	7831.903809
2950.324219	7559.625000
2949.457031	7512.283203
2948.589844	7715.709961
2947.722656	7763.456055
2946.854492	7595.089355
2945.986328	7622.673340
2945.119141	7670.410645
2944.250977	7683.573242
2943.382813	7832.065430
2942.513672	7770.344238
2941.645508	7751.820313
2940.777344	7796.619141
2939.908203	7686.014160
2939.039063	7796.981934
2938.169922	7689.289063
2937.300781	7840.486816
2936.431641	7847.850098
2935.562500	7763.202148
2934.692383	7661.332031
2933.822266	7743.452637
2932.953125	7845.663086
2932.083008	7559.930664
2931.212891	7742.580078
2930.341797	7787.291016
2929.471680	7806.139160
2928.601563	7865.183105
2927.730469	7904.109863
2926.859375	7687.538086
2925.988281	7849.897461
2925.117188	7894.546875
2924.246094	7787.111816
2923.375000	7760.037109
2922.502930	7887.859375
2921.630859	8004.168945
2920.759766	7862.375977
2919.887695	7841.039551
2919.015625	7885.638184
2918.142578	7635.024414
2917.270508	7768.473145
2916.397461	7641.156738
2915.525391	7731.591797
2914.652344	7799.083984
2913.779297	7895.191406
2912.906250	7908.233887
2912.033203	7921.271973
2911.159180	7902.820313
2910.286133	8001.709961
2909.412109	7865.934082
2908.538086	7916.161621
2907.664063	7854.814941
2906.790039	7982.247559
2905.916016	7786.511719
2905.041992	7936.786133
2904.166992	7929.788574
2903.291992	7891.353027
2902.417969	7832.926270
2901.542969	7854.520020
2900.666992	7961.810059
2899.791992	7909.111816
2898.916992	7827.872070
2898.041016	7995.076660
2897.165039	8019.480957
2896.290039	7841.209961
2895.414063	7882.754883
2894.538086	7753.073242
2893.661133	7826.002441
2892.785156	7861.823730
2891.908203	7823.476563
2891.032227	7745.218262
2890.155273	7858.018066
2889.278320	7913.765625
2888.401367	7653.109375
2887.523438	7745.919434
2886.646484	7904.235840
2885.768555	7900.111328
2884.891602	7847.563477
2884.013672	7846.296875
2883.135742	7816.554688
2882.256836	7866.541016
2881.378906	7970.597168
2880.500977	7809.924316
2879.622070	7797.280762
2878.743164	7793.176758
2877.865234	7823.211914
2876.985352	7719.552734
2876.106445	7806.466797
2875.227539	7918.943848
2874.348633	7840.905273
2873.468750	7848.166992
2872.588867	7929.319824
2871.708984	7959.296875
2870.829102	7861.413574
2869.949219	7837.418945
2869.069336	7892.958008
2868.188477	7738.336914
2867.308594	7881.891602
2866.427734	7829.520020
2865.546875	7794.195313
2864.666016	7863.885254
2863.785156	8015.838379
2862.903320	7719.495605
2862.022461	7701.229980
2861.140625	7864.479492
2860.258789	7721.428223
2859.376953	7774.049805
2858.495117	7784.133301
2857.613281	7848.063965
2856.731445	7767.450195
2855.848633	7837.029785
2854.965820	7886.755859
2854.083984	7735.363770
2853.201172	7836.065430
2852.318359	7939.565918
2851.434570	7686.319824
2850.551758	7707.723145
2849.667969	7805.533203
2848.785156	7716.552246
2847.901367	7902.035156
2847.017578	7699.916016
2846.133789	7823.118164
2845.249023	7751.158203
2844.365234	7744.251465
2843.480469	7923.925293
2842.596680	7713.484863
2841.711914	7895.931152
2840.827148	7897.481445
2839.942383	8119.390137
2839.056641	7762.170898
2838.171875	7885.182129
2837.286133	7768.134766
2836.401367	7620.068359
2835.515625	7827.727539
2834.629883	7970.404297
2833.743164	8011.445313
2832.857422	7781.612305
2831.971680	7862.164551
2831.084961	7815.765137
2830.198242	7828.603027
2829.311523	7770.945313
2828.424805	7837.350098
2827.538086	7782.527832
2826.651367	7927.820801
2825.763672	7932.175781
2824.876953	8026.684570
2823.989258	7904.260254
2823.101563	7950.862793
2822.213867	7896.074219
2821.325195	7770.914063
2820.437500	7918.857910
2819.549805	7917.578613
2818.661133	8031.680664
2817.772461	7945.970703
2816.883789	8144.429199
2815.995117	7988.407715
2815.106445	8032.114746
2814.216797	8168.600098
2813.328125	8018.272461
2812.438477	8095.684570
2811.548828	7993.196777
2810.659180	7921.652344
2809.769531	7993.422363
2808.879883	7933.137695
2807.989258	8052.630859
2807.099609	7961.464355
2806.208984	7926.483398
2805.318359	8225.590820
2804.427734	8061.459961
2803.537109	8046.124512
2802.646484	8072.884277
2801.754883	7998.634766
2800.863281	8109.545410
2799.972656	7760.458496
2799.081055	8193.853516
2798.189453	8018.697266
2797.296875	8039.827148
2796.405273	8125.415039
2795.513672	8107.287109
2794.621094	8002.305176
2793.728516	8015.018555
2792.835938	8086.549316
2791.943359	8107.646484
2791.050781	8100.735352
2790.157227	8054.630859
2789.264648	8053.328125
2788.371094	8096.806152
2787.477539	8089.900391
2786.583984	8085.794434
2785.690430	8171.206055
2784.796875	8141.915039
2783.903320	8146.191406
2783.008789	8130.894043
2782.114258	7984.208496
2781.219727	7985.712402
2780.325195	7962.063477
2779.430664	8030.631348
2778.536133	8244.454102
2777.640625	8047.587402
2776.746094	8077.007324
2775.850586	8179.020996
2774.955078	8183.281738
2774.059570	8159.625977
2773.164063	8013.170410
2772.267578	8187.683594
2771.372070	8083.122559
2770.475586	8176.665527
2769.579102	8214.392578
2768.683594	8224.218750
2767.786133	8072.316895
2766.889648	8149.072754
2765.993164	8041.831055
2765.095703	8210.538086
2764.199219	8044.802246
2763.301758	8143.800781
2762.404297	8178.696777
2761.506836	8202.440430
2760.608398	8150.987793
2759.710938	8155.237305
2758.812500	8259.704102
2757.914063	8224.966797
2757.016602	8276.512695
2756.118164	8130.482910
2755.218750	8310.000977
2754.320313	8272.495117
2753.421875	8346.248047
2752.522461	8258.695313
2751.623047	8257.359375
2750.723633	8275.481445
2749.824219	8218.555664
2748.924805	8183.878418
2748.025391	8088.086426
2747.125000	8153.449707
2746.224609	8152.130371
2745.325195	8117.485352
2744.424805	8166.151367
2743.523438	8373.045898
2742.623047	8468.841797
2741.722656	8331.480469
2740.821289	8327.357422
2739.919922	8281.619141
2739.019531	8213.703125
2738.118164	8248.429688
2737.215820	8310.875000
2736.314453	8290.121094
2735.413086	8150.170898
2734.510742	8378.904297
2733.608398	8263.925781
2732.706055	8376.191406
2731.803711	8388.687500
2730.901367	8126.956543
2729.999023	8269.653320
2729.095703	8088.328125
2728.193359	8106.398438
2727.290039	8174.289063
2726.386719	8563.208984
2725.483398	8357.046875
2724.579102	8084.548828
2723.675781	8254.752930
2722.771484	8341.924805
2721.868164	8224.425781
2720.963867	8206.503906
2720.059570	8274.288086
2719.155273	8198.318359
2718.250000	8290.954102
2717.345703	8306.191406
2716.440430	8268.929688
2715.536133	8195.770508
2714.630859	8255.205078
2713.725586	8331.187500
2712.819336	8219.399414
2711.914063	8278.799805
2711.007813	8216.737305
2710.102539	8171.252441
2709.196289	8274.777344
2708.290039	8301.024414
2707.383789	8134.183105
2706.477539	8375.554688
2705.570313	8247.358398
2704.664063	8303.917969
2703.756836	8346.676758
2702.849609	8248.863281
2701.942383	8277.838867
2701.035156	8210.374023
2700.127930	8371.572266
2699.219727	8425.300781
2698.312500	8087.969727
2697.404297	8251.862305
2696.496094	8291.819336
2695.587891	8375.802734
2694.679688	8319.405273
2693.770508	8285.038086
2692.862305	8338.718750
2691.953125	8274.101563
2691.043945	8234.256836
2690.134766	8375.913086
2689.225586	8338.813477
2688.316406	8340.211914
2687.406250	8088.749023
2686.497070	8156.139160
2685.586914	8380.119141
2684.676758	8367.772461
2683.766602	8305.989258
2682.856445	8211.270508
2681.946289	8206.893555
2681.035156	8202.516602
2680.124023	8198.139648
2679.213867	8193.762695
2678.302734	8189.386230
2677.391602	8185.009277
2676.479492	8180.632324
2675.568359	8176.255371
2674.657227	8171.878418
2673.745117	8450.216797
2672.833008	8402.244141
2671.920898	8293.986328
2671.008789	8391.298828
2670.096680	8420.079102
2669.183594	8259.818359
2668.270508	8277.653320
2667.358398	8139.376953
2666.445313	8513.197266
2665.532227	8238.037109
2664.619141	8439.265625
2663.705078	8380.421875
2662.791992	8392.745117
2661.877930	8262.791992
2660.963867	8395.495117
2660.049805	8476.188477
2659.135742	8436.528320
2658.221680	8399.615234
2657.306641	8258.829102
2656.392578	8375.024414
2655.477539	8294.411133
2654.562500	8440.620117
2653.647461	8379.146484
2652.732422	8342.277344
2651.817383	8379.160156
2650.901367	8448.799805
2649.986328	8269.961914
2649.070313	8418.760742
2648.154297	8455.607422
2647.238281	8465.151367
2646.321289	8392.837891
2645.405273	8353.283203
2644.489258	8507.402344
2643.572266	8598.746094
2642.655273	8452.834961
2641.738281	8530.525391
2640.821289	8485.528320
2639.903320	8429.644531
2638.986328	8466.425781
2638.068359	8519.542969
2637.151367	8572.642578
2636.233398	8544.014648
2635.315430	8392.853516
2634.396484	8432.333008
2633.478516	8493.578125
2632.559570	8573.855469
2631.641602	8493.543945
2630.722656	8464.956055
2629.803711	8569.683594
2628.884766	8834.862305
2627.965820	8558.743164
2627.045898	8440.428711
2626.125977	8403.714844
2625.207031	8282.745117
2624.287109	8422.731445
2623.367188	8432.234375
2622.447266	8515.092773
2621.526367	8777.217773
2620.606445	8550.354492
2619.685547	8513.663086
2618.764648	8471.552734
2617.843750	8424.026367
2616.922852	8495.947266
2616.001953	8527.134766
2615.080078	8504.042969
2614.159180	8486.384766
2613.237305	8645.050781
2612.315430	8518.887695
2611.393555	8479.541016
2610.471680	8573.059570
2609.548828	8652.993164
2608.626953	8575.697266
2607.704102	8555.334961
2606.781250	8665.036133
2605.858398	8506.502930
2604.935547	8618.884766
2604.012695	8712.272461
2603.089844	8453.621094
2602.166016	8736.517578
2601.242188	8583.513672
2600.318359	8611.890625
2599.394531	8504.958008
2598.470703	8576.627930
2597.546875	8683.439453
2596.622070	8514.339844
2595.698242	8680.620117
2594.773438	8654.875977
2593.848633	8583.183594
2592.923828	8635.847656
2591.998047	8350.684570
2591.073242	8411.475586
2590.147461	8512.770508
2589.222656	8646.446289
2588.296875	8566.720703
2587.371094	8360.107422
2586.445313	8839.323242
2585.518555	8511.258789
2584.592773	8571.952148
2583.666016	8697.391602
2582.739258	8547.583008
2581.812500	8826.751953
2580.885742	8911.628906
2579.958984	8648.593750
2579.031250	8415.302734
2578.104492	8516.379883
2577.176758	8463.782227
2576.249023	8554.039063
2575.321289	8552.649414
2574.393555	8553.953125
2573.465820	8490.608398
2572.537109	8586.187500
2571.608398	8660.191406
2570.680664	8777.250977
2569.751953	8789.284180
2568.823242	8688.269531
2567.893555	8770.281250
2566.964844	8857.648438
2566.035156	8716.317383
2565.105469	8733.729492
2564.176758	8673.144531
2563.246094	8674.423828
2562.316406	8648.818359
2561.386719	8717.301758
2560.456055	8629.881836
2559.526367	8765.524414
2558.595703	8766.786133
2557.665039	8714.322266
2556.734375	8597.414063
2555.802734	8607.417969
2554.872070	8617.420898
2553.940430	8627.423828
2553.009766	8637.427734
2552.078125	8647.431641
2551.146484	8657.434570
2550.213867	8667.437500
2549.282227	8677.441406
2548.349609	8681.927734
2547.417969	8686.414063
2546.485352	8690.899414
2545.552734	8695.385742
2544.620117	8699.872070
2543.686523	8695.777344
2542.753906	8750.628906
2541.820313	8751.885742
2540.887695	8651.360352
2539.954102	8652.631836
2539.020508	8809.201172
2538.085938	8802.414063
2537.152344	8752.802734
2536.217773	8796.875977
2535.284180	8757.983398
2534.349609	8751.208984
2533.415039	8621.387695
2532.480469	8791.155273
2531.544922	8915.407227
2530.610352	8927.325195
2529.674805	8885.775391
2528.739258	8667.834961
2527.803711	8971.072266
2526.868164	9031.067383
2525.932617	8703.678711
2524.997070	8619.459961
2524.060547	8818.353516
2523.124023	8760.845703
2522.187500	8855.531250
2521.250977	8656.562500
2520.314453	8882.007813
2519.377930	8944.605469
2518.440430	8556.290039
2517.503906	8770.970703
2516.566406	8740.206055
2515.628906	8834.785156
2514.691406	8924.000977
2513.752930	8879.895508
2512.815430	8918.431641
2511.876953	9050.228516
2510.938477	8891.548828
2510.000000	8828.828125
2509.061523	8803.417969
2508.123047	8791.333008
2507.184570	8859.134766
2506.245117	8937.564453
2505.306641	8933.448242
2504.367188	8934.655273
2503.427734	8866.674805
2502.487305	8862.571289
2501.547852	8964.876953
2500.608398	8838.408203
2499.667969	8839.629883
2498.727539	8806.284180
2497.787109	8974.992188
2496.846680	8853.919922
2495.906250	8783.380859
2494.964844	8808.523438
2494.024414	8844.284180
2493.083008	8962.377930
2492.141602	8830.781250
2491.200195	8794.822266
2490.258789	8737.635742
2489.317383	8834.432617
2488.375000	8811.761719
2487.432617	8786.443359
2486.490234	8859.304688
2485.547852	8942.752930
2484.605469	8795.414063
2483.663086	8764.810547
2482.720703	8869.445313
2481.777344	8746.049805
2480.833984	8885.112305
2479.890625	8923.418945
2478.947266	8635.785156
2478.003906	8965.552734
2477.059570	8887.272461
2476.116211	8793.126953
2475.171875	8836.712891
2474.227539	8869.693359
2473.283203	8897.368164
2472.338867	8739.757813
2471.394531	8817.725586
2470.449219	8861.270508
2469.503906	8949.774414
2468.559570	8853.093750
2467.614258	8878.098633
2466.667969	8937.468750
2465.722656	8819.686523
2464.777344	8815.606445
2463.831055	8956.888672
2462.884766	8971.284180
2461.938477	8895.844727
2460.992188	8981.570313
2460.045898	8766.168945
2459.099609	8931.109375
2458.152344	8913.812500
2457.205078	8637.808594
2456.257813	8741.980469
2455.310547	8875.148438
2454.363281	8942.306641
2453.416016	8919.744141
2452.467773	8971.045898
2451.520508	8932.661133
2450.572266	8743.985352
2449.624023	9016.753906
2448.675781	8780.675781
2447.726563	8892.577148
2446.778320	8938.560547
2445.829102	8829.079102
2444.879883	8938.282227
2443.930664	8923.655273
2442.981445	8793.161133
2442.032227	8878.618164
2441.083008	8703.418945
2440.132813	8694.103516
2439.182617	8824.274414
2438.232422	8935.982422
2437.282227	8779.302734
2436.332031	8733.154297
2435.381836	8813.261719
2434.430664	8843.379883
2433.480469	8813.017578
2432.529297	8753.748047
2431.578125	8810.143555
2430.626953	8940.102539
2429.674805	8836.173828
2428.723633	8727.024414
2427.771484	8862.184570
2426.819336	8637.514648
2425.867188	8893.429688
2424.915039	8813.219727
2423.962891	8706.787109
2423.010742	8920.573242
2422.057617	8916.495117
2421.104492	8807.472656
2420.151367	8929.326172
2419.198242	8786.241211
2418.245117	8976.238281
2417.291992	8893.495117
2416.337891	8978.553711
2415.383789	8843.415039
2414.430664	8750.250977
2413.475586	8754.064453
2412.521484	8708.100586
2411.567383	8787.879883
2410.612305	8791.683594
2409.658203	8730.024414
2408.703125	8872.593750
2407.748047	8536.089844
2406.792969	8775.479492
2405.837891	8745.263672
2404.881836	8725.522461
2403.925781	8585.455078
2402.970703	8738.368164
2402.013672	8595.728516
2401.058594	8748.589844
2400.101563	8619.066406
2399.144531	8554.928711
2398.189453	8548.306641
2397.232422	8703.687500
2396.275391	8757.129883
2395.318359	8745.251953
2394.361328	8675.921875
2393.404297	8658.838867
2392.445313	8693.977539
2391.488281	8535.935547
2390.529297	8732.898438
2389.572266	8692.331055
2388.613281	8547.411133
2387.656250	8712.971680
2386.697266	8750.672852
2385.738281	8749.244141
2384.779297	8726.957031
2383.820313	8454.408203
2382.861328	8591.174805
2381.902344	8571.529297
2380.943359	8775.979492
2379.982422	8659.915039
2379.023438	8700.178711
2378.064453	8529.471680
2377.103516	8590.574219
2376.142578	8521.479492
2375.183594	8689.291992
2374.222656	8575.957031
2373.261719	8795.750977
2372.300781	8630.397461
2371.339844	8647.198242
2370.378906	8596.367188
2369.417969	8545.551758
2368.455078	8726.167969
2367.494141	8373.777344
2366.533203	8408.800781
2365.570313	8620.537109
2364.609375	8413.849609
2363.646484	8438.456055
2362.683594	8533.189453
2361.720703	8604.517578
2360.757813	8439.515625
2359.794922	8497.852539
2358.832031	8582.130859
2357.869141	8549.583008
2356.906250	8462.548828
2355.943359	8448.192383
2354.978516	8706.235352
2354.015625	8473.964844
2353.050781	8376.625000
2352.085938	8403.779297
2351.123047	8516.477539
2350.158203	8463.244141
2349.193359	8461.861328
2348.228516	8473.434570
2347.263672	8500.549805
2346.298828	8462.894531
2345.333984	8497.772461
2344.367188	8483.435547
2343.402344	8274.917969
2342.437500	8488.429688
2341.470703	8349.862305
2340.503906	8462.364258
2339.539063	8427.344727
2338.572266	8265.571289
2337.605469	8282.326172
2336.638672	8392.178711
2335.671875	8375.292969
2334.705078	8392.021484
2333.738281	8636.216797
2332.771484	8492.658203
2331.802734	8478.349609
2330.835938	8668.153320
2329.867188	8901.810547
2328.900391	8926.183594
2327.931641	8550.278320
2326.962891	8600.519531
2325.994141	8508.759766
2325.027344	8440.259766
2324.058594	8296.941406
2323.089844	8416.857422
2322.119141	8449.019531
2321.150391	8251.601563
2320.181641	8250.251953
2319.210938	8279.846680
2318.242188	8167.631348
2317.271484	8449.847656
2316.302734	8337.640625
2315.332031	8421.315430
2314.361328	8327.184570
2313.390625	8405.680664
2312.419922	8159.620117
2311.449219	8428.683594
2310.478516	8316.588867
2309.507813	8364.141602
2308.537109	8367.921875
2307.564453	8433.464844
2306.593750	8385.769531
2305.621094	8325.225586
2304.650391	8411.321289
2303.677734	8276.208984
2302.705078	8184.854980
2301.732422	8327.492188
2300.759766	8529.206055
2299.787109	8358.179688
2298.814453	8266.871094
2297.841797	8147.330078
2296.869141	8348.940430
2295.896484	8314.184570
2294.921875	8420.682617
2293.949219	8280.651367
2292.974609	8425.628906
2292.000000	8411.416016
2291.027344	8276.587891
2290.052734	8046.862305
2289.078125	8422.680664
2288.103516	8398.215820
2287.128906	8307.077148
2286.154297	8326.231445
2285.177734	8335.124023
2284.203125	8282.491211
2283.228516	8470.799805
2282.251953	8243.903320
2281.277344	8219.494141
2280.300781	8335.990234
2279.324219	8275.714844
2278.347656	8258.994141
2277.371094	8324.215820
2276.394531	8391.975586
2275.417969	8288.214844
2274.441406	8297.094727
2273.464844	8518.355469
2272.488281	8279.028320
2271.509766	8415.803711
2270.533203	8335.141602
2269.554688	8305.647461
2268.578125	8332.412109
2267.599609	8351.498047
2266.621094	8368.021484
2265.642578	8323.208008
2264.664063	8181.316895
2263.685547	8277.053711
2262.707031	8331.891602
2261.728516	8133.883301
2260.750000	8339.375977
2259.769531	8562.671875
2258.791016	8313.671875
2257.810547	8342.935547
2256.832031	8364.534180
2255.851563	8238.150391
2254.871094	8412.812500
2253.890625	8286.460938
2252.910156	8389.655273
2251.929688	8288.845703
2250.949219	8320.627930
2249.968750	8479.838867
2248.988281	8531.964844
2248.005859	8395.525391
2247.025391	8485.861328
2246.042969	8374.945313
2245.062500	8294.625000
2244.080078	8206.692383
2243.097656	8223.167969
2242.115234	8176.002441
2241.132813	8258.649414
2240.150391	8422.696289
2239.167969	8314.458984
2238.185547	8308.008789
2237.203125	8319.364258
2236.218750	8450.234375
2235.236328	8225.106445
2234.253906	8388.996094
2233.269531	8321.537109
2232.285156	8553.971680
2231.300781	8270.533203
2230.318359	8360.633789
2229.333984	8369.422852
2228.349609	8390.908203
2227.365234	8440.316406
2226.378906	8233.291016
2225.394531	8183.712402
2224.410156	8469.159180
2223.423828	8234.317383
2222.439453	8167.002441
2221.453125	8287.424805
2220.468750	8308.892578
2219.482422	8355.711914
2218.496094	8288.419922
2217.509766	8393.533203
2216.523438	8148.832520
2215.537109	8347.699219
2214.550781	8533.831055
2213.564453	8220.825195
2212.576172	8389.186523
2211.589844	8491.645508
2210.601563	8469.995117
2209.615234	8228.092773
2208.626953	8386.215820
2207.638672	8243.110352
2206.650391	8466.970703
2205.664063	8318.837891
2204.675781	8456.603516
2203.685547	8333.813477
2202.697266	8102.324707
2201.708984	8389.233398
2200.720703	8306.960938
2199.730469	8100.865234
2198.742188	8380.050781
2197.751953	8259.918945
2196.763672	8316.668945
2195.773438	8343.089844
2194.783203	8490.725586
2193.792969	8390.853516
2192.802734	8333.934570
2191.812500	8342.664063
2190.822266	8462.439453
2189.832031	8390.394531
2188.839844	8512.645508
2187.849609	8417.912109
2186.857422	8436.708008
2185.867188	8493.324219
2184.875000	8471.759766
2183.882813	8336.758789
2182.892578	8295.062500
2181.900391	8248.338867
2180.908203	8441.001953
2179.916016	8429.539063
2178.921875	8418.080078
2177.929688	8547.658203
2176.937500	8563.880859
2175.943359	8502.051758
2174.951172	8467.932617
2173.957031	8464.025391
2172.964844	8545.676758
2171.970703	8363.123047
2170.976563	8469.918945
2169.982422	8370.437500
2168.988281	8366.548828
2167.994141	8272.144531
2167.000000	8316.036133
2166.005859	8520.778320
2165.009766	8348.489258
2164.015625	8399.883789
2163.019531	8416.090820
2162.025391	8517.694336
2161.029297	8478.624023
2160.033203	8550.050781
2159.039063	8581.285156
2158.042969	8539.711914
2157.046875	8435.408203
2156.050781	8710.053711
2155.052734	8525.468750
2154.056641	8509.017578
2153.060547	8512.635742
2152.062500	8568.915039
2151.066406	8712.931641
2150.068359	8729.048828
2149.072266	8476.964844
2148.074219	8508.151367
2147.076172	8591.946289
2146.078125	8542.934570
2145.080078	8576.598633
2144.082031	8537.623047
2143.083984	8616.348633
2142.085938	8519.795898
2141.085938	8510.886719
2140.087891	8604.593750
2139.087891	8645.719727
2138.089844	8564.236328
2137.089844	8565.330078
2136.089844	8518.902344
2135.089844	8477.490234
2134.089844	8618.615234
2133.089844	8737.194336
2132.089844	8700.765625
2131.089844	8689.338867
2130.089844	8702.902344
2129.089844	8546.579102
2128.087891	8607.621094
2127.087891	8513.799805
2126.085938	8562.340820
2125.083984	8710.731445
2124.082031	8589.480469
2123.082031	8570.597656
2122.080078	8574.179688
2121.078125	8645.124023
2120.076172	8601.294922
2119.072266	8662.234375
2118.070313	8548.590820
2117.068359	8432.491211
2116.064453	8590.652344
2115.062500	8649.060547
2114.058594	8670.067383
2113.054688	8643.724609
2112.052734	8811.710938
2111.048828	8655.827148
2110.044922	8604.593750
2109.041016	8580.767578
2108.037109	8790.976563
2107.031250	8508.246094
2106.027344	8531.735352
2105.023438	8480.562500
2104.017578	8695.625000
2103.013672	8674.293945
2102.007813	8618.148438
2101.001953	8726.149414
2099.998047	8662.554688
2098.992188	8733.222656
2097.986328	8550.338867
2096.980469	8765.140625
2095.972656	8741.335938
2094.966797	8759.772461
2093.960938	8663.941406
2092.955078	8652.582031
2091.947266	8574.181641
2090.939453	8617.458984
2089.933594	8797.248047
2088.925781	8679.152344
2087.917969	8561.093750
2086.910156	8611.787109
2085.902344	8540.912109
2084.894531	8737.925781
2083.886719	8681.930664
2082.878906	8506.941406
2081.871094	8750.964844
2080.861328	8519.012695
2079.853516	8678.694336
2078.843750	8588.064453
2077.833984	8569.308594
2076.826172	8642.208008
2075.816406	8724.988281
2074.806641	8723.551758
2073.796875	8620.609375
2072.787109	8589.485352
2071.777344	8885.065430
2070.765625	8673.266602
2069.755859	8634.725586
2068.744141	8766.884766
2067.734375	8537.896484
2066.722656	8623.041992
2065.712891	8720.522461
2064.701172	8659.755859
2063.689453	8552.046875
2062.677734	8708.799805
2061.666016	8727.132813
2060.654297	8723.224609
2059.642578	8546.414063
2058.628906	8663.548828
2057.617188	8615.206055
2056.605469	8675.507813
2055.591797	8696.294922
2054.578125	8655.374023
2053.566406	8483.681641
2052.552734	8689.530273
2051.539063	8599.293945
2050.525391	8698.999023
2049.511719	8692.633789
2048.498047	8866.258789
2047.484375	8711.956055
2046.468750	8700.661133
2045.455078	8608.045898
2044.439453	8791.424805
2043.425781	8551.010742
2042.410156	8623.496094
2041.394531	8708.271484
2040.380859	8692.061523
2039.365234	8498.598633
2038.349609	8772.888672
2037.333984	8702.531250
2036.316406	8870.886719
2035.300781	8857.123047
2034.285156	8779.405273
2033.267578	8741.065430
2032.251953	8778.970703
2031.234375	8784.899414
2030.218750	8739.202148
2029.201172	8922.101563
2028.183594	8738.777344
2027.166016	8646.425781
2026.148438	8748.179688
2025.130859	8621.467773
2024.113281	8701.089844
2023.093750	8736.486328
2022.076172	8862.708008
2021.056641	8672.239258
2020.039063	8773.886719
2019.019531	8706.186523
2018.001953	8795.527344
2016.982422	8681.238281
2015.962891	8701.879883
2014.943359	8592.546875
2013.923828	8652.424805
2012.904297	8734.345703
2011.882813	8735.355469
2010.863281	8758.420898
2009.843750	8656.518555
2008.822266	8623.243164
2007.802734	8636.516602
2006.781250	8706.112305
2005.759766	8604.284180
2004.738281	8671.414063
2003.716797	8665.086914
2002.695313	8790.919922
2001.673828	8742.977539
2000.652344	8719.515625
1999.630859	8571.308594
1998.609375	8442.714844
1997.585938	8717.645508
1996.564453	8596.405273
1995.541016	8597.430664
1994.517578	8618.008789
1993.494141	8677.679688
1992.472656	8627.380859
1991.449219	8625.957031
1990.425781	8514.620117
1989.400391	8640.204102
1988.376953	8636.336914
1987.353516	8588.526367
1986.328125	8650.572266
1985.304688	8575.928711
1984.279297	8511.070313
1983.255859	8543.821289
1982.230469	8522.896484
1981.205078	8311.744141
1980.179688	8442.049805
1979.154297	8543.055664
1978.128906	8556.271484
1977.103516	8542.671875
1976.078125	8609.494141
1975.050781	8383.916992
1974.025391	8448.305664
1972.998047	8690.478516
1971.972656	8491.786133
1970.945313	8495.252930
1969.917969	8398.906250
1968.892578	8580.073242
1967.865234	8461.840820
1966.837891	8438.543945
1965.808594	8619.614258
1964.781250	8554.946289
1963.753906	8521.916016
1962.724609	8432.968750
1961.697266	8412.125977
1960.667969	8456.922852
1959.640625	8625.656250
1958.611328	8500.298828
1957.582031	8693.266602
1956.552734	8584.943359
1955.523438	8425.650391
1954.494141	8492.253906
1953.464844	8384.016602
1952.435547	8370.493164
1951.404297	8551.153320
1950.375000	8438.105469
1949.343750	8507.077148
1948.314453	8505.671875
1947.283203	8336.897461
1946.251953	8277.313477
1945.222656	8338.991211
1944.191406	8434.589844
1943.158203	8496.220703
1942.126953	8446.343750
1941.095703	8638.805664
1940.064453	8460.510742
1939.031250	8662.595703
1938.000000	8549.750977
1936.966797	8558.023438
1935.935547	8413.756836
1934.902344	8472.885742
1933.869141	8331.100586
1932.835938	8443.463867
1931.802734	8635.637695
1930.769531	8556.794922
1929.736328	8477.977539
1928.703125	8570.894531
1927.667969	8583.984375
1926.634766	8536.630859
1925.599609	8498.959961
1924.566406	8521.722656
1923.531250	8450.237305
1922.496094	8470.583984
1921.460938	8466.766602
1920.425781	8448.459961
1919.390625	8509.847656
1918.355469	8720.909180
1917.320313	8591.523438
1916.285156	8529.761719
1915.248047	8569.375000
1914.212891	8459.379883
1913.175781	8561.714844
1912.138672	8557.886719
1911.103516	8619.172852
1910.066406	8706.962891
1909.029297	8664.538086
1907.992188	8617.305664
1906.955078	8594.189453
1905.917969	8571.080078
1904.878906	8598.573242
1903.841797	8686.276367
1902.802734	8607.769531
1901.765625	8594.304688
1900.726563	8544.728516
1899.687500	8829.777344
1898.650391	8736.855469
1897.611328	8453.854492
1896.572266	8700.278320
1895.533203	8614.640625
1894.494141	8538.651367
1893.453125	8792.152344
1892.414063	8831.572266
1891.375000	8681.058594
1890.333984	8417.622070
1889.292969	8697.410156
1888.253906	8825.725586
1887.212891	8644.079102
1886.171875	8729.122070
1885.130859	8653.224609
1884.089844	8649.390625
1883.048828	8772.803711
1882.007813	8720.940430
1880.964844	8630.693359
1879.923828	8593.268555
1878.880859	8517.467773
1877.839844	8535.248047
1876.796875	8644.165039
1875.753906	8599.567383
1874.712891	8737.209961
1873.669922	8596.718750
1872.626953	8571.326172
1871.583984	8780.797852
1870.539063	8625.992188
1869.496094	8495.195313
1868.453125	8529.717773
1867.408203	8849.223633
1866.365234	8591.542969
1865.320313	8721.796875
1864.275391	8502.522461
1863.230469	8671.040039
1862.187500	8571.492188
1861.142578	8687.306641
1860.095703	8829.395508
1859.050781	8562.448242
1858.005859	8541.898438
1856.960938	8416.153320
1855.914063	8476.913086
1854.869141	8549.602539
1853.822266	8509.949219
1852.775391	8460.751953
1851.730469	8423.514648
1850.683594	8426.895508
1849.636719	8513.861328
1848.589844	8507.673828
1847.541016	8623.245117
1846.494141	8325.829102
1845.447266	8520.149414
1844.400391	8494.875000
1843.351563	8462.451172
1842.302734	8492.057617
1841.255859	8550.275391
1840.207031	8410.549805
1839.158203	8375.775391
1838.109375	8534.103516
1837.060547	8532.687500
1836.011719	8533.655273
1834.962891	8463.143555
1833.912109	8385.507813
1832.863281	8417.462891
1831.814453	8420.830078
1830.763672	8455.149414
1829.712891	8408.513672
1828.664063	8392.837891
1827.613281	8400.964844
1826.562500	8554.237305
1825.511719	8369.628906
1824.460938	8346.832031
1823.408203	8442.957031
1822.357422	8256.080078
1821.306641	8425.890625
1820.253906	8445.886719
1819.203125	8361.299805
1818.150391	8443.083984
1817.097656	8508.208984
1816.046875	8273.994141
1814.994141	8417.504883
1813.941406	8318.743164
1812.888672	8523.931641
1811.833984	8458.419922
1810.781250	8309.854492
1809.728516	8429.507813
1808.673828	8475.563477
1807.621094	8310.462891
1806.566406	8399.218750
1805.511719	8340.906250
1804.458984	8526.846680
1803.404297	8594.184570
1802.349609	8474.236328
1801.294922	8290.337891
1800.238281	8400.333984
1799.183594	8474.754883
1798.128906	8359.643555
1797.072266	8649.574219
1796.017578	8337.922852
1794.960938	8383.891602
1793.906250	8434.579102
1792.849609	8423.710938
1791.792969	8538.269531
1790.736328	8494.261719
1789.679688	8483.388672
1788.623047	8413.385742
1787.564453	8608.275391
1786.507813	8479.162109
1785.451172	8574.682617
1784.392578	8403.069336
1783.335938	8522.204102
1782.277344	8482.980469
1781.218750	8398.881836
1780.160156	8437.643555
1779.101563	8530.711914
1778.042969	8470.260742
1776.984375	8414.550781
1775.925781	8576.033203
1774.865234	8473.119141
1773.806641	8497.669922
1772.746094	8274.472656
1771.687500	8341.508789
1770.626953	8363.708984
1769.566406	8593.426758
1768.507813	8434.022461
1767.447266	8491.556641
1766.386719	8537.287109
1765.324219	8653.701172
1764.263672	8645.194336
1763.203125	8434.083008
1762.140625	8559.877930
1761.080078	8494.867188
1760.017578	8608.835938
1758.957031	8590.924805
1757.894531	8605.973633
1756.832031	8510.401367
1755.769531	8447.804688
1754.707031	8561.684570
1753.644531	8562.613281
1752.582031	8549.429688
1751.517578	8644.422852
1750.455078	8372.598633
1749.390625	8528.709961
1748.328125	8541.393555
1747.263672	8638.673828
1746.199219	8435.168945
1745.136719	8548.878906
1744.072266	8521.620117
1743.007813	8574.216797
1741.941406	8518.785156
1740.876953	8653.533203
1739.812500	8513.603516
1738.748047	8824.324219
1737.681641	8414.564453
1736.615234	8680.622070
1735.550781	8583.002930
1734.484375	8597.992188
1733.417969	8610.630859
1732.351563	8543.550781
1731.285156	8579.635742
1730.218750	8704.772461
1729.152344	8614.275391
1728.085938	8624.556641
1727.017578	8775.390625
1725.951172	8703.663086
1724.882813	8812.280273
1723.814453	8724.180664
1722.748047	8528.421875
1721.679688	8615.947266
1720.611328	8750.249023
1719.542969	8666.896484
1718.474609	8747.335938
1717.404297	8547.056641
1716.335938	8674.262695
1715.267578	8532.519531
1714.197266	8531.098633
1713.128906	8553.053711
1712.058594	8537.606445
1710.988281	8596.940430
1709.917969	8618.873047
1708.847656	8687.517578
1707.777344	8702.419922
1706.707031	8656.601563
1705.636719	8538.418945
1704.566406	8497.312500
1703.494141	8752.640625
1702.423828	8685.840820
1701.351563	8808.056641
1700.281250	8533.643555
1699.208984	8543.884766
1698.136719	8631.081055
1697.064453	8676.277344
1695.992188	8628.206055
1694.919922	8549.847656
1693.847656	8655.628906
1692.773438	8640.205078
1691.701172	8601.489258
1690.626953	8611.703125
1689.554688	8661.505859
1688.480469	8643.762695
1687.406250	8607.399414
1686.332031	8829.436523
1685.257813	8553.327148
1684.183594	8675.235352
1683.109375	8594.683594
1682.035156	8600.229492
1680.960938	8591.818359
1679.884766	8657.826172
1678.810547	8740.086914
1677.734375	8640.991211
1676.658203	8674.416016
1675.583984	8656.702148
1674.507813	8862.056641
1673.431641	8600.383789
1672.355469	8752.253906
1671.279297	8734.538086
1670.201172	8733.081055
1669.125000	8668.941406
1668.048828	8544.470703
1666.970703	8642.841797
1665.892578	8601.953125
1664.816406	8660.840820
1663.738281	8682.593750
1662.660156	8662.590820
1661.582031	8612.449219
1660.503906	8587.827148
1659.425781	8660.575195
1658.347656	8566.420898
1657.267578	8599.752930
1656.189453	8644.657227
1655.109375	8545.918945
1654.031250	8602.398438
1652.951172	8512.961914
1651.871094	8451.340820
1650.791016	8524.011719
1649.710938	8619.805664
1648.630859	8602.167969
1647.550781	8533.629883
1646.470703	8590.042969
1645.388672	8560.852539
1644.308594	8635.744141
1643.226563	8555.683594
1642.146484	8406.290039
1641.064453	8485.791992
1639.982422	8537.533203
1638.900391	8533.797852
1637.818359	8456.129883
1636.736328	8524.019531
1635.654297	8259.296875
1634.570313	8486.535156
1633.488281	8408.925781
1632.406250	8331.341797
1631.322266	8419.966797
1630.238281	8344.713867
1629.156250	8401.003906
1628.072266	8291.174805
1626.988281	8365.907227
1625.904297	8385.265625
1624.820313	8266.270508
1623.734375	8082.762695
1622.650391	8295.780273
1621.566406	8199.905273
1620.480469	8205.448242
1619.396484	8289.321289
1618.310547	8207.314453
1617.224609	8263.521484
1616.138672	8158.519043
1615.052734	8272.272461
1613.966797	8321.534180
1612.880859	8315.541016
1611.794922	8192.189453
1610.708984	8312.762695
1609.621094	8398.790039
1608.535156	8378.986328
1607.447266	8214.311523
1606.359375	8171.553223
1605.273438	8312.717773
1604.185547	8219.389648
1603.097656	8282.362305
1602.009766	8280.978516
1600.921875	8160.133301
1599.832031	8335.634766
1598.744141	8327.352539
1597.654297	8300.702148
1596.566406	8280.949219
1595.476563	8242.837891
1594.388672	8404.408203
1593.298828	8322.690430
1592.208984	8119.403809
1591.119141	8379.548828
1590.029297	8378.148438
1588.939453	8408.851563
1587.847656	8235.490234
1586.757813	8399.163086
1585.666016	8191.481934
1584.576172	8270.317383
1583.484375	8520.966797
1582.392578	8464.562500
1581.302734	8444.823242
1580.210938	8251.046875
1579.119141	8341.253906
1578.025391	8316.965820
1576.933594	8455.198242
1575.841797	8520.151367
1574.750000	8514.149414
1573.656250	8441.805664
1572.562500	8497.578125
1571.470703	8498.443359
1570.376953	8394.124023
1569.283203	8561.900391
1568.189453	8615.328125
1567.095703	8529.325195
1566.001953	8589.595703
1564.908203	8567.595703
1563.812500	8504.486328
1562.718750	8676.641602
1561.623047	8599.833008
1560.529297	8447.705078
1559.433594	8647.176758
1558.337891	8707.354492
1557.242188	8527.899414
1556.146484	8811.676758
1555.050781	8782.827148
1553.955078	8758.548828
1552.859375	8722.875000
1551.761719	8497.964844
1550.666016	8754.151367
1549.568359	9058.118164
1548.472656	8805.916016
1547.375000	8804.441406
1546.277344	8832.583984
1545.179688	8733.159180
1544.082031	8836.458984
1542.984375	8657.369141
1541.886719	8530.703125
1540.787109	8841.126953
1539.689453	8750.885742
1538.589844	8537.795898
1537.492188	8513.614258
1536.392578	8726.017578
1535.292969	8649.500977
1534.193359	8723.094727
1533.095703	8601.131836
1531.994141	8731.539063
1530.894531	8625.524414
1529.794922	8683.165039
1528.695313	8599.914063
1527.593750	8600.745117
1526.494141	8574.320313
1525.392578	8641.012695
1524.291016	8355.742188
1523.189453	8545.039063
1522.089844	8591.273438
1520.988281	8614.797852
1519.884766	8411.408203
1518.783203	8484.865234
1517.681641	8621.809570
1516.580078	8624.900391
1515.476563	8582.639648
1514.373047	8442.904297
1513.271484	8529.893555
1512.167969	8573.791992
1511.064453	8538.365234
1509.960938	8629.825195
1508.857422	8562.685547
1507.753906	8581.634766
1506.650391	8661.717773
1505.544922	8633.096680
1504.441406	8584.110352
1503.335938	8510.244141
1502.232422	8581.232422
1501.126953	8412.361328
1500.021484	8483.341797
1498.916016	8427.634766
1497.810547	8534.772461
1496.705078	8445.159180
1495.599609	8452.785156
1494.494141	8401.640625
1493.386719	8289.494141
1492.281250	8428.197266
1491.173828	8397.414063
1490.068359	8348.570313
1488.960938	8475.901367
1487.853516	8632.542969
1486.746094	8324.050781
1485.638672	8401.660156
1484.531250	8447.645508
1483.423828	8507.155273
1482.314453	8304.929688
1481.207031	8488.510742
1480.097656	8299.887695
1478.990234	8431.541992
1477.880859	8371.505859
1476.771484	8315.999023
1475.662109	8307.841797
1474.552734	8450.672852
1473.443359	8311.813477
1472.333984	8398.275391
1471.224609	8351.818359
1470.113281	8415.724609
1469.003906	8303.982422
1467.892578	8417.402344
1466.783203	8184.150391
1465.671875	8365.066406
1464.560547	8383.913086
1463.449219	8461.246094
1462.337891	8493.565430
1461.226563	8498.886719
1460.115234	8337.809570
1459.001953	8489.288086
1457.890625	8550.802734
1456.777344	8486.437500
1455.666016	8473.777344
1454.552734	8458.874023
1453.439453	8363.107422
1452.326172	8476.247070
1451.212891	8528.716797
1450.099609	8412.779297
1448.986328	8559.524414
1447.873047	8506.464844
1446.757813	8500.547852
1445.644531	8476.682617
1444.529297	8450.582031
1443.414063	8422.247070
1442.300781	8548.659180
1441.185547	8419.417969
1440.070313	8328.331055
1438.955078	8479.349609
1437.839844	8368.112305
1436.722656	8474.258789
1435.607422	8513.161133
1434.492188	8554.289063
1433.375000	8684.985352
1432.257813	8396.911133
1431.142578	8377.588867
1430.025391	8467.957031
1428.908203	8533.674805
1427.791016	8330.849609
1426.673828	8580.026367
1425.556641	8531.609375
1424.437500	8344.541992
1423.320313	8450.475586
1422.201172	8415.517578
1421.083984	8443.163086
1419.964844	8446.213867
1418.845703	8368.815430
1417.726563	8519.339844
1416.607422	8372.703125
1415.488281	8628.151367
1414.369141	8436.881836
1413.250000	8538.171875
1412.128906	8380.466797
1411.009766	8519.675781
1409.888672	8493.694336
1408.769531	8349.463867
1407.648438	8394.909180
1406.527344	8556.325195
1405.406250	8336.331055
1404.285156	8486.553711
1403.164063	8536.402344
1402.042969	8566.172852
1400.919922	8388.667969
1399.798828	8351.604492
1398.675781	8339.059570
1397.554688	8382.207031
1396.431641	8218.213867
1395.308594	8330.397461
1394.185547	8317.863281
1393.062500	8358.757813
1391.939453	8424.121094
1390.816406	8378.198242
1389.693359	8363.438477
1388.568359	8157.373535
1387.445313	8400.658203
1386.320313	8272.488281
1385.197266	8335.575195
1384.072266	8320.833984
1382.947266	8168.291992
1381.822266	8295.809570
1380.697266	8352.182617
1379.572266	8253.028320
1378.445313	8353.812500
1377.320313	8214.716797
1376.195313	8430.935547
1375.068359	8247.471680
1373.941406	8283.817383
1372.816406	8475.500977
1371.689453	8323.187500
1370.562500	8308.474609
1369.435547	8315.947266
1368.308594	8341.161133
1367.179688	8213.362305
1366.052734	8362.738281
1364.923828	8252.712891
1363.796875	8326.676758
1362.667969	8298.682617
1361.541016	8370.398438
1360.412109	8557.279297
1359.283203	8216.970703
1358.154297	8454.746094
1357.025391	8426.752930
1355.894531	8567.009766
1354.765625	8328.740234
1353.636719	8411.429688
1352.505859	8447.625977
1351.376953	8477.172852
1350.246094	8637.208008
1349.115234	8551.716797
1347.984375	8386.655273
1346.853516	8458.195313
1345.722656	8485.503906
1344.591797	8603.412109
1343.460938	8537.883789
1342.328125	8498.887695
1341.197266	8559.302734
1340.064453	8526.941406
1338.933594	8578.498047
1337.800781	8566.012695
1336.667969	8496.140625
1335.535156	8492.500977
1334.402344	8334.399414
1333.269531	8646.280273
1332.134766	8556.587891
1331.001953	8630.131836
1329.869141	8502.983398
1328.734375	8539.030273
1327.599609	8537.590820
1326.466797	8578.026367
1325.332031	8616.245117
1324.197266	8568.523438
1323.062500	8582.498047
1321.927734	8565.632813
1320.791016	8645.667969
1319.656250	8472.469727
1318.519531	8504.061523
1317.384766	8526.837891
1316.248047	8622.229492
1315.113281	8570.166992
1313.976563	8654.518555
1312.839844	8505.687500
1311.703125	8557.033203
1310.566406	8537.998047
1309.427734	8503.581055
1308.291016	8508.739258
1307.154297	8375.441406
1306.015625	8578.379883
1304.878906	8517.613281
1303.740234	8601.842773
1302.601563	8413.711914
1301.462891	8385.941406
1300.324219	8388.916992
1299.185547	8247.013672
1298.046875	8381.695313
1296.906250	8406.612305
1295.767578	8411.775391
1294.626953	8443.258789
1293.488281	8422.093750
1292.347656	8313.220703
1291.207031	8267.966797
1290.066406	8363.024414
1288.925781	8427.365234
1287.785156	8344.860352
1286.644531	8317.158203
1285.503906	8377.091797
1284.361328	8461.098633
1283.220703	8306.375000
1282.078125	8322.488281
1280.937500	8194.109375
1279.794922	8218.991211
1278.652344	8235.109375
1277.509766	8187.769043
1276.367188	8324.210938
1275.224609	8182.814941
1274.080078	8341.081055
1272.937500	8239.087891
1271.794922	8390.731445
1270.650391	8312.808594
1269.505859	8145.306641
1268.363281	8246.630859
1267.218750	8131.629883
1266.074219	8307.190430
1264.929688	8356.018555
1263.783203	8232.322266
1262.638672	8215.647461
1261.494141	8323.403320
1260.347656	8511.876953
1259.203125	8388.236328
1258.056641	8293.000977
1256.910156	8293.780273
1255.763672	8283.654297
1254.617188	8205.929688
1253.470703	8426.934570
1252.324219	8510.527344
1251.177734	8461.137695
1250.031250	8420.480469
1248.882813	8358.048828
1247.734375	8517.842773
1246.587891	8211.466797
1245.439453	8329.853516
1244.291016	8552.713867
1243.142578	8407.584961
1241.994141	8395.279297
1240.845703	8572.313477
1239.697266	8514.289063
1238.546875	8523.726563
1237.398438	8454.854492
1236.248047	8462.123047
1235.099609	8556.366211
1233.949219	8515.785156
1232.798828	8494.781250
1231.648438	8615.049805
1230.498047	8522.327148
1229.347656	8599.098633
1228.197266	8578.092773
1227.044922	8698.264648
1225.894531	8512.216797
1224.742188	8638.871094
1223.591797	8563.603516
1222.439453	8455.805664
1221.287109	8662.695313
1220.134766	8585.291016
1218.982422	8572.991211
1217.830078	8658.295898
1216.677734	8524.548828
1215.523438	8718.242188
1214.371094	8593.200195
1213.216797	8580.908203
1212.064453	8698.644531
1210.910156	8515.166992
1209.755859	8658.870117
1208.601563	8711.553711
1207.447266	8671.096680
1206.292969	8697.776367
1205.136719	8663.830078
1203.982422	8699.159180
1202.828125	8613.284180
1201.671875	8761.125000
1200.515625	8746.661133
1199.361328	8669.472656
1198.205078	8674.491211
1197.048828	8657.885742
1195.892578	8838.021484
1194.736328	8812.747070
1193.578125	8668.614258
1192.421875	8703.878906
1191.265625	8922.773438
1190.107422	8709.570313
1188.949219	8889.512695
1187.792969	8669.908203
1186.634766	8821.728516
1185.476563	8921.690430
1184.318359	8728.090820
1183.160156	8631.663086
1182.000000	8861.057617
1180.841797	8745.224609
1179.681641	8739.428711
1178.523438	8787.544922
1177.363281	8833.489258
1176.203125	8795.343750
1175.044922	8886.533203
1173.884766	8923.816406
1172.724609	8827.499023
1171.562500	8912.172852
1170.402344	8772.812500
1169.242188	8900.536133
1168.080078	8959.315430
1166.919922	9052.518555
1165.757813	8844.349609
1164.595703	8976.277344
1163.433594	9035.002930
1162.271484	8966.778320
1161.109375	9137.334961
1159.947266	8965.886719
1158.785156	9022.422852
1157.621094	9061.739258
1156.458984	9064.500977
1155.294922	9191.912109
1154.132813	9216.137695
1152.968750	9182.346680
1151.804688	9277.451172
1150.640625	9299.501953
1149.476563	9263.566406
1148.312500	9407.987305
1147.146484	9275.448242
1145.982422	9273.874023
1144.818359	9446.115234
1143.652344	9496.003906
1142.486328	9466.504883
1141.320313	9490.634766
1140.156250	9482.590820
1138.990234	9635.351563
1137.822266	9773.055664
1136.656250	9722.099609
1135.490234	9752.593750
1134.324219	9735.939453
1133.156250	9826.401367
1131.988281	9916.833008
1130.822266	9773.809570
1129.654297	10003.392578
1128.486328	9946.034180
1127.318359	9897.255859
1126.150391	10013.277344
1124.982422	10065.068359
1123.812500	10172.463867
1122.644531	10222.070313
1121.474609	10322.986328
1120.306641	10306.264648
1119.136719	10481.957031
1117.966797	10518.651367
1116.796875	10452.750000
1115.626953	10630.462891
1114.457031	10750.431641
1113.287109	10780.645508
1112.115234	10768.135742
1110.945313	10674.486328
1109.773438	11001.456055
1108.603516	10850.164063
1107.431641	10891.004883
1106.259766	11061.998047
1105.087891	11119.855469
1103.916016	11043.304688
1102.744141	11205.652344
1101.572266	11156.833984
1100.398438	11314.841797
1099.226563	11278.810547
1098.052734	11362.146484
1096.880859	11415.620117
1095.707031	11739.662109
1094.533203	11852.699219
1093.359375	11722.890625
1092.185547	11507.944336
1091.011719	11878.590820
1089.837891	11853.153320
1088.662109	12070.366211
1087.488281	12040.648438
1086.312500	11976.896484
1085.138672	11970.604492
1083.962891	12236.569336
1082.787109	12153.675781
1081.611328	12402.507813
1080.435547	12455.670898
1079.259766	12343.023438
1078.082031	12536.440430
1076.906250	12632.048828
1075.728516	12793.482422
1074.552734	12623.501953
1073.375000	12927.170898
1072.197266	13012.029297
1071.019531	12899.418945
1069.841797	13090.383789
1068.664063	13109.378906
1067.486328	13262.048828
1066.308594	13401.935547
1065.128906	13363.593750
1063.951172	13155.597656
1062.771484	13202.128906
1061.591797	13609.064453
1060.412109	13630.065430
1059.232422	13835.446289
1058.052734	13805.542969
1056.873047	13862.514648
1055.693359	13834.734375
1054.513672	14008.168945
1053.332031	14039.665039
1052.152344	14085.970703
1050.970703	14246.571289
1049.789063	14508.708984
1048.607422	14533.748047
1047.425781	14516.461914
1046.244141	14568.990234
1045.062500	14706.103516
1043.880859	14735.318359
1042.697266	14925.213867
1041.515625	14787.375977
1040.332031	14879.969727
1039.150391	15107.781250
1037.966797	15067.174805
1036.783203	15263.187500
1035.599609	15121.181641
1034.416016	15245.314453
1033.232422	15367.292969
1032.046875	15436.452148
1030.863281	15590.016602
1029.677734	15705.541992
1028.494141	15447.550781
1027.308594	15740.272461
1026.123047	15910.552734
1024.937500	15825.590820
1023.751953	16149.725586
1022.566406	16115.348633
1021.380859	16106.277344
1020.193359	16061.380859
1019.007813	16197.714844
1017.820313	16123.321289
1016.634766	16265.916992
1015.447266	16174.687500
1014.259766	16070.854492
1013.072266	16478.658203
1011.884766	16336.918945
1010.697266	16363.597656
1009.509766	16436.560547
1008.320313	16677.812500
1007.132813	16706.521484
1005.943359	16501.763672
1004.753906	16547.312500
1003.566406	16641.205078
1002.376953	16608.935547
1001.187500	16671.257813
999.998047	16472.980469
998.806641	16751.710938
997.617188	16687.933594
996.427734	16846.810547
995.236328	16606.638672
994.046875	16662.593750
992.855469	16561.083984
991.664063	16753.457031
990.472656	16500.869141
989.281250	16533.722656
988.089844	16665.162109
986.898438	16714.753906
985.705078	16638.501953
984.513672	16730.013672
983.320313	16668.458984
982.126953	16399.416016
980.935547	16744.500000
979.742188	16647.351563
978.548828	16495.765625
977.355469	16622.814453
976.162109	16605.316406
974.966797	16631.794922
973.773438	16480.312500
972.578125	16412.609375
971.384766	16441.199219
970.189453	16350.506836
968.994141	16310.056641
967.798828	16296.811523
966.603516	16519.898438
965.408203	16535.894531
964.212891	16221.559570
963.015625	16245.961914
961.820313	16516.970703
960.623047	16409.667969
959.427734	16360.901367
958.230469	16372.727539
957.033203	16169.430664
955.835938	16049.729492
954.638672	16337.193359
953.441406	16252.990234
952.244141	16281.518555
951.044922	16335.078125
949.847656	16202.929688
948.648438	16218.934570
947.449219	16364.245117
946.251953	16211.303711
945.052734	16283.590820
943.853516	16391.291016
942.654297	16113.367188
941.453125	16235.646484
940.253906	16080.771484
939.054688	16203.012695
937.853516	16225.236328
936.652344	16193.306641
935.453125	16098.923828
934.251953	16069.107422
933.050781	16249.523438
931.849609	16084.421875
930.646484	16318.869141
929.445313	15954.099609
928.244141	15936.810547
927.041016	16000.631836
925.839844	16078.986328
924.636719	15972.289063
923.433594	15776.250977
922.230469	15952.276367
921.027344	15812.409180
919.824219	15874.105469
918.621094	15777.917969
917.417969	15727.452148
916.212891	15880.492188
915.009766	15780.199219
913.804688	15742.210938
912.599609	15824.606445
911.394531	15767.947266
910.189453	15640.769531
908.984375	15563.417969
907.779297	15436.317383
906.574219	15545.647461
905.367188	15692.258789
904.162109	15461.555664
902.955078	15421.603516
901.750000	15379.591797
900.542969	15341.737305
899.335938	15024.249023
898.128906	15164.582031
896.921875	14903.141602
895.712891	14958.560547
894.505859	14937.368164
893.298828	14922.391602
892.089844	14897.072266
890.880859	14671.072266
889.673828	14445.148438
888.464844	14701.206055
887.255859	14512.576172
886.046875	14448.062500
884.835938	14513.804688
883.626953	14395.574219
882.417969	14506.764648
881.207031	14361.715820
879.998047	14317.938477
878.787109	14212.213867
877.576172	13961.968750
876.365234	13819.174805
875.154297	13944.796875
873.943359	13901.126953
872.732422	13758.415039
871.519531	13941.753906
870.308594	13578.347656
869.095703	13375.948242
867.884766	13524.198242
866.671875	13513.631836
865.458984	13470.083984
864.246094	13525.488281
863.033203	13323.267578
861.820313	13292.136719
860.605469	13199.211914
859.392578	13091.899414
858.177734	13151.437500
856.964844	12943.275391
855.750000	12938.996094
854.535156	12926.485352
853.320313	12844.005859
852.105469	12726.574219
850.890625	12796.396484
849.675781	12660.499023
848.458984	12654.213867
847.244141	12730.179688
846.027344	12725.940430
844.810547	12573.702148
843.595703	12787.338867
842.378906	12456.372070
841.162109	12365.891602
839.943359	12337.066406
838.726563	12357.540039
837.509766	12361.579102
836.291016	12351.245117
835.074219	12182.855469
833.855469	12283.381836
832.636719	12164.309570
831.417969	12195.046875
830.199219	12010.387695
828.980469	12201.115234
827.761719	12344.613281
826.542969	12336.342773
825.322266	12184.582031
824.103516	12200.935547
822.882813	12168.102539
821.664063	12147.573242
820.443359	12141.389648
819.222656	12235.567383
818.001953	12227.322266
816.779297	12067.569336
815.558594	12120.767578
814.337891	11934.480469
813.115234	12020.423828
811.894531	12130.890625
810.671875	12237.227539
809.449219	12278.076172
808.226563	12038.750000
807.003906	12110.288086
805.781250	12046.878906
804.558594	12288.035156
803.333984	12245.051758
802.111328	12255.207031
800.886719	12322.558594
799.664063	12240.782227
798.439453	12271.352539
797.214844	12301.912109
795.990234	11940.500977
794.765625	12158.887695
793.541016	12332.302734
792.314453	12220.000977
791.089844	12262.781250
789.863281	12246.394531
788.638672	12154.557617
787.412109	12250.339844
786.185547	12425.596680
784.958984	12070.833008
783.732422	12402.981445
782.505859	12343.795898
781.279297	12327.412109
780.050781	12172.523438
778.824219	12139.881836
777.595703	12376.029297
776.367188	12422.760742
775.140625	12424.694336
773.912109	12212.936523
772.683594	12485.533203
771.453125	12416.249023
770.224609	12491.408203
768.996094	12562.473633
767.765625	12401.707031
766.537109	12273.523438
765.306641	12401.503906
764.076172	12525.375977
762.845703	12383.011719
761.615234	12458.083008
760.384766	12575.786133
759.154297	12348.185547
757.921875	12425.253906
756.691406	12165.272461
755.458984	12652.384766
754.228516	12378.246094
752.996094	12518.160156
751.763672	12578.898438
750.531250	12566.590820
749.298828	12554.286133
748.066406	12562.262695
746.832031	12527.660156
745.599609	12744.430664
744.365234	12594.282227
743.132813	12628.588867
741.898438	12638.570313
740.664063	12788.321289
739.429688	12913.716797
738.195313	12662.415039
736.960938	12702.751953
735.724609	12793.681641
734.490234	12852.197266
733.255859	12868.195313
732.019531	12770.883789
730.783203	13078.190430
729.546875	12940.424805
728.310547	12913.927734
727.074219	12895.527344
725.837891	12784.142578
724.601563	12982.036133
723.363281	12789.839844
722.126953	12805.820313
720.888672	12704.625977
719.650391	12884.216797
718.414063	13124.328125
717.175781	13105.913086
715.937500	12954.266602
714.697266	13032.769531
713.458984	13028.503906
712.220703	13088.805664
710.980469	13046.202148
709.742188	12981.425781
708.501953	13156.652344
707.261719	13396.339844
706.021484	13174.290039
704.781250	13123.643555
703.541016	13020.616211
702.300781	13133.220703
701.058594	13219.596680
699.818359	13098.476563
698.576172	13128.439453
697.335938	13077.849609
696.093750	13146.054688
694.851563	13308.837891
693.609375	13294.466797
692.367188	13247.906250
691.123047	13303.961914
689.880859	13293.620117
688.638672	13305.403320
687.394531	13413.698242
686.150391	13314.883789
684.908203	13284.445313
683.664063	13286.171875
682.419922	13239.671875
681.175781	13319.755859
679.929688	13433.959961
678.685547	13493.898438
677.439453	13549.799805
676.195313	13290.484375
674.949219	13350.415039
673.703125	13440.428711
672.458984	13486.265625
671.212891	13574.217773
669.964844	13481.608398
668.718750	13401.063477
667.472656	13430.832031
666.224609	13580.880859
664.978516	13524.414063
663.730469	13750.551758
662.482422	13541.783203
661.234375	13465.315430
659.986328	13487.027344
658.738281	13660.941406
657.490234	13450.328125
656.242188	13444.000000
654.992188	13609.823242
653.744141	13649.500000
652.494141	13707.172852
651.244141	13714.807617
649.994141	13472.394531
648.744141	13708.067383
647.494141	13473.737305
646.244141	13321.458984
644.994141	13774.922852
643.742188	13528.708984
642.492188	13466.421875
641.240234	13428.130859
639.988281	13655.532227
638.738281	13755.030273
637.486328	13658.797852
636.232422	13566.590820
634.980469	13624.130859
633.728516	13831.340820
632.474609	13491.706055
631.222656	13537.256836
629.968750	13550.874023
628.714844	13821.775391
627.462891	13631.935547
626.208984	13701.353516
624.953125	13655.127930
623.699219	13816.200195
622.445313	13807.831055
621.191406	13755.631836
619.935547	13922.578125
618.679688	13880.334961
617.425781	13780.355469
616.169922	13899.423828
614.914063	13912.944336
613.658203	14284.721680
612.400391	14085.239258
611.144531	14176.315430
609.888672	14237.519531
608.630859	14334.503906
607.373047	14178.898438
606.117188	14472.697266
604.859375	14325.072266
603.601563	14481.599609
602.343750	14600.315430
601.083984	14715.014648
599.826172	14714.453125
598.568359	14910.526367
597.308594	15058.871094
596.048828	15040.378906
594.791016	15291.877930
593.531250	14789.049805
592.271484	15034.550781
591.011719	15180.757813
589.750000	15380.476563
588.490234	15359.961914
587.230469	15504.051758
585.968750	15447.831055
584.707031	15528.416992
583.447266	15716.006836
582.185547	15806.426758
580.923828	15661.026367
579.662109	15941.604492
578.398438	15984.398438
577.136719	15743.983398
575.875000	15842.236328
574.611328	16241.368164
573.347656	16032.701172
572.085938	16305.002930
570.822266	15946.018555
569.558594	15923.470703
568.292969	16104.662109
567.029297	16109.781250
565.765625	16439.171875
564.500000	16088.379883
563.236328	16287.204102
561.970703	16290.308594
560.705078	16398.134766
559.439453	16677.798828
558.173828	16329.240234
556.908203	16371.831055
555.642578	16361.093750
554.376953	16115.428711
553.109375	16171.849609
551.843750	16092.077148
550.576172	16296.468750
549.308594	16390.310547
548.041016	16245.448242
546.773438	16518.730469
545.505859	16366.006836
544.238281	16436.111328
542.968750	16614.603516
541.701172	16406.757813
540.431641	16604.896484
539.164063	16574.433594
537.894531	16677.923828
536.625000	16606.099609
535.355469	16555.958984
534.085938	16661.365234
532.814453	16652.568359
531.544922	16659.517578
530.273438	16658.593750
529.003906	16787.515625
527.732422	16745.259766
526.460938	16854.453125
525.189453	16704.050781
523.917969	16734.572266
522.646484	17032.412109
521.375000	17055.003906
520.101563	17103.130859
518.830078	17253.402344
517.556641	17032.369141
516.283203	17013.703125
515.011719	16995.035156
513.738281	17188.410156
512.462891	17161.869141
511.189453	17270.753906
509.916016	17420.808594
508.642578	17409.935547
507.367188	17463.794922
506.091797	17319.552734
504.818359	17567.535156
503.542969	17284.125000
502.267578	17712.365234
500.992188	17593.656250
499.714844	17727.763672
498.439453	17642.398438
497.164063	17813.667969
495.886719	17865.410156
494.609375	18013.082031
493.333984	17649.712891
492.056641	17607.494141
490.779297	17890.175781
489.501953	17779.441406
488.222656	17786.130859
486.945313	17722.398438
485.666016	17560.900391
484.388672	17737.746094
483.109375	17535.242188
481.830078	17643.613281
480.550781	17505.689453
479.271484	17701.960938
477.992188	17610.962891
476.712891	17369.585938
475.433594	17356.798828
474.152344	17523.666016
472.871094	17329.283203
471.591797	17706.916016
470.310547	17358.384766
469.029297	17386.585938
467.748047	17352.343750
466.466797	17441.005859
465.183594	17180.527344
463.902344	17315.986328
462.619141	17168.699219
461.337891	17315.808594
460.054688	17361.517578
458.771484	17374.085938
457.488281	17298.974609
456.205078	17327.128906
454.921875	17400.070313
453.638672	17060.160156
452.353516	17382.330078
451.070313	17246.933594
449.785156	17310.103516
448.500000	17266.226563
447.214844	17391.626953
445.929688	17382.763672
444.644531	17657.857422
443.359375	17345.595703
442.072266	17406.734375
440.787109	17621.417969
439.500000	17587.251953
438.214844	17696.894531
436.927734	17907.529297
435.640625	17780.085938
434.353516	17978.978516
433.066406	17736.996094
431.777344	18040.666016
430.490234	18190.876953
429.203125	17974.212891
427.914063	18454.267578
426.625000	18270.615234
425.335938	18370.242188
424.046875	18345.707031
422.757813	18491.824219
421.468750	18546.765625
420.179688	18419.468750
418.888672	18751.556641
417.599609	18723.095703
416.308594	18727.582031
415.017578	18685.574219
413.728516	18662.949219
412.437500	18921.115234
411.144531	18830.691406
409.853516	18976.462891
408.562500	18812.511719
407.269531	18809.230469
405.978516	18951.056641
404.685547	18644.044922
403.392578	18973.457031
402.099609	18792.242188
400.806641	18758.029297
399.513672	18764.421875
398.220703	18770.812500
396.927734	18854.496094
395.632813	18619.357422
394.337891	18722.353516
393.044922	18722.949219
391.750000	18677.199219
390.455078	18422.945313
389.160156	18354.097656
387.865234	18590.218750
386.568359	18469.261719
385.273438	18263.455078
383.976563	18536.119141
382.681641	18135.570313
381.384766	17960.779297
380.087891	18295.048828
378.791016	17975.712891
377.494141	18088.216797
376.197266	17853.816406
374.898438	17810.238281
373.601563	17955.455078
372.302734	17886.835938
371.005859	17970.367188
369.707031	17711.160156
368.408203	17817.791016
367.109375	17885.890625
365.810547	17851.976563
364.509766	18004.701172
363.210938	17680.306641
361.910156	17721.453125
360.611328	17943.345703
359.310547	17767.173828
358.009766	18106.240234
356.708984	17649.490234
355.408203	17757.861328
354.107422	17689.433594
352.804688	17816.966797
351.503906	17617.949219
350.201172	17730.087891
348.900391	17853.705078
347.597656	17794.916016
346.294922	17626.746094
344.992188	17629.421875
343.689453	17697.328125
342.386719	17345.107422
341.082031	17530.033203
339.779297	17503.957031
338.474609	17295.748047
337.169922	17438.410156
335.867188	17412.361328
334.562500	17298.171875
333.257813	17193.601563
331.951172	17211.666016
330.646484	17076.503906
329.341797	17399.054688
328.035156	17371.121094
326.728516	17417.851563
325.423828	17366.957031
324.117188	17333.300781
322.810547	17085.371094
321.503906	17135.943359
320.195313	17178.847656
318.888672	16911.951172
317.580078	16951.052734
316.273438	16934.705078
314.964844	16786.486328
313.656250	17087.384766
312.347656	16941.099609
311.039063	16800.597656
309.730469	16921.800781
308.421875	16913.109375
307.111328	17051.431641
305.802734	16939.638672
304.492188	17314.570313
303.181641	17281.005859
301.871094	17194.033203
300.560547	17234.896484
299.250000	17386.363281
297.939453	16935.197266
296.628906	17181.992188
295.316406	17177.076172
294.005859	17393.246094
292.693359	17165.341797
291.380859	17175.671875
290.068359	17220.285156
288.755859	17007.765625
287.443359	17248.527344
286.130859	17256.929688
284.816406	17232.966797
283.503906	17191.882813
282.189453	17320.169922
280.875000	17149.708984
279.560547	17072.515625
278.246094	16974.429688
276.931641	17328.947266
275.617188	17135.787109
274.300781	16969.306641
272.986328	17144.984375
271.669922	17189.484375
270.355469	17266.267578
269.039063	17168.261719
267.722656	17087.382813
266.406250	16888.800781
265.089844	17028.230469
263.771484	17175.205078
262.455078	16879.916016
261.136719	17246.982422
259.820313	17118.740234
258.501953	17055.037109
257.183594	17150.666016
255.865234	17179.894531
254.546875	17152.234375
253.228516	16946.398438
251.908203	17195.492188
250.589844	17158.367188
249.269531	17219.771484
247.949219	17148.558594
246.628906	17117.140625
245.310547	17316.748047
243.988281	17234.193359
242.667969	17113.808594
241.347656	17479.857422
240.025391	17650.876953
238.705078	17401.830078
237.382813	17483.896484
236.060547	17518.652344
234.738281	17574.195313
233.416016	17417.972656
232.093750	17551.011719
230.771484	17434.535156
229.449219	17669.562500
228.125000	17836.492188
226.800781	17635.023438
225.478516	17630.037109
224.154297	17653.376953
222.830078	17621.957031
221.505859	17526.369141
220.181641	17619.542969
218.855469	17440.960938
217.531250	17588.826172
216.205078	17515.943359
214.878906	17631.681641
213.554688	17707.779297
212.228516	17616.060547
210.902344	17761.875000
209.574219	17766.292969
208.248047	17693.451172
206.921875	17543.394531
205.593750	17828.505859
204.265625	17653.992188
202.939453	17739.388672
201.611328	17907.589844
200.283203	17718.093750
198.955078	17989.746094
197.625000	18076.902344
196.296875	18273.142578
194.968750	18264.287109
193.638672	18059.847656
192.308594	18412.050781
190.978516	18414.453125
189.648438	18213.851563
188.318359	18601.546875
186.988281	18603.912109
185.658203	18820.443359
184.326172	18896.023438
182.996094	18808.189453
181.664063	18992.648438
180.332031	18942.373047
179.000000	18985.966797
177.667969	18943.216797
176.335938	19136.900391
175.003906	18835.246094
173.669922	19038.257813
172.337891	19008.652344
171.003906	19269.685547
169.669922	19264.419922
168.335938	19341.626953
167.001953	19195.794922
165.667969	19042.519531
164.333984	19301.441406
163.000000	19359.853516
161.664063	19330.228516
160.328125	19401.720703
158.994141	19229.818359
157.658203	19393.017578
156.322266	19466.330078
154.986328	19477.871094
153.650391	19566.107422
152.312500	19628.126953
150.976563	19869.650391
149.638672	19826.886719
148.302734	20055.203125
146.964844	19991.859375
145.626953	20158.394531
144.289063	20345.423828
142.949219	20381.070313
141.611328	20534.373047
140.273438	20693.222656
138.933594	20764.261719
137.595703	20867.009766
136.255859	21016.382813
134.916016	20885.783203
133.576172	21046.292969
132.236328	21152.646484
130.894531	21268.289063
129.554688	21495.777344
128.212891	21523.683594
126.873047	21685.800781
125.531250	21680.113281
124.189453	21521.621094
122.847656	21808.482422
121.505859	21875.423828
120.164063	21681.589844
118.820313	21575.347656
117.478516	21979.291016
116.134766	21636.615234
114.792969	21882.201172
113.449219	21859.732422
112.105469	21790.757813
110.761719	21729.246094
109.417969	22080.654297
108.072266	22002.375000
106.728516	22440.992188
105.382813	22238.130859
104.039063	22342.003906
102.693359	22211.701172
101.347656	22267.234375
100.001953	22527.083984
98.654297	22701.408203
97.308594	22602.697266
95.962891	22739.810547
94.615234	23099.628906
93.269531	23245.884766
91.921875	23345.697266
90.574219	23475.158203
89.226563	23151.957031
87.878906	22986.515625
86.529297	23299.546875
85.181641	23176.777344
83.832031	23662.052734
82.484375	23661.580078
81.134766	23360.919922
79.785156	23280.833984
78.435547	23021.097656
77.085938	23252.240234
75.736328	23333.310547
74.384766	23532.841797
73.035156	23232.515625
71.683594	23047.041016
70.332031	23102.181641
68.982422	22443.175781
67.630859	22385.568359
66.279297	22263.250000
64.925781	22102.144531
63.574219	21708.150391
62.220703	21698.769531
60.869141	21626.554688
59.515625	20976.007813
58.162109	20264.726563
56.808594	19633.121094
55.455078	18765.347656
54.101563	18213.626953
52.748047	17743.332031
51.392578	17182.755859
