#Wave		#Intensity
4002.114258	5970.587402
4001.416016	6077.971680
4000.717773	6001.837891
4000.018555	6033.078125
3999.320313	6042.841797
3998.621094	6113.414551
3997.921875	5969.367676
3997.223633	5968.408203
3996.524414	6021.081055
3995.824219	5945.040527
3995.125000	5965.531250
3994.425781	6050.342285
3993.725586	6110.113770
3993.026367	6237.745117
3992.326172	6015.277832
3991.625977	6010.739746
3990.925781	5927.643555
3990.225586	6183.752441
3989.525391	6043.539551
3988.825195	6031.861328
3988.125000	6130.812012
3987.423828	5922.882813
3986.723633	6128.841797
3986.022461	6006.583984
3985.321289	6116.173828
3984.620117	6182.939453
3983.918945	6160.555176
3983.217773	6081.145020
3982.516602	6179.959961
3981.814453	5804.808105
3981.113281	6067.525879
3980.411133	6048.739746
3979.708984	6136.810547
3979.006836	6207.046875
3978.304688	6070.748535
3977.602539	6073.333496
3976.900391	5994.050293
3976.198242	5932.587402
3975.495117	6152.247070
3974.792969	6090.777832
3974.089844	5965.299805
3973.386719	6010.576660
3972.683594	5956.271484
3971.980469	6150.862305
3971.277344	6139.209473
3970.574219	6038.703613
3969.870117	5948.891113
3969.166992	6065.188965
3968.462891	5971.848145
3967.759766	5882.089355
3967.055664	6033.855469
3966.351563	6079.046875
3965.647461	6081.621094
3964.943359	6251.029785
3964.238281	6037.077637
3963.534180	6110.627930
3962.829102	6077.714355
3962.125000	6062.548828
3961.419922	6132.512207
3960.714844	5982.583008
3960.009766	6116.359375
3959.304688	6001.932129
3958.599609	5983.245605
3957.893555	6166.572754
3957.188477	5942.345703
3956.482422	6153.963867
3955.777344	6096.298340
3955.071289	6049.276855
3954.365234	6005.811523
3953.659180	5902.169922
3952.953125	5929.541992
3952.246094	6126.799316
3951.540039	6009.032227
3950.833008	6018.682129
3950.126953	5982.338379
3949.419922	6186.534180
3948.712891	6033.466309
3948.005859	5954.704102
3947.298828	6027.993164
3946.591797	5970.466309
3945.884766	6110.881348
3945.176758	6063.961426
3944.469727	5953.458008
3943.761719	5994.893555
3943.053711	5887.968750
3942.345703	5925.870117
3941.637695	6270.950684
3940.929688	5969.861816
3940.221680	6028.910156
3939.513672	6119.702637
3938.804688	5861.126465
3938.095703	5994.253906
3937.387695	6032.094238
3936.678711	6006.437012
3935.969727	5783.308594
3935.260742	5902.258789
3934.551758	5925.988281
3933.841797	6037.827637
3933.132813	5888.844238
3932.422852	6028.841797
3931.713867	5985.597656
3931.003906	6220.640625
3930.293945	6029.460449
3929.583984	6151.738281
3928.874023	6147.229980
3928.164063	6012.476074
3927.453125	6036.148438
3926.743164	6010.545898
3926.032227	6083.469238
3925.322266	5991.026855
3924.611328	6060.412109
3923.900391	6006.687500
3923.189453	6076.047852
3922.478516	5969.602539
3921.766602	5996.765137
3921.055664	5995.802246
3920.344727	6131.884766
3919.632813	5793.613281
3918.920898	6010.479492
3918.208984	5851.462402
3917.497070	6043.667480
3916.785156	6028.652832
3916.073242	5901.303711
3915.361328	5872.276367
3914.648438	5980.126953
3913.936523	5908.989258
3913.223633	6006.274414
3912.510742	6107.035645
3911.797852	5976.288574
3911.084961	6006.889160
3910.372070	5886.718262
3909.659180	6050.533203
3908.945313	6095.126465
3908.232422	6080.130859
3907.518555	6054.627930
3906.804688	5955.564453
3906.091797	6087.711914
3905.377930	6111.250000
3904.663086	6127.776855
3903.949219	6249.329590
3903.235352	5936.785156
3902.520508	6005.830566
3901.806641	6043.359375
3901.091797	6122.861328
3900.376953	6188.345215
3899.662109	6047.445801
3898.947266	6008.007324
3898.232422	5975.574219
3897.517578	6030.550781
3896.802734	6036.573730
3896.086914	6185.883789
3895.372070	6115.005371
3894.656250	6051.137207
3893.940430	5927.905273
3893.224609	6028.239258
3892.508789	5992.351563
3891.792969	6110.100586
3891.076172	5924.101074
3890.360352	5954.563965
3889.643555	6054.812500
3888.927734	5938.696289
3888.210938	6283.123047
3887.494141	6076.315430
3886.777344	6113.703613
3886.060547	6001.138672
3885.342773	6055.958984
3884.625977	6002.698730
3883.909180	6127.207520
3883.191406	6129.708984
3882.473633	6163.567871
3881.755859	5977.945313
3881.038086	6168.556152
3880.320313	6045.678223
3879.602539	6086.491699
3878.884766	6123.810547
3878.166016	6091.500488
3877.448242	5940.870605
3876.729492	6131.303223
3876.010742	6036.381348
3875.291992	6285.874023
3874.573242	6006.620117
3873.854492	6040.431641
3873.135742	5997.739258
3872.416016	6090.639648
3871.697266	6117.469238
3870.977539	6074.784180
3870.257813	6153.728516
3869.539063	6180.534668
3868.819336	6325.434570
3868.099609	6053.521973
3867.378906	5920.596191
3866.659180	6079.355469
3865.938477	6120.036621
3865.218750	6278.712402
3864.498047	6100.722168
3863.777344	6196.895020
3863.056641	6168.147949
3862.335938	6302.433594
3861.615234	6249.401855
3860.894531	6206.790039
3860.173828	5890.304199
3859.452148	6294.924316
3858.730469	6110.226563
3858.009766	6116.177246
3857.288086	6167.166504
3856.566406	6294.350586
3855.844727	6127.088867
3855.122070	6133.032227
3854.400391	6270.547363
3853.678711	5999.511719
3852.956055	6233.922363
3852.233398	6167.166992
3851.510742	5996.625488
3850.788086	6054.478516
3850.065430	6416.717773
3849.342773	6097.498047
3848.620117	6176.055176
3847.896484	6178.521973
3847.173828	6198.272461
3846.450195	6079.761719
3845.727539	6206.651855
3845.003906	6101.998535
3844.280273	6007.742676
3843.555664	6131.128906
3842.832031	6271.743164
3842.108398	6136.068359
3841.383789	6055.677246
3840.660156	6009.830566
3839.935547	6184.887695
3839.210938	6107.977539
3838.486328	6200.155273
3837.761719	6137.065918
3837.037109	6018.809570
3836.312500	6107.508789
3835.586914	6134.113770
3834.862305	6043.494629
3834.136719	6204.532715
3833.411133	6196.645020
3832.685547	6112.950684
3831.959961	6191.212402
3831.234375	6172.995605
3830.508789	6154.784668
3829.782227	6164.128906
3829.056641	6052.961426
3828.330078	6186.250000
3827.603516	6123.302246
3826.876953	6149.851563
3826.150391	6152.306152
3825.423828	6048.109863
3824.697266	6122.815430
3823.970703	6125.272461
3823.243164	6337.488770
3822.516602	6308.967285
3821.789063	5922.946777
3821.061523	6128.218750
3820.333984	6065.379883
3819.606445	6157.177246
3818.878906	6159.625000
3818.151367	6162.072266
3817.422852	6075.227539
3816.695313	6287.144043
3815.966797	6128.210449
3815.238281	6189.014648
3814.509766	6143.405762
3813.781250	6187.030273
3813.052734	6175.745605
3812.324219	6267.376465
3811.595703	6026.280762
3810.866211	6292.801270
3810.136719	6106.639160
3809.408203	6026.811035
3808.678711	6173.234375
3807.949219	5939.200195
3807.219727	6373.422852
3806.489258	6173.691406
3805.759766	6107.617676
3805.030273	6079.239258
3804.299805	6177.571289
3803.569336	6156.038086
3802.839844	6083.162109
3802.109375	6191.714355
3801.378906	6149.655762
3800.647461	6237.631836
3799.916992	6038.209473
3799.186523	6129.595703
3798.455078	6029.433594
3797.723633	6202.857910
3796.993164	6082.202637
3796.261719	6204.287598
3795.530273	6271.648926
3794.798828	6181.794922
3794.066406	6293.555176
3793.334961	6060.248047
3792.602539	6312.031250
3791.871094	6222.227539
3791.138672	6129.038574
3790.406250	6254.372559
3789.673828	6144.140625
3788.941406	6341.102051
3788.208984	6244.540527
3787.476563	6192.362793
3786.743164	6143.613281
3786.010742	6224.484375
3785.277344	6213.256348
3784.543945	6236.127441
3783.810547	6149.901855
3783.077148	6162.549805
3782.343750	6171.786133
3781.610352	6163.981934
3780.875977	6312.895508
3780.142578	6216.506836
3779.408203	6341.523438
3778.673828	6279.212891
3777.939453	6264.587891
3777.205078	6001.466309
3776.470703	6252.369141
3775.736328	6268.381836
3775.000977	6260.572266
3774.266602	6211.941406
3773.531250	6214.347168
3772.795898	6128.330078
3772.061523	6059.341309
3771.326172	6173.961914
3770.589844	6142.379395
3769.854492	6307.929688
3769.119141	6211.771484
3768.382813	6265.136719
3767.647461	6427.190430
3766.911133	6188.405762
3766.174805	6272.312500
3765.438477	6091.351074
3764.702148	6314.435547
3763.965820	6422.041504
3763.229492	6414.224609
3762.492188	6403.016602
3761.755859	6405.383301
3761.018555	6207.612305
3760.281250	6186.268066
3759.543945	6232.750977
3758.806641	6428.401855
3758.069336	6254.483398
3757.332031	6294.153809
3756.593750	6266.034180
3755.856445	6210.816406
3755.118164	6450.354004
3754.379883	6174.953125
3753.641602	6353.458984
3752.903320	6284.717285
3752.165039	6463.147949
3751.426758	6353.789551
3750.688477	6359.540527
3749.949219	6500.648926
3749.210938	5995.473145
3748.471680	6204.252441
3747.732422	6399.435547
3746.993164	6435.609863
3746.253906	6336.521484
3745.514648	6338.886719
3744.774414	6165.480469
3744.035156	6303.058594
3743.294922	6349.355957
3742.554688	6429.424316
3741.815430	6340.564941
3741.075195	6420.608398
3740.334961	6409.448730
3739.593750	6334.140625
3738.853516	6309.494629
3738.113281	6362.488770
3737.372070	6320.971680
3736.630859	6451.554199
3735.890625	6325.693359
3735.149414	6348.291504
3734.408203	6232.604980
3733.666016	6417.070801
3732.924805	6321.639160
3732.183594	6418.385254
3731.441406	6353.317871
3730.699219	6301.750977
3729.958008	6368.128906
3729.215820	6316.575684
3728.473633	6339.141602
3727.731445	6388.642090
3726.988281	6370.782227
3726.246094	6285.594238
3725.502930	6372.106934
3724.760742	6441.763184
3724.017578	6538.317871
3723.274414	6258.014648
3722.531250	6415.119141
3721.788086	6356.912598
3721.044922	6345.805176
3720.300781	6405.311035
3719.557617	6501.777832
3718.813477	6268.806641
3718.070313	6456.004395
3717.326172	6303.760254
3716.582031	6356.504883
3715.837891	6600.703125
3715.092773	6384.695313
3714.348633	6497.846191
3713.604492	6446.442383
3712.859375	6408.482422
3712.114258	6508.148926
3711.369141	6500.394531
3710.624023	6495.997559
3709.878906	6414.440430
3709.133789	6493.916016
3708.388672	6419.092773
3707.642578	6562.252441
3706.897461	6477.383789
3706.151367	6442.824707
3705.405273	6532.285645
3704.659180	6470.919922
3703.913086	6644.110840
3703.166992	6485.596191
3702.420898	6598.438477
3701.673828	6604.079102
3700.927734	6482.479004
3700.180664	6702.398438
3699.433594	6554.042969
3698.687500	6399.041016
3697.940430	6408.054199
3697.192383	6467.250488
3696.445313	6439.452637
3695.698242	6562.172363
3694.950195	6480.862793
3694.202148	6473.137207
3693.455078	6595.791992
3692.707031	6708.379883
3691.958984	6573.626465
3691.210938	6515.769043
3690.461914	6564.838379
3689.713867	6533.723633
3688.964844	6616.171875
3688.216797	6544.987305
3687.467773	6627.407227
3686.718750	6636.359863
3685.969727	6595.244629
3685.220703	6624.222168
3684.471680	6639.843750
3683.721680	6555.377930
3682.972656	6457.597168
3682.222656	6643.322754
3681.473633	6565.565430
3680.723633	6434.490234
3679.973633	6453.459961
3679.223633	6609.070313
3678.472656	6741.304688
3677.722656	6626.943359
3676.972656	6599.231934
3676.221680	6541.552246
3675.470703	6753.636230
3674.719727	6486.181641
3673.968750	6808.067871
3673.217773	6783.676758
3672.466797	6769.277832
3671.715820	6565.213867
3670.963867	6667.298828
3670.212891	6493.254883
3669.460938	6658.510742
3668.708984	6717.301270
3667.957031	6726.199707
3667.205078	6851.446289
3666.453125	6621.006836
3665.701172	6626.592285
3664.948242	6771.730957
3664.196289	6847.056641
3663.443359	6696.484863
3662.690430	6695.412109
3661.937500	6900.216797
3661.184570	6869.230469
3660.431641	6874.769043
3659.678711	6760.821289
3658.924805	6852.655762
3658.171875	6579.486328
3657.417969	6774.159668
3656.664063	6826.144531
3655.910156	6951.072266
3655.156250	6940.010742
3654.402344	6885.854492
3653.648438	6772.049316
3652.893555	6933.361816
3652.139648	6756.625000
3651.384766	6898.008789
3650.629883	6837.276367
3649.875000	7077.964355
3649.120117	6868.201172
3648.365234	6883.656250
3647.610352	6882.553223
3646.854492	6835.110840
3646.099609	6850.562988
3645.343750	6991.749023
3644.587891	6752.424805
3643.832031	6906.812500
3643.076172	6885.862305
3642.320313	7155.916504
3641.564453	6959.700195
3640.808594	7209.821777
3640.051758	6954.165039
3639.294922	7237.253906
3638.539063	6879.246094
3637.782227	7023.503418
3637.025391	7071.924316
3636.267578	7103.816895
3635.510742	7122.491211
3634.753906	7038.812500
3633.996094	7093.801758
3633.239258	7086.063965
3632.481445	7193.826172
3631.723633	7192.673828
3630.965820	7211.314941
3630.208008	7154.087891
3629.449219	7067.198730
3628.691406	7257.308594
3627.933594	7193.507813
3627.174805	7297.834473
3626.416016	7102.219238
3625.657227	7140.623535
3624.898438	7162.541992
3624.139648	7401.864746
3623.380859	7130.604980
3622.621094	7224.961426
3621.862305	7141.490723
3621.102539	7183.142578
3620.342773	7007.543945
3619.583984	7296.024414
3618.824219	7331.049805
3618.063477	7237.758789
3617.303711	7486.590820
3616.543945	7311.083008
3615.783203	7326.353516
3615.023438	7384.359863
3614.262695	7337.155273
3613.501953	7536.470215
3612.741211	7209.928711
3611.980469	7392.771484
3611.219727	7499.997070
3610.458008	7511.934082
3609.697266	7346.525879
3608.935547	7470.124512
3608.173828	7265.378906
3607.412109	7592.467285
3606.650391	7505.918945
3605.888672	7416.116699
3605.126953	7441.176270
3604.365234	7564.640137
3603.602539	7461.751465
3602.839844	7565.496094
3602.078125	7541.332031
3601.315430	7441.774414
3600.552734	7338.970703
3599.790039	7475.439941
3599.026367	7470.965820
3598.263672	7430.454590
3597.500000	7547.188965
3596.737305	7640.959473
3595.973633	7472.729004
3595.209961	7464.983398
3594.446289	7381.947754
3593.682617	7564.056641
3592.918945	7510.484375
3592.154297	7486.376953
3591.390625	7468.820313
3590.625977	7569.023926
3589.861328	7623.408691
3589.096680	7560.059082
3588.332031	7640.583008
3587.567383	7672.047363
3586.802734	7536.815918
3586.038086	7819.909668
3585.272461	7596.479980
3584.506836	7598.529785
3583.742188	7692.034180
3582.976563	7579.767090
3582.210938	7627.530762
3581.445313	7531.632813
3580.678711	7540.218750
3579.913086	7682.610840
3579.146484	7730.327148
3578.380859	7523.544922
3577.614258	7672.395020
3576.847656	7628.765625
3576.081055	7568.845215
3575.314453	7417.649414
3574.547852	7592.500000
3573.780273	7594.542969
3573.013672	7573.772949
3572.246094	7608.401855
3571.478516	7626.730469
3570.710938	7426.809082
3569.943359	7656.855469
3569.175781	7626.321777
3568.408203	7589.286133
3567.639648	7431.816895
3566.872070	7551.052246
3566.103516	7585.639160
3565.334961	7525.856934
3564.567383	7459.587402
3563.798828	7598.257324
3563.029297	7652.326660
3562.260742	7475.512695
3561.492188	7529.583984
3560.722656	7482.869141
3559.953125	7767.676758
3559.184570	7373.236328
3558.415039	7602.736816
3557.645508	7364.377441
3556.875000	7389.181152
3556.105469	7618.567871
3555.335938	7591.371582
3554.565430	7619.373535
3553.794922	7592.185547
3553.025391	7552.024414
3552.254883	7466.447754
3551.484375	7400.364746
3550.712891	7506.225586
3549.942383	7543.942871
3549.171875	7458.421387
3548.400391	7356.716309
3547.628906	7650.537109
3546.858398	7668.758789
3546.086914	7544.382813
3545.315430	7488.090820
3544.542969	7551.684570
3543.771484	7498.648438
3543.000000	7571.935547
3542.227539	7318.149414
3541.455078	7488.569824
3540.682617	7380.546387
3539.911133	7508.826172
3539.137695	7277.864258
3538.365234	7364.057129
3537.592773	7385.522461
3536.819336	7410.215332
3536.046875	7454.303711
3535.273438	7304.370605
3534.500000	7403.420898
3533.726563	7302.029785
3532.953125	7449.527344
3532.179688	7335.235352
3531.406250	7405.139160
3530.631836	7319.963867
3529.857422	7318.791016
3529.083984	7327.306641
3528.309570	7419.767578
3527.535156	7473.459473
3526.760742	7439.984375
3525.985352	7409.747070
3525.210938	7256.903809
3524.436523	7410.599121
3523.661133	7435.217285
3522.885742	7463.052734
3522.110352	7416.711914
3521.334961	7425.195801
3520.559570	7343.415527
3519.784180	7326.123535
3519.008789	7228.271973
3518.232422	7375.329102
3517.456055	7396.698730
3516.680664	7279.555664
3515.904297	7291.271484
3515.127930	7399.583984
3514.351563	7279.276855
3513.574219	7397.212891
3512.797852	7386.372070
3512.020508	7443.111816
3511.244141	7361.483398
3510.466797	7373.171387
3509.689453	7317.311523
3508.912109	7341.866211
3508.134766	7379.273926
3507.356445	7210.919434
3506.579102	7225.835449
3505.800781	7459.287109
3505.023438	7194.600586
3504.245117	7257.703613
3503.466797	7568.131836
3502.688477	7457.719238
3501.910156	7222.103027
3501.130859	7256.263672
3500.352539	7540.810547
3499.573242	7308.503418
3498.794922	7422.863281
3498.015625	7203.483887
3497.236328	7301.782715
3496.457031	7274.951660
3495.677734	7411.692871
3494.897461	7311.099609
3494.118164	7313.134277
3493.337891	7263.878906
3492.557617	7554.376953
3491.777344	7399.347656
3490.998047	7465.446777
3490.216797	7377.754883
3489.436523	7562.348633
3488.656250	7164.024902
3487.875000	7262.139160
3487.094727	7433.855469
3486.313477	7266.213867
3485.532227	7383.466309
3484.750977	7334.284180
3483.969727	7349.105957
3483.188477	7389.514648
3482.406250	7378.735352
3481.625000	7572.624512
3480.842773	7306.027832
3480.060547	7375.188477
3479.278320	7466.701172
3478.496094	7570.967773
3477.713867	7445.136230
3476.931641	7309.760742
3476.148438	7442.750488
3475.366211	7233.960449
3474.583008	7440.365234
3473.799805	7413.630859
3473.016602	7428.403809
3472.233398	7455.939453
3471.450195	7426.023438
3470.666992	7383.354004
3469.882813	7487.447754
3469.099609	7342.710938
3468.315430	7558.399902
3467.531250	7423.263672
3466.747070	7466.708496
3465.962891	7506.951660
3465.178711	7247.589355
3464.394531	7526.852539
3463.609375	7379.083984
3462.825195	7330.117188
3462.040039	7590.121582
3461.254883	7286.368164
3460.469727	7390.275391
3459.684570	7446.395508
3458.899414	7387.906738
3458.113281	7373.992676
3457.328125	7487.364746
3456.541992	7412.989258
3455.755859	7675.827148
3454.969727	7560.098145
3454.183594	7415.786133
3453.397461	7471.828613
3452.611328	7677.265625
3451.824219	7421.756348
3451.038086	7391.965332
3450.250977	7317.698730
3449.463867	7389.596191
3448.676758	7410.646973
3447.889648	7498.385254
3447.102539	7484.481934
3446.315430	7340.411133
3445.527344	7415.420410
3444.740234	7474.536133
3443.952148	7384.483398
3443.164063	7497.523438
3442.375977	7315.496582
3441.587891	7412.651855
3440.799805	7481.233887
3440.011719	7527.597168
3439.222656	7447.132324
3438.434570	7455.448242
3437.645508	7542.994629
3436.856445	7437.214355
3436.067383	7382.161133
3435.278320	7415.823730
3434.489258	7319.616211
3433.699219	7464.115234
3432.910156	7320.436523
3432.120117	7458.557129
3431.330078	7264.280273
3430.540039	7551.108887
3429.750000	7518.256348
3428.959961	7441.121094
3428.169922	7341.868164
3427.378906	7182.555176
3426.588867	7421.732422
3425.797852	7363.632324
3425.006836	7438.320801
3424.215820	7497.181641
3423.424805	7574.984863
3422.633789	7327.314941
3421.842773	7503.054688
3421.050781	7514.486816
3420.259766	7304.843262
3419.467773	7480.501465
3418.675781	7406.687500
3417.883789	7563.333008
3417.091797	7524.247070
3416.299805	7251.655762
3415.506836	7398.784668
3414.714844	7378.670898
3413.921875	7465.803223
3413.128906	7366.844727
3412.336914	7617.912598
3411.543945	7310.888672
3410.750000	7303.412598
3409.957031	7302.241699
3409.164063	7332.582031
3408.370117	7523.592285
3407.576172	7434.184082
3406.783203	7410.945313
3405.989258	7551.465332
3405.195313	7421.163574
3404.400391	7256.274902
3403.606445	7453.407715
3402.812500	7464.800781
3402.017578	7299.983887
3401.222656	7301.959473
3400.427734	7414.028320
3399.633789	7453.725098
3398.837891	7480.831055
3398.042969	7360.158691
3397.248047	7352.691895
3396.452148	7282.366699
3395.657227	7331.479492
3394.861328	7474.836426
3394.065430	7272.581543
3393.269531	7327.953613
3392.473633	7380.167480
3391.677734	7432.364258
3390.880859	7186.292480
3390.084961	7527.289551
3389.288086	7165.157227
3388.491211	7346.011230
3387.694336	7401.308105
3386.897461	7469.135254
3386.100586	7185.655273
3385.302734	7266.038086
3384.505859	7396.562988
3383.708008	7298.192871
3382.911133	7381.653320
3382.113281	7280.183105
3381.315430	7225.747070
3380.517578	7337.375000
3379.718750	7448.966797
3378.920898	7272.383301
3378.123047	7499.812988
3377.324219	7232.479980
3376.525391	7488.016602
3375.726563	7201.991699
3374.927734	7297.849121
3374.128906	7353.000000
3373.330078	7298.637695
3372.530273	7294.339355
3371.731445	7433.904297
3370.931641	7492.124023
3370.131836	7281.451660
3369.332031	7345.928711
3368.532227	7391.632324
3367.732422	7224.826172
3366.932617	7358.017578
3366.131836	7381.829102
3365.332031	7393.139160
3364.531250	7317.003418
3363.730469	7300.218262
3362.929688	7177.292480
3362.128906	7547.590332
3361.327148	7537.017578
3360.526367	7473.400391
3359.725586	7465.962402
3358.923828	7268.241699
3358.122070	7332.573242
3357.320313	7474.844727
3356.518555	7314.632324
3355.716797	7416.333984
3354.915039	7493.067383
3354.112305	7307.997559
3353.310547	7447.041504
3352.507813	7349.269531
3351.705078	7500.721680
3350.902344	7477.718262
3350.099609	7358.189941
3349.296875	7378.803711
3348.493164	7390.072266
3347.690430	7236.378418
3346.886719	7381.478027
3346.083008	7271.394531
3345.279297	7456.883789
3344.475586	7586.325684
3343.671875	7457.602051
3342.868164	7465.734375
3342.063477	7352.615234
3341.259766	7320.352051
3340.455078	7328.501465
3339.650391	7501.342285
3338.845703	7531.208496
3338.041016	7265.953613
3337.236328	7469.780273
3336.431641	7518.269043
3335.625977	7349.396484
3334.821289	7292.337891
3334.015625	7185.633789
3333.209961	7345.860840
3332.404297	7211.255371
3331.598633	7604.110352
3330.791992	7177.922852
3329.986328	7316.336914
3329.180664	7358.577148
3328.374023	7304.688965
3327.567383	7464.715332
3326.760742	7460.418457
3325.954102	7341.460938
3325.147461	7544.782715
3324.339844	7354.595703
3323.533203	7443.243164
3322.725586	7516.376465
3321.918945	7282.934570
3321.111328	7362.261719
3320.303711	7342.507813
3319.496094	7465.129883
3318.687500	7389.664551
3317.879883	7422.513184
3317.071289	7285.208008
3316.263672	7271.667480
3315.455078	7384.923828
3314.646484	7464.131836
3313.837891	7401.104004
3313.029297	7356.642090
3312.219727	7194.754395
3311.411133	7363.552246
3310.601563	7402.534668
3309.792969	7277.785645
3308.983398	7443.399414
3308.173828	7485.437988
3307.364258	7354.559570
3306.553711	7310.161133
3305.744141	7484.922363
3304.933594	7230.664063
3304.124023	7519.547852
3303.313477	7299.300781
3302.502930	7304.298828
3301.692383	7284.622559
3300.881836	7357.459961
3300.070313	7285.368164
3299.259766	7462.990723
3298.448242	7390.904297
3297.637695	7251.045898
3296.826172	7329.991699
3296.014648	7331.896484
3295.203125	7429.284180
3294.390625	7258.711914
3293.579102	7316.051270
3292.766602	7262.540039
3291.955078	7390.657227
3291.142578	7537.199219
3290.330078	7526.758301
3289.517578	7402.483887
3288.705078	7438.209961
3287.891602	7270.929199
3287.079102	7205.183594
3286.265625	7551.468750
3285.453125	7356.582031
3284.639648	7416.875488
3283.826172	7532.467773
3283.012695	7313.095703
3282.198242	7416.377930
3281.384766	7335.322754
3280.570313	7315.717773
3279.756836	7339.109863
3278.942383	7288.808105
3278.127930	7358.243164
3277.313477	7277.261230
3276.499023	7082.759766
3275.683594	7302.540039
3274.869141	7316.707031
3274.053711	7278.725586
3273.238281	7375.695313
3272.423828	7429.705566
3271.608398	7161.785645
3270.791992	7332.295410
3269.976563	7539.528320
3269.161133	7550.575684
3268.344727	7273.616211
3267.528320	7269.385254
3266.712891	7255.967285
3265.896484	7386.485352
3265.080078	7440.414063
3264.262695	7362.684570
3263.446289	7376.807617
3262.629883	7430.711426
3261.812500	7310.181152
3260.995117	7223.343262
3260.177734	7206.889160
3259.360352	7315.837402
3258.542969	7210.691895
3257.725586	7365.465820
3256.907227	7428.480469
3256.089844	7433.401367
3255.271484	7368.031738
3254.453125	7284.350098
3253.634766	7292.346191
3252.816406	7254.520996
3251.998047	7522.112793
3251.179688	7227.763672
3250.360352	7400.628418
3249.541992	7255.969238
3248.722656	7489.814941
3247.903320	7345.187988
3247.083984	7102.971680
3246.264648	7287.918945
3245.444336	7503.307617
3244.625000	7377.068359
3243.804688	7299.655273
3242.985352	7341.164551
3242.165039	7215.011230
3241.344727	7341.855469
3240.524414	7453.422852
3239.703125	7522.300293
3238.882813	7387.059082
3238.061523	7224.450195
3237.241211	7454.728027
3236.419922	7410.904785
3235.598633	7242.280762
3234.777344	7292.862305
3233.956055	7288.647949
3233.134766	7436.574707
3232.312500	7474.930176
3231.490234	7400.726563
3230.668945	7475.571777
3229.846680	7319.288574
3229.024414	7442.768066
3228.202148	7259.181152
3227.378906	7409.984375
3226.556641	7439.183105
3225.733398	7465.334473
3224.911133	7497.552734
3224.087891	7338.402832
3223.264648	7589.290039
3222.441406	7320.864258
3221.618164	7510.954102
3220.793945	7348.868164
3219.970703	7283.953613
3219.146484	7568.026367
3218.322266	7512.198730
3217.498047	7344.148926
3216.673828	7461.257813
3215.849609	7563.166504
3215.025391	7407.316895
3214.201172	7412.190430
3213.375977	7744.419434
3212.550781	7434.054688
3211.725586	7387.409180
3210.900391	7313.512207
3210.075195	7651.601074
3209.250000	7553.455078
3208.424805	7676.396973
3207.598633	7460.198730
3206.772461	7595.224609
3205.947266	7563.737793
3205.121094	7377.923340
3204.294922	7543.153809
3203.467773	7554.043457
3202.641602	7567.954102
3201.815430	7494.155762
3200.988281	7571.570801
3200.161133	7606.634277
3199.333984	7671.914551
3198.506836	7631.392090
3197.679688	7714.777832
3196.852539	7520.171875
3196.024414	7603.548340
3195.197266	7499.633789
3194.369141	7474.270020
3193.541016	7566.671387
3192.712891	7405.452148
3191.884766	7488.779297
3191.056641	7517.756348
3190.227539	7676.475098
3189.399414	7642.055176
3188.570313	7496.034668
3187.741211	7730.081055
3186.913086	7575.046387
3186.083008	7540.664063
3185.253906	7581.656738
3184.424805	7616.607910
3183.594727	7636.479492
3182.765625	7599.095215
3181.935547	7453.267578
3181.105469	7611.714355
3180.275391	7721.923340
3179.445313	7530.978027
3178.615234	7493.640137
3177.784180	7676.059570
3176.954102	7623.660645
3176.123047	7688.639160
3175.291992	7633.246094
3174.460938	7668.119141
3173.629883	7708.996582
3172.798828	7653.626465
3171.966797	7613.307617
3171.135742	7642.147949
3170.303711	7547.738281
3169.471680	7549.530762
3168.639648	7527.283691
3167.807617	7532.083008
3166.975586	7569.923828
3166.143555	7580.721191
3165.310547	7624.547852
3164.478516	7599.302734
3163.645508	7712.157715
3162.812500	7608.866699
3161.979492	7625.650391
3161.146484	7651.430176
3160.312500	7737.202637
3159.479492	7729.960449
3158.645508	7590.758789
3157.812500	7631.520020
3156.978516	7648.282227
3156.144531	7739.980957
3155.310547	7582.883301
3154.475586	7698.536621
3153.641602	7553.480469
3152.807617	7717.032227
3151.972656	7664.872559
3151.137695	7576.792480
3150.302734	7701.334961
3149.467773	7685.128418
3148.632813	7659.946777
3147.796875	7697.622559
3146.961914	7525.820313
3146.125977	7584.448242
3145.290039	7523.401367
3144.455078	7659.774902
3143.618164	7637.610352
3142.782227	7714.122070
3141.946289	7709.892578
3141.109375	7541.269043
3140.273438	7531.091309
3139.436523	7452.191406
3138.599609	7669.085938
3137.762695	7575.253906
3136.925781	7708.433105
3136.088867	7647.471680
3135.250977	7705.955566
3134.414063	7612.176270
3133.576172	7769.141113
3132.738281	7758.939941
3131.900391	7507.059082
3131.062500	7759.428711
3130.224609	7573.249512
3129.385742	7533.262207
3128.547852	7702.014648
3127.708984	7703.757813
3126.870117	7452.127441
3126.031250	7805.593750
3125.192383	7664.284180
3124.353516	7803.084473
3123.514648	7801.829590
3122.674805	7526.557617
3121.835938	7659.356445
3120.996094	7497.339844
3120.156250	7656.893555
3119.316406	7759.841309
3118.476563	7526.460938
3117.635742	7668.079102
3116.795898	7759.074219
3115.955078	7641.816406
3115.114258	7581.104492
3114.274414	7770.200684
3113.433594	7572.720215
3112.591797	7473.403320
3111.750977	7597.035156
3110.910156	7753.316895
3110.068359	7695.615723
3109.226563	7792.415039
3108.384766	7612.942383
3107.542969	7828.517090
3106.701172	7729.269043
3105.859375	7677.554688
3105.017578	7658.509766
3104.174805	7606.823242
3103.332031	7727.265625
3102.490234	7631.079590
3101.647461	7597.220703
3100.803711	7818.451172
3099.960938	7680.778320
3099.118164	7774.425293
3098.274414	7669.414063
3097.431641	7819.351074
3096.587891	7572.110840
3095.744141	7588.671875
3094.900391	7877.794922
3094.056641	7609.928711
3093.211914	7632.398926
3092.368164	7580.829590
3091.523438	7733.571289
3090.678711	7581.351563
3089.833984	7745.882813
3088.989258	7673.612305
3088.144531	7722.678711
3087.299805	7564.641113
3086.454102	7714.278809
3085.609375	7665.718750
3084.763672	7800.506348
3083.917969	7639.600586
3083.072266	7812.777344
3082.226563	7684.431641
3081.380859	7916.646484
3080.534180	7664.231934
3079.688477	7624.595215
3078.841797	7549.527344
3077.995117	7524.687500
3077.148438	7798.078125
3076.301758	7646.260254
3075.455078	7615.512695
3074.607422	7661.507813
3073.760742	7760.602051
3072.913086	7780.005859
3072.065430	7681.409180
3071.217773	7821.743164
3070.370117	7873.564941
3069.522461	7801.536133
3068.673828	7644.039063
3067.826172	7781.340820
3066.977539	7715.254883
3066.128906	7778.836914
3065.280273	7815.883789
3064.431641	7673.238281
3063.583008	7651.388184
3062.734375	7676.658691
3061.884766	7637.148926
3061.035156	7797.822754
3060.186523	7566.997559
3059.336914	7724.687988
3058.487305	7682.252930
3057.636719	7731.027344
3056.787109	7859.201172
3055.937500	7843.231934
3055.086914	7865.492676
3054.236328	7673.133789
3053.385742	7736.565918
3052.535156	7832.306641
3051.684570	7757.583984
3050.833984	7812.157715
3049.982422	7755.086914
3049.130859	7554.118652
3048.280273	7670.366699
3047.428711	7754.279297
3046.577148	7714.867676
3045.725586	7696.015137
3044.873047	7662.494629
3044.021484	7717.011719
3043.168945	7724.570801
3042.316406	7688.127930
3041.464844	7754.345215
3040.612305	7600.615723
3039.758789	7587.664551
3038.906250	7812.160156
3038.053711	7781.593750
3037.200195	7762.758301
3036.346680	7776.158691
3035.493164	7810.061035
3034.639648	7882.029297
3033.786133	7681.618164
3032.932617	7604.251465
3032.079102	7831.381348
3031.224609	7751.087891
3030.370117	7782.033203
3029.515625	7804.189941
3028.661133	7709.310059
3027.806641	7737.321289
3026.952148	7744.850098
3026.097656	7717.284180
3025.242188	7748.204102
3024.386719	7697.259277
3023.532227	7772.015625
3022.676758	7662.633789
3021.820313	7556.209473
3020.964844	7855.906738
3020.109375	7626.801758
3019.252930	7666.461426
3018.397461	7799.550781
3017.541016	7955.954102
3016.684570	7870.018066
3015.828125	7708.223633
3014.970703	7730.327637
3014.114258	7688.234863
3013.256836	7587.809570
3012.400391	7755.761719
3011.542969	7807.006836
3010.685547	7852.403320
3009.828125	7842.392578
3008.970703	7750.767090
3008.112305	7743.689941
3007.254883	7730.786621
3006.396484	7618.828125
3005.538086	7815.687988
3004.679688	7697.926270
3003.821289	7682.125977
3002.962891	7730.386719
3002.104492	7708.763184
3001.245117	7751.182129
3000.385742	7802.317871
2999.527344	7806.880371
2998.667969	7837.625000
2997.808594	7644.380371
2996.948242	7736.216309
2996.088867	7563.405273
2995.229492	7701.742676
2994.369141	7732.478516
2993.508789	7777.736328
2992.648438	7738.705566
2991.788086	7603.803711
2990.927734	7704.256348
2990.067383	7842.436523
2989.206055	7658.212402
2988.344727	7726.666504
2987.484375	7783.485840
2986.623047	7753.204590
2985.761719	7865.144043
2984.899414	7768.117676
2984.038086	7880.018066
2983.176758	7858.442383
2982.314453	7755.662109
2981.452148	8096.604492
2980.589844	7863.342773
2979.727539	7743.216797
2978.865234	7820.229492
2978.002930	7816.071289
2977.139648	7843.788086
2976.276367	7677.387695
2975.414063	7910.780273
2974.550781	7918.193848
2973.687500	7954.562500
2972.824219	7750.612305
2971.959961	7836.207520
2971.096680	7988.343750
2970.232422	7900.240723
2969.368164	8046.530762
2968.503906	7779.084473
2967.639648	7850.142578
2966.775391	7811.281250
2965.911133	7997.971680
2965.045898	7869.476074
2964.181641	7853.754883
2963.316406	7878.500000
2962.451172	7955.251465
2961.585938	7968.415039
2960.720703	8013.350586
2959.854492	7633.695801
2958.989258	7730.650879
2958.123047	7980.603027
2957.256836	7863.841797
2956.391602	7923.188965
2955.524414	7910.367676
2954.658203	7779.246094
2953.791992	7835.692383
2952.924805	7779.623047
2952.058594	7838.934570
2951.191406	7981.852051
2950.324219	7911.369629
2949.457031	7757.311523
2948.589844	7828.116699
2947.722656	7956.533691
2946.854492	7940.844727
2945.986328	8020.227539
2945.119141	7828.830566
2944.250977	7902.445801
2943.382813	7817.667969
2942.513672	7784.738770
2941.645508	8016.643066
2940.777344	8095.935547
2939.908203	8126.283691
2939.039063	7992.625977
2938.169922	8080.513672
2937.300781	7828.982422
2936.431641	7913.991699
2935.562500	7789.079102
2934.692383	7951.686523
2933.822266	7875.671875
2932.953125	8124.428223
2932.083008	7898.992676
2931.212891	8087.333008
2930.341797	8068.793945
2929.471680	8185.245605
2928.601563	8132.237305
2927.730469	8047.664551
2926.859375	8014.789551
2925.988281	8065.160156
2925.117188	8026.553223
2924.246094	8111.335938
2923.375000	8018.226563
2922.502930	8117.324219
2921.630859	8101.675781
2920.759766	8086.032227
2919.887695	8162.135254
2919.015625	8140.753418
2918.142578	8165.234375
2917.270508	8186.841309
2916.397461	8090.973633
2915.525391	8040.969727
2914.652344	8139.917969
2913.779297	7880.873047
2912.906250	8168.787598
2912.033203	8072.998535
2911.159180	8043.073242
2910.286133	8044.637695
2909.412109	8074.814941
2908.538086	8145.035156
2907.664063	8123.698242
2906.790039	8122.387695
2905.916016	8141.093750
2905.041992	8054.008301
2904.166992	8067.001953
2903.291992	8062.842285
2902.417969	8258.721680
2901.542969	8177.386719
2900.666992	8147.500000
2899.791992	8269.006836
2898.916992	8036.348633
2898.041016	8115.002930
2897.165039	8327.812500
2896.290039	8126.656250
2895.414063	8156.739258
2894.538086	8098.352051
2893.661133	7982.921875
2892.785156	8138.527832
2891.908203	8219.926758
2891.032227	8047.498535
2890.155273	8157.398438
2889.278320	8176.037109
2888.401367	8046.453125
2887.523438	7780.117676
2886.646484	7995.416504
2885.768555	7999.824219
2884.891602	7995.684570
2884.013672	8125.402832
2883.135742	7987.408691
2882.256836	8114.238770
2881.378906	8127.162109
2880.500977	8063.234375
2879.622070	8172.916016
2878.743164	8214.276367
2877.865234	8201.571289
2876.985352	8140.515625
2876.106445	8028.290039
2875.227539	8024.150879
2874.348633	8091.086426
2873.468750	8158.000488
2872.588867	8088.474609
2871.708984	8021.812012
2870.829102	8017.675781
2869.949219	8118.645996
2869.069336	8154.257813
2868.188477	8059.229492
2867.308594	8157.303711
2866.427734	8039.594238
2865.546875	8024.104492
2864.666016	8068.215332
2863.785156	8041.375488
2862.903320	8014.544434
2862.022461	8191.952637
2861.140625	7898.512695
2860.258789	8152.444336
2859.376953	7961.170898
2858.495117	8047.761719
2857.613281	8086.142090
2856.731445	8124.509277
2855.848633	8049.530273
2854.965820	8031.233398
2854.083984	8137.568359
2853.201172	7906.864746
2852.318359	8273.684570
2851.434570	8062.850098
2850.551758	8109.668457
2849.667969	8029.114746
2848.785156	7846.717773
2847.901367	8145.348633
2847.017578	8121.402832
2846.133789	8049.383301
2845.249023	8214.926758
2844.365234	8018.509277
2843.480469	8096.368652
2842.596680	8261.823242
2841.711914	8201.142578
2840.827148	7985.074219
2839.942383	8317.148438
2839.056641	8140.675781
2838.171875	7938.841797
2837.286133	8250.996094
2836.401367	8049.208984
2835.515625	8104.365234
2834.629883	8114.345703
2833.743164	8087.637207
2832.857422	8193.546875
2831.971680	8107.592285
2831.084961	8227.566406
2830.198242	8282.639648
2829.311523	8098.023926
2828.424805	8127.727051
2827.538086	8151.782227
2826.651367	8040.552246
2825.763672	8081.520508
2824.876953	8235.169922
2823.989258	8059.190430
2823.101563	8181.812500
2822.213867	8304.394531
2821.325195	8179.168457
2820.437500	8242.593750
2819.549805	8168.081055
2818.661133	8265.257813
2817.772461	8232.970703
2816.883789	7970.005859
2815.995117	8039.038574
2815.106445	8330.225586
2814.216797	8351.374023
2813.328125	8122.296387
2812.438477	8129.416992
2811.548828	8316.409180
2810.659180	8216.711914
2809.769531	8232.242188
2808.879883	8188.773438
2807.989258	8313.842773
2807.099609	8270.375000
2806.208984	8145.493652
2805.318359	8200.324219
2804.427734	8184.964355
2803.537109	8315.544922
2802.646484	8157.064453
2801.754883	8388.606445
2800.863281	8370.419922
2799.972656	8422.355469
2799.081055	8418.189453
2798.189453	8251.407227
2797.296875	8210.827148
2796.405273	8316.007813
2795.513672	8118.496582
2794.621094	8246.072266
2793.728516	8339.989258
2792.835938	8299.426758
2791.943359	8211.267578
2791.050781	8089.534668
2790.157227	8331.796875
2789.264648	8263.269531
2788.371094	8275.926758
2787.477539	8277.386719
2786.583984	8152.942871
2785.690430	8154.421875
2784.796875	8416.016602
2783.903320	8258.051758
2783.008789	8374.149414
2782.114258	8305.701172
2781.219727	8377.031250
2780.325195	8272.273438
2779.430664	8620.214844
2778.536133	8300.329102
2777.640625	8421.893555
2776.746094	8333.952148
2775.850586	8321.434570
2774.955078	8359.176758
2774.059570	8318.743164
2773.164063	8300.651367
2772.267578	8528.139648
2771.372070	8406.782227
2770.475586	8469.585938
2769.579102	8457.058594
2768.683594	8341.349609
2767.786133	8331.634766
2766.889648	8494.774414
2765.993164	8459.950195
2765.095703	8531.043945
2764.199219	8451.640625
2763.301758	8494.850586
2762.404297	8415.477539
2761.506836	8483.746094
2760.608398	8262.377930
2759.710938	8411.393555
2758.812500	8496.332031
2757.914063	8391.971680
2757.016602	8616.033203
2756.118164	8514.468750
2755.218750	8476.924805
2754.320313	8419.920898
2753.421875	8404.652344
2752.522461	8578.476563
2751.623047	8404.712891
2750.723633	8386.673828
2749.824219	8502.049805
2748.924805	8495.116211
2748.025391	8529.861328
2747.125000	8497.922852
2746.224609	8557.653320
2745.325195	8697.901367
2744.424805	8593.756836
2743.523438	8514.631836
2742.623047	8646.490234
2741.722656	8348.132813
2740.821289	8374.530273
2739.919922	8578.481445
2739.019531	8388.462891
2738.118164	8536.875000
2737.215820	8435.663086
2736.314453	8584.018555
2735.413086	8441.248047
2734.510742	8520.261719
2733.608398	8488.398438
2732.706055	8362.337891
2731.803711	8421.931641
2730.901367	8473.197266
2729.999023	8488.442383
2729.095703	8691.975586
2728.193359	8593.667969
2727.290039	8556.291016
2726.386719	8579.815430
2725.483398	8420.693359
2724.579102	8341.860352
2723.675781	8426.265625
2722.771484	8640.640625
2721.868164	8465.018555
2720.963867	8521.712891
2720.059570	8481.629883
2719.155273	8375.220703
2718.250000	8492.701172
2717.345703	8369.745117
2716.440430	8525.866211
2715.536133	8372.558594
2714.630859	8470.629883
2713.725586	8599.044922
2712.819336	8525.866211
2711.914063	8416.825195
2711.007813	8636.268555
2710.102539	8414.099609
2709.196289	8790.744141
2708.290039	8403.097656
2707.383789	8503.792969
2706.477539	8626.518555
2705.570313	8638.908203
2704.664063	8590.640625
2703.756836	8614.057617
2702.849609	8386.666016
2701.942383	8456.953125
2701.035156	8507.930664
2700.127930	8454.212891
2699.219727	8529.962891
2698.312500	8357.844727
2697.404297	8417.064453
2696.496094	8473.512695
2695.587891	8395.070313
2694.679688	8396.461914
2693.770508	8615.228516
2692.862305	8509.289063
2691.953125	8634.442383
2691.043945	8677.047852
2690.134766	8447.407227
2689.225586	8643.993164
2688.316406	8733.306641
2687.406250	8682.418945
2686.497070	8562.846680
2685.586914	8360.885742
2684.676758	8529.853516
2683.766602	8542.204102
2682.856445	8601.237305
2681.946289	8575.130859
2681.035156	8463.927734
2680.124023	8544.902344
2679.213867	8592.917969
2678.302734	8660.125977
2677.391602	8439.236328
2676.479492	8657.319336
2675.568359	8543.465820
2674.657227	8553.049805
2673.745117	8672.302734
2672.833008	8539.311523
2671.920898	8518.741211
2671.008789	8594.092773
2670.096680	8485.838867
2669.183594	8744.723633
2668.270508	8562.523438
2667.358398	8626.863281
2666.445313	8792.497070
2665.532227	8656.919922
2664.619141	8526.860352
2663.705078	8555.583984
2662.791992	8633.554688
2661.877930	8536.394531
2660.963867	8679.996094
2660.049805	8790.728516
2659.135742	8559.588867
2658.221680	8552.732422
2657.306641	8668.899414
2656.392578	8672.960938
2655.477539	8625.094727
2654.562500	8629.161133
2653.647461	8778.023438
2652.732422	8604.509766
2651.817383	8747.865234
2650.901367	8645.410156
2649.986328	8854.238281
2649.070313	8738.150391
2648.154297	8592.076172
2647.238281	8653.447266
2646.321289	8638.401367
2645.405273	8686.105469
2644.489258	8698.334961
2643.572266	8666.924805
2642.655273	8586.444336
2641.738281	8724.091797
2640.821289	8654.530273
2639.903320	8852.080078
2638.986328	8711.671875
2638.068359	8582.207031
2637.151367	8806.912109
2636.233398	8658.407227
2635.315430	8654.279297
2634.396484	8481.342773
2633.478516	8703.195313
2632.559570	8731.723633
2631.641602	8719.421875
2630.722656	8688.076172
2629.803711	8817.251953
2628.884766	8927.344727
2627.965820	8779.035156
2627.045898	8696.034180
2626.125977	8656.560547
2625.207031	8660.592773
2624.287109	8765.184570
2623.367188	8848.002930
2622.447266	8737.886719
2621.526367	8546.309570
2620.606445	8569.368164
2619.685547	8796.094727
2618.764648	8672.480469
2617.843750	8852.964844
2616.922852	8770.097656
2616.001953	8923.367188
2615.080078	8767.250977
2614.159180	8806.523438
2613.237305	8636.913086
2612.315430	8817.225586
2611.393555	8723.595703
2610.471680	8770.982422
2609.548828	8791.245117
2608.626953	8852.157227
2607.704102	8815.491211
2606.781250	8865.541016
2605.858398	8902.028320
2604.935547	8654.097656
2604.012695	8877.472656
2603.089844	8756.890625
2602.166016	8722.980469
2601.242188	9119.475586
2600.318359	8839.231445
2599.394531	8588.844727
2598.470703	8844.478516
2597.546875	8916.080078
2596.622070	8782.102539
2595.698242	8694.141602
2594.773438	8725.174805
2593.848633	8639.954102
2592.923828	8757.479492
2591.998047	9015.496094
2591.073242	8919.459961
2590.147461	8777.528320
2589.222656	8795.010742
2588.296875	8996.136719
2587.371094	8989.275391
2586.445313	8890.621094
2585.518555	8762.303711
2584.592773	8882.334961
2583.666016	8627.229492
2582.739258	8855.166992
2581.812500	8689.170898
2580.885742	8935.904297
2579.958984	8872.426758
2579.031250	8876.377930
2578.104492	8993.555664
2577.176758	9000.181641
2576.249023	8960.989258
2575.321289	8911.030273
2574.393555	8750.626953
2573.465820	8843.485352
2572.537109	8960.553711
2571.608398	9023.725586
2570.680664	9000.720703
2569.751953	8896.962891
2568.823242	9048.934570
2567.893555	8912.910156
2566.964844	8898.007813
2566.035156	8969.198242
2565.105469	9029.605469
2564.176758	8944.768555
2563.246094	9015.916016
2562.316406	9057.465820
2561.386719	8862.455078
2560.456055	9006.145508
2559.526367	8907.944336
2558.595703	8911.870117
2557.665039	9052.794922
2556.734375	8981.491211
2555.802734	8899.468750
2554.872070	9008.106445
2553.940430	9068.386719
2553.009766	8873.657227
2552.078125	8840.010742
2551.146484	8937.853516
2550.213867	8931.035156
2549.282227	9002.006836
2548.349609	8820.854492
2547.417969	8964.220703
2546.485352	8662.485352
2545.552734	9020.280273
2544.620117	9053.656250
2543.686523	9087.020508
2542.753906	9248.981445
2541.820313	9086.745117
2540.887695	9229.903320
2539.954102	9172.164063
2539.020508	8932.369141
2538.085938	9051.387695
2537.152344	9103.450195
2536.217773	9064.501953
2535.284180	9017.539063
2534.349609	8927.784180
2533.415039	8929.007813
2532.480469	9074.654297
2531.544922	9086.548828
2530.610352	9004.861328
2529.674805	9206.561523
2528.739258	8977.877930
2527.803711	9195.549805
2526.868164	8932.207031
2525.932617	9066.999023
2524.997070	9150.998047
2524.060547	9023.991211
2523.124023	8910.375977
2522.187500	9005.037109
2521.250977	9238.470703
2520.314453	9074.166992
2519.377930	8947.274414
2518.440430	9073.882813
2517.503906	9109.752930
2516.566406	9089.600586
2515.628906	9186.790039
2514.691406	9198.625977
2513.752930	9261.110352
2512.815430	9083.686523
2511.876953	9135.507813
2510.938477	9088.724609
2510.000000	9249.755859
2509.061523	9242.922852
2508.123047	9222.776367
2507.184570	9120.089844
2506.245117	8953.538086
2505.306641	9055.896484
2504.367188	9062.407227
2503.427734	9345.666992
2502.487305	9237.720703
2501.547852	9143.110352
2500.608398	9373.021484
2499.667969	9161.409180
2498.727539	9330.087891
2497.787109	9240.839844
2496.846680	9069.220703
2495.906250	9059.772461
2494.964844	9257.584961
2494.024414	9123.241211
2493.083008	9047.379883
2492.141602	9029.971680
2491.200195	9147.996094
2490.258789	9109.336914
2489.317383	9163.600586
2488.375000	9045.326172
2487.432617	9272.072266
2486.490234	9225.457031
2485.547852	9048.867188
2484.605469	9092.485352
2483.663086	9117.524414
2482.720703	9298.997070
2481.777344	9122.508789
2480.833984	9224.400391
2479.890625	9143.390625
2478.947266	9126.002930
2478.003906	9225.193359
2477.059570	9141.573242
2476.116211	9140.084961
2475.171875	9379.573242
2474.227539	8970.304688
2473.283203	9252.098633
2472.338867	9105.016602
2471.394531	9127.351563
2470.449219	9205.243164
2469.503906	9187.871094
2468.559570	9069.990234
2467.614258	9409.673828
2466.667969	9339.390625
2465.722656	9203.036133
2464.777344	9098.446289
2463.831055	9096.963867
2462.884766	9211.751953
2461.938477	9197.041016
2460.992188	9145.351563
2460.045898	9241.585938
2459.099609	9068.429688
2458.152344	9066.952148
2457.205078	9118.273438
2456.257813	9003.290039
2455.310547	9033.491211
2454.363281	9182.421875
2453.416016	9030.547852
2452.467773	8971.045898
2451.520508	9154.197266
2450.572266	9123.699219
2449.624023	9148.578125
2448.675781	9123.362305
2447.726563	9142.960938
2446.778320	9289.041016
2445.829102	9224.292969
2444.879883	9109.513672
2443.930664	9073.788086
2442.981445	9172.380859
2442.032227	9118.224609
2441.083008	9106.208008
2440.132813	9246.862305
2439.182617	9108.503906
2438.232422	9183.327148
2437.282227	9179.199219
2436.332031	8988.309570
2435.381836	9094.675781
2434.430664	9064.267578
2433.480469	9294.157227
2432.529297	9137.545898
2431.578125	9193.878906
2430.626953	9050.473633
2429.674805	9038.488281
2428.723633	9144.723633
2427.771484	9269.309570
2426.819336	9112.853516
2425.867188	9048.349609
2424.915039	9028.497070
2423.962891	9150.394531
2423.010742	9172.522461
2422.057617	8913.871094
2421.104492	9051.468750
2420.151367	9112.949219
2419.198242	9040.648438
2418.245117	8978.860352
2417.291992	9061.296875
2416.337891	8981.174805
2415.383789	9039.994141
2414.430664	8870.799805
2413.475586	9021.324219
2412.521484	8946.499023
2411.567383	9125.774414
2410.612305	9014.291016
2409.658203	9070.427734
2408.703125	8982.551758
2407.748047	9211.437500
2406.792969	8948.214844
2405.837891	8951.988281
2404.881836	9049.949219
2403.925781	8990.922852
2402.970703	8963.300781
2402.013672	9069.055664
2401.058594	8999.595703
2400.101563	9003.355469
2399.144531	8907.790039
2398.189453	9084.044922
2397.232422	9006.788086
2396.275391	8963.517578
2395.318359	8964.666992
2394.361328	9020.661133
2393.404297	9019.188477
2392.445313	9242.246094
2391.488281	8906.609375
2390.529297	8819.027344
2389.572266	8893.263672
2388.613281	8975.303711
2387.656250	8939.925781
2386.697266	8925.425781
2385.738281	8955.262695
2384.779297	8990.304688
2383.820313	9090.508789
2382.861328	8870.075195
2381.902344	9053.661133
2380.943359	8890.630859
2379.982422	8805.810547
2379.023438	9046.623047
2378.064453	9112.861328
2377.103516	8822.330078
2376.142578	8891.186523
2375.183594	8796.021484
2374.222656	8841.433594
2373.261719	8860.808594
2372.300781	8815.129883
2371.339844	8714.835938
2370.378906	8929.296875
2369.417969	8951.244141
2368.455078	9087.591797
2367.494141	8885.927734
2366.533203	8707.722656
2365.570313	8720.024414
2364.609375	8732.327148
2363.646484	8744.628906
2362.683594	8756.930664
2361.720703	8769.232422
2360.757813	8781.535156
2359.794922	8793.836914
2358.832031	9013.053711
2357.869141	8806.537109
2356.906250	8833.644531
2355.943359	8684.306641
2354.978516	8786.657227
2354.015625	8761.876953
2353.050781	8838.247070
2352.085938	8694.190430
2351.123047	8819.804688
2350.158203	8756.152344
2349.193359	8845.430664
2348.228516	8724.788086
2347.263672	8679.317383
2346.298828	8703.803711
2345.333984	8855.191406
2344.367188	8688.011719
2343.402344	8637.398438
2342.437500	8705.882813
2341.470703	8789.874023
2340.503906	8744.443359
2339.539063	8582.591797
2338.572266	8920.090820
2337.605469	8670.318359
2336.638672	8578.384766
2335.671875	8659.726563
2334.705078	8823.773438
2333.738281	8755.123047
2332.771484	8727.846680
2331.802734	8760.013672
2330.835938	8805.086914
2329.867188	9072.303711
2328.900391	9287.776367
2327.931641	9007.360352
2326.962891	8747.691406
2325.994141	8852.104492
2325.027344	8473.814453
2324.058594	8699.530273
2323.089844	8643.921875
2322.119141	8516.095703
2321.150391	8604.983398
2320.181641	8549.416992
2319.210938	8898.707031
2318.242188	8758.031250
2317.271484	8591.623047
2316.302734	8551.558594
2315.332031	8666.121094
2314.361328	8662.126953
2313.390625	8815.274414
2312.419922	8618.083984
2311.449219	8657.877930
2310.478516	8664.186523
2309.507813	8562.368164
2308.537109	8542.950195
2307.564453	8433.464844
2306.593750	8658.518555
2305.621094	8574.776367
2304.650391	8691.698242
2303.677734	8762.288086
2302.705078	8467.711914
2301.732422	8677.149414
2300.759766	8601.182617
2299.787109	8592.065430
2298.814453	8683.169922
2297.841797	8545.575195
2296.869141	8654.640625
2295.896484	8750.826172
2294.921875	8674.920898
2293.949219	8814.721680
2292.974609	8654.111328
2292.000000	8693.764648
2291.027344	8474.199219
2290.052734	8690.918945
2289.078125	8538.129883
2288.103516	8788.114258
2287.128906	8737.947266
2286.154297	8703.181641
2285.177734	8735.086914
2284.203125	8769.545898
2283.228516	8614.329102
2282.251953	8687.234375
2281.277344	8642.254883
2280.300781	8640.840820
2279.324219	8834.088867
2278.347656	8492.039063
2277.371094	8626.355469
2276.394531	8517.419922
2275.417969	8633.770508
2274.441406	8529.987305
2273.464844	8671.884766
2272.488281	8670.464844
2271.509766	8812.292969
2270.533203	8657.395508
2269.554688	8901.465820
2268.578125	8731.263672
2267.599609	8834.642578
2266.621094	8830.640625
2265.642578	8795.972656
2264.664063	8832.858398
2263.685547	8647.477539
2262.707031	8574.542969
2261.728516	8662.521484
2260.750000	8747.918945
2259.769531	8708.191406
2258.791016	8783.341797
2257.810547	8799.767578
2256.832031	8739.636719
2255.851563	8699.935547
2254.871094	8637.290039
2253.890625	8732.792969
2252.910156	8700.761719
2251.929688	8655.992188
2250.949219	8756.542969
2249.968750	8775.499023
2248.988281	8667.029297
2248.005859	8841.418945
2247.025391	8656.546875
2246.042969	8721.353516
2245.062500	8666.444336
2244.080078	8695.579102
2243.097656	8556.677734
2242.115234	8718.184570
2241.132813	8813.467773
2240.150391	8720.416992
2239.167969	8688.457031
2238.185547	8605.632813
2237.203125	8708.500000
2236.218750	8635.870117
2235.236328	8644.625000
2234.253906	8648.292969
2233.269531	8819.710938
2232.285156	8769.980469
2231.300781	8740.593750
2230.318359	8762.025391
2229.333984	8511.665039
2228.349609	8743.915039
2227.365234	8699.315430
2226.378906	8553.178711
2225.394531	8587.313477
2224.410156	8629.050781
2223.423828	8696.149414
2222.439453	8717.558594
2221.453125	8850.574219
2220.468750	8729.917969
2219.482422	8520.543945
2218.496094	8727.054688
2217.509766	8505.075195
2216.523438	8551.838867
2215.537109	8608.722656
2214.550781	8804.947266
2213.564453	8669.234375
2212.576172	8685.542969
2211.589844	8618.272461
2210.601563	8715.612305
2209.615234	8904.062500
2208.626953	8621.626953
2207.638672	8587.311523
2206.650391	8780.749023
2205.664063	8630.035156
2204.675781	8787.987305
2203.685547	8778.958008
2202.697266	8476.588867
2201.708984	8614.260742
2200.720703	8595.151367
2199.730469	8828.805664
2198.742188	8751.542969
2197.751953	8593.448242
2196.763672	8781.513672
2195.773438	8562.843750
2194.783203	8763.478516
2193.792969	8779.716797
2192.802734	8768.177734
2191.812500	8774.311523
2190.822266	8694.632813
2189.832031	8728.533203
2188.839844	8603.473633
2187.849609	8715.579102
2186.857422	8769.636719
2185.867188	8843.850586
2184.875000	8552.442383
2183.882813	8772.881836
2182.892578	8879.825195
2181.900391	8641.476563
2180.908203	8781.161133
2179.916016	8865.375977
2178.921875	8697.674805
2177.929688	8741.579102
2176.937500	8725.036133
2175.943359	8930.049805
2174.951172	8732.240234
2173.957031	8758.492188
2172.964844	8840.094727
2171.970703	8783.291992
2170.976563	8741.600586
2169.982422	8760.287109
2168.988281	8814.172852
2167.994141	8948.499023
2167.000000	8833.903320
2166.005859	8799.777344
2165.009766	8705.347656
2164.015625	8952.673828
2163.019531	8843.175781
2162.025391	8826.652344
2161.029297	9001.003906
2160.033203	8868.952148
2159.039063	8870.005859
2158.042969	8978.998047
2157.046875	8836.974609
2156.050781	8875.672852
2155.052734	8876.724609
2154.056641	8694.650391
2153.060547	8836.185547
2152.062500	8952.597656
2151.066406	8941.097656
2150.068359	8994.781250
2149.072266	9068.498047
2148.074219	9036.934570
2147.076172	8794.906250
2146.078125	8963.818359
2145.080078	8977.375000
2144.082031	8995.934570
2143.083984	9032.017578
2142.085938	8970.446289
2141.085938	8933.927734
2140.087891	9060.101563
2139.087891	8986.043945
2138.089844	9099.657227
2137.089844	8923.052734
2136.089844	8994.120117
2135.089844	8932.624023
2134.089844	9118.679688
2133.089844	8997.185547
2132.089844	9020.701172
2131.089844	9031.713867
2130.089844	8972.759766
2129.089844	8978.779297
2128.087891	8914.857422
2127.087891	9025.776367
2126.085938	9049.263672
2125.083984	8912.958008
2124.082031	8978.890625
2123.082031	9092.220703
2122.080078	9028.341797
2121.078125	8912.087891
2120.076172	8878.192383
2119.072266	8906.663086
2118.070313	9034.873047
2117.068359	8976.041016
2116.064453	8967.085938
2115.062500	8883.358398
2114.058594	9023.947266
2113.054688	9191.899414
2112.052734	9078.279297
2111.048828	8972.168945
2110.044922	9067.822266
2109.041016	9051.389648
2108.037109	9022.514648
2107.031250	8909.014648
2106.027344	9074.301758
2105.023438	8970.783203
2104.017578	9126.052734
2103.013672	9025.046875
2102.007813	9058.382813
2101.001953	8930.066406
2099.998047	9157.344727
2098.992188	8964.417969
2097.986328	9248.783203
2096.980469	9132.944336
2095.972656	9004.718750
2094.966797	8956.035156
2093.960938	9051.434570
2092.955078	9146.801758
2091.947266	8951.614258
2090.939453	9049.449219
2089.933594	8896.540039
2088.925781	9230.130859
2087.917969	8987.908203
2086.910156	8964.099609
2085.902344	8855.955078
2084.894531	9114.923828
2083.886719	9096.065430
2082.878906	8930.924805
2081.871094	9058.364258
2080.861328	9034.565430
2079.853516	9025.643555
2078.843750	9140.614258
2077.833984	9188.657227
2076.826172	9065.772461
2075.816406	8975.123047
2074.806641	9099.929688
2073.796875	9118.238281
2072.787109	9057.328125
2071.777344	9006.337891
2070.765625	8967.736328
2069.755859	9230.992188
2068.744141	9150.312500
2067.734375	9250.211914
2066.722656	9083.003906
2065.712891	9111.177734
2064.701172	9033.041992
2063.689453	9051.328125
2062.677734	9153.630859
2061.666016	9035.992188
2060.654297	9145.674805
2059.642578	9250.380859
2058.628906	9164.889648
2057.617188	9079.424805
2056.605469	9223.590820
2055.591797	9328.213867
2054.578125	8995.961914
2053.566406	9004.350586
2052.552734	9185.440430
2051.539063	9109.922852
2050.525391	9263.805664
2049.511719	9161.172852
2048.498047	9201.579102
2047.484375	9313.460938
2046.468750	9018.618164
2045.455078	9204.423828
2044.439453	9126.524414
2043.425781	9063.430664
2042.410156	9175.242188
2041.394531	9279.627930
2040.380859	9154.981445
2039.365234	9205.173828
2038.349609	9260.271484
2037.333984	9135.689453
2036.316406	9156.330078
2035.300781	9181.883789
2034.285156	9374.703125
2033.267578	9237.884766
2032.251953	9288.002930
2031.234375	9402.030273
2030.218750	9260.358398
2029.201172	9167.889648
2028.183594	9104.941406
2027.166016	9238.579102
2026.148438	9114.222656
2025.130859	9161.844727
2024.113281	9098.937500
2023.093750	9063.061523
2022.076172	9309.526367
2021.056641	9187.713867
2020.039063	9161.656250
2019.019531	9231.306641
2018.001953	9310.747070
2016.982422	9112.969727
2015.962891	9160.518555
2014.943359	9060.919922
2013.923828	9081.491211
2012.904297	9030.964844
2011.882813	9152.025391
2010.863281	9103.954102
2009.843750	9080.401367
2008.822266	9081.352539
2007.802734	9180.279297
2006.781250	9088.152344
2005.759766	9211.530273
2004.738281	9045.983398
2003.716797	9139.954102
2002.695313	9087.050781
2001.673828	9168.748047
2000.652344	9110.964844
1999.630859	9153.492188
1998.609375	9000.344727
1997.585938	9209.159180
1996.564453	8999.819336
1995.541016	9030.113281
1994.517578	9048.175781
1993.494141	9083.338867
1992.472656	9062.292969
1991.449219	9031.482422
1990.425781	8986.026367
1989.400391	9030.943359
1988.376953	9058.752930
1987.353516	9010.873047
1986.328125	9031.353516
1985.304688	8915.158203
1984.279297	9013.731445
1983.255859	8987.845703
1982.230469	8903.425781
1981.205078	8936.100586
1980.179688	9019.972656
1979.154297	8964.844727
1978.128906	8870.732422
1977.103516	8886.329102
1976.078125	8933.598633
1975.050781	8971.107422
1974.025391	8872.182617
1972.998047	8921.867188
1971.972656	8847.334961
1970.945313	9030.923828
1969.917969	8907.708984
1968.892578	9020.638672
1967.865234	8724.675781
1966.837891	8925.195313
1965.808594	8772.883789
1964.781250	8742.245117
1963.753906	8959.686523
1962.724609	9006.838867
1961.697266	8781.675781
1960.667969	8911.491211
1959.640625	8773.914063
1958.611328	8925.556641
1957.582031	8843.904297
1956.552734	9012.490234
1955.523438	8826.409180
1954.494141	8914.802734
1953.464844	8913.329102
1952.435547	8996.824219
1951.404297	8859.412109
1950.375000	8906.484375
1949.343750	8652.663086
1948.314453	8930.227539
1947.283203	8863.258789
1946.251953	8820.565430
1945.222656	9083.414063
1944.191406	8892.806641
1943.158203	8784.679688
1942.126953	8802.617188
1941.095703	8852.049805
1940.064453	8947.499023
1939.031250	9096.209961
1938.000000	8801.641602
1936.966797	8783.235352
1935.935547	8861.683594
1934.902344	8915.897461
1933.869141	8897.479492
1932.835938	8937.149414
1931.802734	8824.369141
1930.769531	8910.001953
1929.736328	8952.067383
1928.703125	8786.133789
1927.667969	8898.328125
1926.634766	9000.814453
1925.599609	9081.510742
1924.566406	9029.255859
1923.531250	8933.521484
1922.496094	8922.379883
1921.460938	8896.748047
1920.425781	8970.148438
1919.390625	8913.124023
1918.355469	9206.208984
1917.320313	9262.623047
1916.285156	8903.874023
1915.248047	9177.508789
1914.212891	9161.513672
1913.175781	8904.280273
1912.138672	8967.931641
1911.103516	9096.675781
1910.066406	9071.058594
1909.029297	9052.681641
1907.992188	8937.893555
1906.955078	8982.205078
1905.917969	9009.634766
1904.878906	9157.516602
1903.841797	9066.874023
1902.802734	9091.866211
1901.765625	8924.206055
1900.726563	9156.270508
1899.687500	9017.541992
1898.650391	8994.387695
1897.611328	8973.647461
1896.572266	9034.719727
1895.533203	9187.185547
1894.494141	9094.264648
1893.453125	9285.147461
1892.414063	9067.209961
1891.375000	9241.205078
1890.333984	8944.024414
1889.292969	9062.707031
1888.253906	9027.566406
1887.212891	9014.058594
1886.171875	9084.627930
1885.130859	8912.605469
1884.089844	9067.211914
1883.048828	9072.913086
1882.007813	9025.801758
1880.964844	9101.109375
1879.923828	8967.620117
1878.880859	8889.357422
1877.839844	9180.549805
1876.796875	9164.637695
1875.753906	9048.011719
1874.712891	9075.285156
1873.669922	9148.097656
1872.626953	8985.990234
1871.583984	9034.828125
1870.539063	8937.487305
1869.496094	9154.015625
1868.453125	8893.805664
1867.408203	8976.154297
1866.365234	8977.061523
1865.320313	9080.915039
1864.275391	9201.490234
1863.230469	8948.666016
1862.187500	9033.329102
1861.142578	8936.130859
1860.095703	9023.159180
1859.050781	9095.807617
1858.005859	9111.040039
1856.960938	8906.298828
1855.914063	9079.333008
1854.869141	8936.808594
1853.822266	8947.276367
1852.775391	9060.482422
1851.730469	8867.863281
1850.683594	9093.307617
1849.636719	9082.248047
1848.589844	9064.027344
1847.541016	8864.372070
1846.494141	8841.418945
1845.447266	8880.525391
1844.400391	8857.577148
1843.351563	8865.651367
1842.302734	8816.473633
1841.255859	8817.396484
1840.207031	9011.473633
1839.158203	8986.136719
1838.109375	8836.849609
1837.060547	8935.488281
1836.011719	8922.090820
1834.962891	8863.427734
1833.912109	8752.374023
1832.863281	8924.797852
1831.814453	8730.419922
1830.763672	8862.310547
1829.712891	9006.061523
1828.664063	8728.456055
1827.613281	8848.381836
1826.562500	8913.539063
1825.511719	8766.936523
1824.460938	8924.854492
1823.408203	9035.153320
1822.357422	8895.736328
1821.306641	8944.187500
1820.253906	8771.551758
1819.203125	8760.588867
1818.150391	8787.651367
1817.097656	8895.485352
1816.046875	8922.515625
1814.994141	8700.147461
1813.941406	9024.043945
1812.888672	8794.608398
1811.833984	9068.527344
1810.781250	8972.080078
1809.728516	8813.960938
1808.673828	8845.716797
1807.621094	8943.888672
1806.566406	8764.504883
1805.511719	8985.980469
1804.458984	9027.169922
1803.404297	8994.850586
1802.349609	8917.503906
1801.294922	8830.703125
1800.238281	8924.021484
1799.183594	8924.909180
1798.128906	9070.295898
1797.072266	8879.313477
1796.017578	8854.159180
1794.960938	8895.306641
1793.906250	9014.559570
1792.849609	8866.316406
1791.792969	8871.943359
1790.736328	8730.871094
1789.679688	9150.514648
1788.623047	8952.674805
1787.564453	8875.510742
1786.507813	8833.839844
1785.451172	8832.372070
1784.392578	9053.095703
1783.335938	8914.517578
1782.277344	8993.376953
1781.218750	9088.748047
1780.160156	8763.622070
1779.101563	8986.534180
1778.042969	8871.694336
1776.984375	9023.684570
1775.925781	8939.564453
1774.865234	8961.680664
1773.806641	9019.187500
1772.746094	8786.465820
1771.687500	9108.191406
1770.626953	8943.932617
1769.566406	8966.028320
1768.507813	9110.724609
1767.447266	9066.776367
1766.386719	9032.270508
1765.324219	9059.048828
1764.263672	9149.438477
1763.203125	9185.611328
1762.140625	9118.130859
1761.080078	9159.006836
1760.017578	8891.401367
1758.957031	9092.395508
1757.894531	9001.434570
1756.832031	9136.442383
1755.769531	9109.039063
1754.707031	8959.300781
1753.644531	9037.791992
1752.582031	9132.719727
1751.517578	8950.128906
1750.455078	8927.479492
1749.390625	8911.890625
1748.328125	9046.732422
1747.263672	9195.628906
1746.199219	9109.512695
1745.136719	9037.520508
1744.072266	9054.808594
1743.007813	8964.060547
1741.941406	9119.889648
1740.876953	8975.165039
1739.812500	9020.617188
1738.748047	9155.236328
1737.681641	9010.577148
1736.615234	9067.730469
1735.550781	9012.270508
1734.484375	9116.310547
1733.417969	8967.062500
1732.351563	9127.344727
1731.285156	9048.468750
1730.218750	9143.057617
1729.152344	9261.048828
1728.085938	9048.637695
1727.017578	9206.429688
1725.951172	9120.577148
1724.882813	9142.477539
1723.814453	9122.224609
1722.748047	8991.949219
1721.679688	9294.737305
1720.611328	9244.043945
1719.542969	9221.446289
1718.474609	9140.369141
1717.404297	9213.698242
1716.335938	9123.293945
1715.267578	8979.137695
1714.197266	9206.759766
1713.128906	9188.864258
1712.058594	9248.099609
1710.988281	9099.343750
1709.917969	9111.847656
1708.847656	9143.034180
1707.777344	8938.314453
1706.707031	9053.585938
1705.636719	9206.176758
1704.566406	9078.583984
1703.494141	9065.402344
1702.423828	9059.224609
1701.351563	9057.715820
1700.281250	9009.549805
1699.208984	9096.683594
1698.136719	9260.747070
1697.064453	9061.008789
1695.992188	9297.293945
1694.919922	9088.292969
1693.847656	9191.652344
1692.773438	9036.331055
1691.701172	9072.102539
1690.626953	9140.471680
1689.554688	9269.372070
1688.480469	9270.156250
1687.406250	9245.329102
1686.332031	9062.218750
1685.257813	9191.044922
1684.183594	9135.991211
1683.109375	9025.115234
1682.035156	9029.425781
1680.960938	9033.736328
1679.884766	9060.136719
1678.810547	9005.149414
1677.734375	9210.548828
1676.658203	9118.364258
1675.583984	9295.788086
1674.507813	9329.091797
1673.431641	9102.188477
1672.355469	9133.190430
1671.279297	9031.804688
1670.201172	9181.229492
1669.125000	9070.582031
1668.048828	9106.209961
1666.970703	9255.546875
1665.892578	9281.848633
1664.816406	9052.933594
1663.738281	9056.063477
1662.660156	9247.054688
1661.582031	9117.972656
1660.503906	9139.636719
1659.425781	8917.889648
1658.347656	9157.448242
1657.267578	9088.716797
1656.189453	9140.491211
1655.109375	9011.554688
1654.031250	9014.683594
1652.951172	9152.128906
1651.871094	9173.756836
1650.791016	8936.090820
1649.710938	9131.346680
1648.630859	8986.337891
1647.550781	9049.626953
1646.470703	9057.371094
1645.388672	9030.416016
1644.308594	8897.083008
1643.226563	9089.835938
1642.146484	9051.327148
1641.064453	8996.650391
1639.982422	8978.970703
1638.900391	9053.728516
1637.818359	9059.148438
1636.736328	8808.153320
1635.654297	8815.921875
1634.570313	8966.861328
1633.488281	8803.743164
1632.406250	8855.369141
1631.322266	8828.500977
1630.238281	8997.798828
1629.156250	8700.958008
1628.072266	8863.298828
1626.988281	8792.622070
1625.904297	8675.844727
1624.820313	8971.843750
1623.734375	8792.829102
1622.650391	8819.020508
1621.566406	8769.150391
1620.480469	8945.113281
1619.396484	8886.023438
1618.310547	8658.797852
1617.224609	8954.451172
1616.138672	8893.084961
1615.052734	8695.901367
1613.966797	8781.922852
1612.880859	8713.710938
1611.794922	8919.361328
1610.708984	8867.253906
1609.621094	8695.541992
1608.535156	8825.190430
1607.447266	8922.600586
1606.359375	8882.022461
1605.273438	8629.961914
1604.185547	8647.275391
1603.097656	8664.589844
1602.009766	8681.903320
1600.921875	8699.216797
1599.832031	8716.531250
1598.744141	8733.844727
1597.654297	8941.337891
1596.566406	8606.952148
1595.476563	8761.602539
1594.388672	8787.677734
1593.298828	8708.191406
1592.208984	8718.207031
1591.119141	8803.916992
1590.029297	8887.304688
1588.939453	8842.250000
1587.847656	8760.526367
1586.757813	8784.277344
1585.666016	8973.041992
1584.576172	8971.541016
1583.484375	9059.398438
1582.392578	9007.485352
1581.302734	8941.846680
1580.210938	8963.251953
1579.119141	8705.310547
1578.025391	8907.601563
1576.933594	8967.912109
1575.841797	8762.734375
1574.750000	8919.149414
1573.656250	8984.002930
1572.562500	8824.671875
1571.470703	8974.136719
1570.376953	8981.782227
1569.283203	9103.735352
1568.189453	9147.928711
1567.095703	9004.700195
1566.001953	9117.447266
1564.908203	9031.388672
1563.812500	9082.416992
1562.718750	9128.859375
1561.623047	9013.155273
1560.529297	8972.833008
1559.433594	9131.125977
1558.337891	9193.504883
1557.242188	9114.377930
1556.146484	9094.599609
1555.050781	9193.453125
1553.955078	9226.126953
1552.859375	9352.290039
1551.761719	9122.713867
1550.666016	9246.572266
1549.568359	9213.113281
1548.472656	9266.266602
1547.375000	9367.250977
1546.277344	9174.314453
1545.179688	9070.276367
1544.082031	9143.913086
1542.984375	9358.703125
1541.886719	9052.061523
1540.787109	9225.820313
1539.689453	9128.687500
1538.589844	9156.740234
1537.492188	9184.784180
1536.392578	9294.709961
1535.292969	9070.262695
1534.193359	9252.938477
1533.095703	9271.851563
1531.994141	9172.548828
1530.894531	9330.113281
1529.794922	9067.214844
1528.695313	9127.042969
1527.593750	9048.275391
1526.494141	9105.814453
1525.392578	9111.101563
1524.291016	8996.045898
1523.189453	9219.289063
1522.089844	9197.315430
1520.988281	9036.914063
1519.884766	9062.628906
1518.783203	8940.870117
1517.681641	9193.420898
1516.580078	9083.020508
1515.476563	8986.261719
1514.373047	9025.564453
1513.271484	8867.644531
1512.167969	9004.408203
1511.064453	9227.235352
1509.960938	9273.266602
1508.857422	8993.085938
1507.753906	9156.914063
1506.650391	9044.418945
1505.544922	9156.108398
1504.441406	9011.958008
1503.335938	9076.084961
1502.232422	9156.030273
1501.126953	9149.969727
1500.021484	8922.213867
1498.916016	8984.048828
1497.810547	9179.290039
1496.705078	8863.459961
1495.599609	9112.912109
1494.494141	8876.309570
1493.386719	8922.280273
1492.281250	8968.234375
1491.173828	8889.917969
1490.068359	9089.460938
1488.960938	8814.666016
1487.853516	8944.154297
1486.746094	8922.334961
1485.638672	8941.154297
1484.531250	8750.073242
1483.423828	8793.736328
1482.314453	8893.788086
1481.207031	8901.318359
1480.097656	8872.760742
1478.990234	8941.177734
1477.880859	8854.000977
1476.771484	8911.125977
1475.662109	8803.697266
1474.552734	8833.769531
1473.443359	8929.171875
1472.333984	8920.915039
1471.224609	8660.394531
1470.113281	8902.157227
1469.003906	8905.166016
1467.892578	8928.434570
1466.783203	8726.609375
1465.671875	8936.690430
1464.560547	9043.195313
1463.449219	8989.933594
1462.337891	8767.987305
1461.226563	8869.967773
1460.115234	9084.344727
1459.001953	8914.202148
1457.890625	8917.201172
1456.777344	8924.694336
1455.666016	9102.962891
1454.552734	8885.749023
1453.439453	9012.297852
1452.326172	9066.933594
1451.212891	8977.833008
1450.099609	8926.930664
1448.986328	9138.690430
1447.873047	8941.887695
1446.757813	9003.219727
1445.644531	9046.582031
1444.529297	9110.118164
1443.414063	8960.553711
1442.300781	8945.592773
1441.185547	9076.378906
1440.070313	9135.382813
1438.955078	8967.982422
1437.839844	9083.010742
1436.722656	9112.853516
1435.607422	8950.020508
1434.492188	9073.952148
1433.375000	9061.229492
1432.257813	8932.074219
1431.142578	9002.214844
1430.025391	8940.263672
1428.908203	8963.379883
1427.791016	8993.201172
1426.673828	8823.891602
1425.556641	8999.125000
1424.437500	9006.558594
1423.320313	8967.030273
1422.201172	8992.351563
1421.083984	9075.786133
1419.964844	8864.166016
1418.845703	9050.387695
1417.726563	8923.746094
1416.607422	9042.876953
1415.488281	8994.452148
1414.369141	8816.519531
1413.250000	9009.289063
1412.128906	9059.120117
1411.009766	8916.977539
1409.888672	9000.281250
1408.769531	8934.060547
1407.648438	9066.412109
1406.527344	9051.503906
1405.406250	8920.632813
1404.285156	8847.778320
1403.164063	9026.872070
1402.042969	8996.375977
1400.919922	8858.915039
1399.798828	8877.478516
1398.675781	9011.887695
1397.554688	8905.677734
1396.431641	9022.217773
1395.308594	8853.691406
1394.185547	8752.012695
1393.062500	8866.293945
1391.939453	8702.329102
1390.816406	8832.156250
1389.693359	8690.500000
1388.568359	8973.778320
1387.445313	8852.163086
1386.320313	8697.231445
1385.197266	8949.237305
1384.072266	8787.671875
1382.947266	8766.188477
1381.822266	8744.711914
1380.697266	8783.234375
1379.572266	8806.192383
1378.445313	8882.451172
1377.320313	8767.695313
1376.195313	8859.476563
1375.068359	8826.904297
1373.941406	8820.978516
1372.816406	8739.597656
1371.689453	8948.923828
1370.562500	8878.641602
1369.435547	8828.346680
1368.308594	8800.246094
1367.179688	8736.675781
1366.052734	8744.072266
1364.923828	8899.984375
1363.796875	8789.885742
1362.667969	8735.222656
1361.541016	8875.546875
1360.412109	8829.748047
1359.283203	8888.060547
1358.154297	9001.713867
1357.025391	8971.415039
1355.894531	8969.903320
1354.765625	8884.285156
1353.636719	9086.379883
1352.505859	9020.683594
1351.376953	8992.617188
1350.246094	8904.839844
1349.115234	8978.529297
1347.984375	8881.938477
1346.853516	9128.041992
1345.722656	9126.502930
1344.591797	9171.374023
1343.460938	9065.977539
1342.328125	9077.704102
1341.197266	9319.147461
1340.064453	8924.467773
1338.933594	9170.270508
1337.800781	8981.067383
1336.667969	9158.349609
1335.535156	8947.140625
1334.402344	9029.483398
1333.269531	9160.335938
1332.134766	9024.233398
1331.001953	9046.971680
1329.869141	9082.933594
1328.734375	9167.386719
1327.599609	9057.826172
1326.466797	9047.482422
1325.332031	9116.472656
1324.197266	8984.941406
1323.062500	8965.802734
1321.927734	8977.505859
1320.791016	9273.282227
1319.656250	9091.171875
1318.519531	9052.213867
1317.384766	9162.939453
1316.248047	8947.928711
1315.113281	9195.052734
1313.976563	9030.706055
1312.839844	9174.353516
1311.703125	9104.629883
1310.566406	9160.262695
1309.427734	9064.183594
1308.291016	9148.378906
1307.154297	8990.797852
1306.015625	8984.885742
1304.878906	8844.960938
1303.740234	8988.442383
1302.601563	8912.253906
1301.462891	9035.913086
1300.324219	8893.876953
1299.185547	9017.496094
1298.046875	8989.636719
1296.906250	9075.893555
1295.767578	8907.618164
1294.626953	8906.114258
1293.488281	8832.232422
1292.347656	8909.684570
1291.207031	8973.956055
1290.066406	8981.208984
1288.925781	8859.144531
1287.785156	8949.687500
1286.644531	8858.342773
1285.503906	9091.248047
1284.361328	9034.955078
1283.220703	8875.753906
1282.078125	8902.718750
1280.937500	8914.350586
1279.794922	8792.459961
1278.652344	8777.843750
1277.509766	8828.874023
1276.367188	8860.198242
1275.224609	8657.466797
1274.080078	8802.530273
1272.937500	8871.013672
1271.794922	8703.361328
1270.650391	8935.777344
1269.505859	8853.404297
1268.363281	8834.426758
1267.218750	8913.769531
1266.074219	8899.156250
1264.929688	8880.180664
1263.783203	8848.108398
1262.638672	8737.449219
1261.494141	8845.117188
1260.347656	8749.772461
1259.203125	8781.026367
1258.056641	8705.360352
1256.910156	8810.778320
1255.763672	8903.074219
1254.617188	8916.833984
1253.470703	8910.964844
1252.324219	8789.560547
1251.177734	8753.201172
1250.031250	8954.387695
1248.882813	8909.296875
1247.734375	8942.645508
1246.587891	8864.899414
1245.439453	8994.064453
1244.291016	9025.203125
1243.142578	9014.968750
1241.994141	8948.144531
1240.845703	8855.227539
1239.697266	9056.087891
1238.546875	8934.901367
1237.398438	9096.527344
1236.248047	8938.403320
1235.099609	9219.566406
1233.949219	8944.074219
1232.798828	9042.550781
1231.648438	9136.646484
1230.498047	9050.355469
1229.347656	8907.605469
1228.197266	9273.203125
1227.044922	9156.525391
1225.894531	8985.599609
1224.742188	9025.330078
1223.591797	8960.850586
1222.439453	9115.601563
1221.287109	9194.348633
1220.134766	9136.381836
1218.982422	9182.558594
1217.830078	9185.341797
1216.677734	9164.269531
1215.523438	8969.750000
1214.371094	9263.053711
1213.216797	9120.601563
1212.064453	9246.914063
1210.910156	9067.678711
1209.755859	9219.953125
1208.601563	9168.574219
1207.447266	9154.027344
1206.292969	9124.329102
1205.136719	9185.564453
1203.982422	9214.312500
1202.828125	9171.632813
1201.671875	9161.423828
1200.515625	9079.825195
1199.361328	9216.721680
1198.205078	9327.619141
1197.048828	9304.416016
1195.892578	9157.989258
1194.736328	9197.507813
1193.578125	9247.818359
1192.421875	9373.741211
1191.265625	9136.660156
1190.107422	9292.799805
1188.949219	9282.585938
1187.792969	9242.144531
1186.634766	9396.026367
1185.476563	9107.333984
1184.318359	9220.178711
1183.160156	9322.196289
1182.000000	9279.622070
1180.841797	9260.791992
1179.681641	9248.437500
1178.523438	9415.073242
1177.363281	9234.521484
1176.203125	9222.176758
1175.044922	9388.731445
1173.884766	9350.503906
1172.724609	9346.763672
1171.562500	9431.349609
1170.402344	9365.132813
1169.242188	9370.005859
1168.080078	9355.497070
1166.919922	9349.604492
1165.757813	9548.195313
1164.595703	9447.581055
1163.433594	9316.875977
1162.271484	9470.191406
1161.109375	9528.812500
1159.947266	9600.316406
1158.785156	9663.195313
1157.621094	9539.012695
1156.458984	9640.570313
1155.294922	9720.602539
1154.132813	9551.347656
1152.968750	9700.116211
1151.804688	9668.397461
1150.640625	9748.369141
1149.476563	9682.294922
1148.312500	9865.290039
1147.146484	9756.286133
1145.982422	9836.186523
1144.818359	9971.852539
1143.652344	9955.141602
1142.486328	10011.370117
1141.320313	9825.219727
1140.156250	9947.927734
1138.990234	9896.925781
1137.822266	10188.930664
1136.656250	10221.493164
1135.490234	10041.892578
1134.324219	10239.448242
1133.156250	10241.994141
1131.988281	10349.490234
1130.822266	10294.194336
1129.654297	10549.382813
1128.486328	10521.901367
1127.318359	10697.768555
1126.150391	10802.954102
1124.982422	10383.880859
1123.812500	10760.776367
1122.644531	10637.028320
1121.474609	10673.715820
1120.306641	10890.001953
1119.136719	10766.292969
1117.966797	11074.401367
1116.796875	10991.308594
1115.626953	10953.116211
1114.457031	11126.440430
1113.287109	11039.107422
1112.115234	11109.845703
1110.945313	11216.858398
1109.773438	11368.669922
1108.603516	11407.294922
1107.431641	11527.006836
1106.259766	11369.275391
1105.087891	11405.746094
1103.916016	11704.581055
1102.744141	11730.317383
1101.572266	11655.820313
1100.398438	11773.234375
1099.226563	11830.919922
1098.052734	11788.413086
1096.880859	11944.100586
1095.707031	12005.988281
1094.533203	12038.031250
1093.359375	11918.839844
1092.185547	12155.319336
1091.011719	12268.227539
1089.837891	12302.330078
1088.662109	12430.072266
1087.488281	12381.140625
1086.312500	12538.613281
1085.138672	12572.645508
1083.962891	12521.585938
1082.787109	12742.751953
1081.611328	12602.375977
1080.435547	12797.941406
1079.259766	12693.738281
1078.082031	12859.467773
1076.906250	13095.258789
1075.728516	12935.821289
1074.552734	13224.621094
1073.375000	13241.484375
1072.197266	13347.522461
1071.019531	13273.068359
1069.841797	13563.735352
1068.664063	13474.413086
1067.486328	13716.140625
1066.308594	13788.061523
1065.128906	13692.380859
1063.951172	14059.077148
1062.771484	14018.514648
1061.591797	14016.127930
1060.412109	14081.574219
1059.232422	14178.789063
1058.052734	14074.660156
1056.873047	14254.470703
1055.693359	14400.325195
1054.513672	14450.822266
1053.332031	14376.363281
1052.152344	14801.596680
1050.970703	14608.556641
1049.789063	14855.817383
1048.607422	14823.661133
1047.425781	14761.893555
1046.244141	15078.809570
1045.062500	15059.320313
1043.880859	15154.031250
1042.697266	15166.250000
1041.515625	15161.552734
1040.332031	15437.968750
1039.150391	15462.810547
1037.966797	15491.870117
1036.783203	15256.849609
1035.599609	15457.020508
1034.416016	15600.102539
1033.232422	15762.138672
1032.046875	15839.674805
1030.863281	15777.874023
1029.677734	15944.016602
1028.494141	16038.360352
1027.308594	16185.413086
1026.123047	16182.654297
1024.937500	16297.997070
1023.751953	16187.679688
1022.566406	16338.821289
1021.380859	16312.849609
1020.193359	16225.767578
1019.007813	16427.394531
1017.820313	16466.730469
1016.634766	16636.650391
1015.447266	16589.585938
1014.259766	16736.261719
1013.072266	16647.087891
1011.884766	16688.453125
1010.697266	16978.152344
1009.509766	16758.515625
1008.320313	16780.904297
1007.132813	16845.355469
1005.943359	16760.457031
1004.753906	16789.140625
1003.566406	16975.500000
1002.376953	16970.501953
1001.187500	16906.656250
999.998047	16935.292969
998.806641	16865.167969
997.617188	16990.433594
996.427734	16924.523438
995.236328	17003.535156
994.046875	17023.728516
992.855469	16901.166016
991.664063	16942.357422
990.472656	16794.666016
989.281250	16974.341797
988.089844	16963.052734
986.898438	17106.980469
985.705078	17137.613281
984.513672	16818.078125
983.320313	17081.449219
982.126953	16839.583984
980.935547	16840.900391
979.742188	16752.117188
978.548828	16732.496094
977.355469	16694.031250
976.162109	16699.556641
974.966797	16527.099609
973.773438	16838.308594
972.578125	17011.259766
971.384766	16573.046875
970.189453	16532.550781
968.994141	16879.109375
967.798828	16867.859375
966.603516	16720.671875
965.408203	16489.892578
964.212891	16497.529297
963.015625	16672.386719
961.820313	16583.849609
960.623047	16399.220703
959.427734	16728.609375
958.230469	16378.994141
957.033203	16551.632813
955.835938	16557.156250
954.638672	16477.078125
953.441406	16369.887695
952.244141	16590.410156
951.044922	16491.583984
949.847656	16616.035156
948.648438	16673.689453
947.449219	16583.240234
946.251953	16530.359375
945.052734	16519.193359
943.853516	16447.576172
942.654297	16467.691406
941.453125	16604.496094
940.253906	16445.390625
939.054688	16438.412109
937.853516	16416.855469
936.652344	16384.894531
935.453125	16238.425781
934.251953	16277.284180
933.050781	16393.140625
931.849609	16115.637695
930.646484	16229.399414
929.445313	16062.277344
928.244141	16386.085938
927.041016	16121.250000
925.839844	16251.565430
924.636719	16190.575195
923.433594	16235.612305
922.230469	16174.644531
921.027344	16271.613281
919.824219	16164.954102
918.621094	15896.314453
917.417969	16205.111328
916.212891	16065.293945
915.009766	15894.382813
913.804688	15924.874023
912.599609	15982.333984
911.394531	15979.597656
910.189453	15827.488281
908.984375	15849.669922
907.779297	15614.675781
906.574219	15753.005859
905.367188	15540.913086
904.162109	15681.280273
902.955078	15726.262695
901.750000	15416.890625
900.542969	15526.127930
899.335938	15484.111328
898.128906	15483.531250
896.921875	15443.605469
895.712891	15126.261719
894.505859	15200.261719
893.298828	15276.306641
892.089844	15043.994141
890.880859	15180.039063
889.673828	15049.183594
888.464844	14908.032227
887.255859	14789.675781
886.046875	14803.681641
884.835938	14652.307617
883.626953	14691.133789
882.417969	14725.812500
881.207031	14516.675781
879.998047	14582.359375
878.787109	14334.074219
877.576172	14381.178711
876.365234	14112.365234
875.154297	14109.946289
873.943359	14185.960938
872.732422	14181.464844
871.519531	13937.627930
870.308594	13848.594727
869.095703	14029.791016
867.884766	13773.729492
866.671875	13824.977539
865.458984	13593.776367
864.246094	13859.399414
863.033203	13556.141602
861.820313	13617.692383
860.605469	13485.569336
859.392578	13301.996094
858.177734	13262.645508
856.964844	13155.358398
855.750000	13206.628906
854.535156	13047.928711
853.320313	13245.316406
852.105469	12924.108398
850.890625	13318.950195
849.675781	13248.786133
848.458984	12759.100586
847.244141	12985.153320
846.027344	12791.728516
844.810547	12818.310547
843.595703	12797.614258
842.378906	12813.912109
841.162109	12731.588867
839.943359	12741.728516
838.726563	12630.691406
837.509766	12509.425781
836.291016	12492.907227
835.074219	12492.815430
833.855469	12611.759766
832.636719	12669.103516
831.417969	12572.551758
830.199219	12535.521484
828.980469	12506.707031
827.761719	12428.687500
826.542969	12524.964844
825.322266	12436.718750
824.103516	12414.087891
822.882813	12401.709961
821.664063	12514.315430
820.443359	12292.977539
819.222656	12317.492188
818.001953	12389.096680
816.779297	12346.020508
815.558594	12395.068359
814.337891	12444.116211
813.115234	12460.395508
811.894531	12497.128906
810.671875	12329.282227
809.449219	12617.600586
808.226563	12425.250000
807.003906	12365.865234
805.781250	12449.599609
804.558594	12506.734375
803.333984	12349.274414
802.111328	12445.225586
800.886719	12555.444336
799.664063	12608.434570
798.439453	12348.955078
797.214844	12261.076172
795.990234	12414.120117
794.765625	12585.479492
793.541016	12462.912109
792.314453	12426.082031
791.089844	12387.224609
789.863281	12383.055664
788.638672	12409.476563
787.412109	12584.736328
786.185547	12554.031250
784.958984	12696.591797
783.732422	12482.461914
782.505859	12631.097656
781.279297	12712.452148
780.050781	12632.863281
778.824219	12437.218750
777.595703	12563.359375
776.367188	12734.246094
775.140625	12654.706055
773.912109	12628.107422
772.683594	12670.700195
771.453125	12591.210938
770.224609	12550.396484
768.996094	12741.443359
767.765625	12664.015625
766.537109	12901.736328
765.306641	12806.011719
764.076172	12525.375977
762.845703	12409.427734
761.615234	12665.311523
760.384766	12839.855469
759.154297	12776.716797
757.921875	12719.690430
756.691406	12938.798828
755.458984	12869.584961
754.228516	12865.339844
752.996094	12796.160156
751.763672	12591.072266
750.531250	12611.217773
749.298828	13014.676758
748.066406	12769.099609
746.832031	13036.552734
745.599609	12928.897461
744.365234	12762.502930
743.132813	12863.652344
741.898438	12968.817383
740.664063	12938.223633
739.429688	12925.868164
738.195313	13168.668945
736.960938	12878.897461
735.724609	13182.350586
734.490234	13101.144531
733.255859	13123.170898
732.019531	13098.654297
730.783203	12908.265625
729.546875	13168.975586
728.310547	13142.439453
727.074219	13142.196289
725.837891	13081.307617
724.601563	13010.332031
723.363281	13072.756836
722.126953	13195.773438
720.888672	13286.424805
719.650391	13292.213867
718.414063	13192.989258
717.175781	13348.204102
715.937500	13095.579102
714.697266	13224.516602
713.458984	13185.911133
712.220703	13280.487305
710.980469	13026.028320
709.742188	13312.213867
708.501953	13336.134766
707.261719	13214.872070
706.021484	13406.125000
704.781250	13377.610352
703.541016	13294.692383
702.300781	13318.592773
701.058594	13235.712891
699.818359	13285.798828
698.576172	13303.646484
697.335938	13474.513672
696.093750	13393.675781
694.851563	13451.749023
693.609375	13397.103516
692.367188	13714.721680
691.123047	13207.395508
689.880859	13428.386719
688.638672	13564.834961
687.394531	13447.880859
686.150391	13483.757813
684.908203	13378.917969
683.664063	13404.744141
682.419922	13563.179688
681.175781	13418.198242
679.929688	13614.739258
678.685547	13612.388672
677.439453	13652.206055
676.195313	13854.626953
674.949219	13601.325195
673.703125	13594.961914
672.458984	13700.970703
671.212891	13602.304688
669.964844	13688.214844
668.718750	13661.784180
667.472656	13777.731445
666.224609	13667.089844
664.978516	13628.648438
663.730469	13804.664063
662.482422	13670.027344
661.234375	13703.728516
659.986328	13541.111328
658.738281	13783.110352
657.490234	13920.899414
656.242188	13646.210938
654.992188	13745.941406
653.744141	13787.596680
652.494141	13643.139648
651.244141	13562.754883
649.994141	13830.458984
648.744141	13696.067383
647.494141	13655.707031
646.244141	13845.281250
644.994141	13810.904297
643.742188	13610.652344
642.492188	13620.289063
641.240234	14027.511719
639.988281	13547.662109
638.738281	13808.956055
637.486328	13798.581055
636.232422	13740.291016
634.980469	13785.824219
633.728516	13755.498047
632.474609	13747.132813
631.222656	13611.079102
629.968750	13465.096680
628.714844	13795.846680
627.462891	13677.800781
626.208984	14054.254883
624.953125	13780.714844
623.699219	13985.614258
622.445313	14040.984375
621.191406	14070.433594
619.935547	14071.983398
618.679688	14220.919922
617.425781	14240.364258
616.169922	13937.253906
614.914063	14243.398438
613.658203	14165.300781
612.400391	14035.489258
611.144531	14488.691406
609.888672	14446.397461
608.630859	14571.191406
607.373047	14614.407227
606.117188	14721.232422
604.859375	14400.614258
603.601563	14829.428711
602.343750	14894.427734
601.083984	14852.110352
599.826172	14774.049805
598.568359	14938.333984
597.308594	15044.969727
596.048828	15068.176758
594.791016	15254.159180
593.531250	15229.684570
592.271484	15348.100586
591.011719	15345.442383
589.750000	15505.457031
588.490234	15613.844727
587.230469	15410.844727
585.968750	15810.679688
584.707031	15641.416016
583.447266	15765.559570
582.185547	15752.918945
580.923828	15771.985352
579.662109	15868.305664
578.398438	16041.839844
577.136719	16076.686523
575.875000	16153.101563
574.611328	16114.667969
573.347656	16139.585938
572.085938	16138.767578
570.822266	16312.070313
569.558594	16182.630859
568.292969	16136.309570
567.029297	16177.020508
565.765625	16095.124023
564.500000	16292.004883
563.236328	16168.607422
561.970703	16262.640625
560.705078	16295.387695
559.439453	16332.073242
558.173828	16222.578125
556.908203	16417.253906
555.642578	16291.984375
554.376953	16460.914063
553.109375	16544.908203
551.843750	16670.318359
550.576172	16422.751953
549.308594	16573.785156
548.041016	16346.044922
546.773438	16295.877930
545.505859	16642.060547
544.238281	16540.599609
542.968750	16464.796875
541.701172	16576.246094
540.431641	16524.107422
539.164063	16564.582031
537.894531	16542.009766
536.625000	16513.537109
535.355469	16709.546875
534.085938	16657.427734
532.814453	16892.712891
531.544922	17009.830078
530.273438	16666.464844
529.003906	16956.708984
527.732422	16922.292969
526.460938	16982.287109
525.189453	17093.386719
523.917969	16990.152344
522.646484	16926.267578
521.375000	17015.697266
520.101563	16867.333984
518.830078	17324.128906
517.556641	17183.619141
516.283203	17247.410156
515.011719	17116.779297
513.738281	17263.013672
512.462891	17354.236328
511.189453	17492.527344
509.916016	17191.226563
508.642578	17604.164063
507.367188	17485.373047
506.091797	17715.718750
504.818359	17502.826172
503.542969	17456.654297
502.267578	17514.386719
500.992188	17760.244141
499.714844	17610.193359
498.439453	17565.990234
497.164063	17749.025391
495.886719	17636.265625
494.609375	17846.638672
493.333984	17596.851563
492.056641	17705.367188
490.779297	17717.947266
489.501953	17691.384766
488.222656	17702.003906
486.945313	17536.568359
485.666016	17664.556641
484.388672	17653.662109
483.109375	17576.298828
481.830078	17426.634766
480.550781	17540.869141
479.271484	17643.337891
477.992188	17749.677734
476.712891	17404.746094
475.433594	17669.287109
474.152344	17498.279297
472.871094	17540.140625
471.591797	17455.103516
470.310547	17561.361328
469.029297	17310.482422
467.748047	17436.238281
466.466797	17368.832031
465.183594	17274.142578
463.902344	17271.136719
462.619141	17392.908203
461.337891	17196.898438
460.054688	17400.498047
458.771484	17307.832031
457.488281	17207.404297
456.205078	17303.753906
454.921875	17240.365234
453.638672	17317.203125
452.353516	17302.505859
451.070313	17268.347656
449.785156	17405.470703
448.500000	17453.035156
447.214844	17420.812500
445.929688	17287.445313
444.644531	17482.816406
443.359375	17514.773438
442.072266	17571.994141
440.787109	17563.101563
439.500000	17610.574219
438.214844	17794.056641
436.927734	17722.955078
435.640625	17772.316406
434.353516	17918.769531
433.066406	18037.984375
431.777344	17945.531250
430.490234	18025.875000
429.203125	18088.722656
427.914063	18299.027344
426.625000	18206.589844
425.335938	18331.445313
424.046875	18481.470703
422.757813	18447.222656
421.468750	18467.273438
420.179688	18541.593750
418.888672	18747.681641
417.599609	18746.349609
416.308594	18748.894531
415.017578	18695.259766
413.728516	18701.683594
412.437500	18818.484375
411.144531	18972.027344
409.853516	18649.314453
408.562500	19071.859375
407.269531	19049.183594
405.978516	18852.382813
404.685547	18827.816406
403.392578	18673.673828
402.099609	18931.472656
400.806641	18968.771484
399.513672	18760.556641
398.220703	18743.753906
396.927734	18906.669922
395.632813	18679.251953
394.337891	18724.285156
393.044922	18516.289063
391.750000	18536.232422
390.455078	18587.056641
389.160156	18410.078125
387.865234	18416.515625
386.568359	18511.716797
385.273438	18332.912109
383.976563	18435.808594
382.681641	18112.425781
381.384766	17931.853516
380.087891	18289.265625
378.791016	18166.554688
377.494141	18092.070313
376.197266	18040.736328
374.898438	17833.357422
373.601563	17922.708984
372.302734	17902.244141
371.005859	17781.652344
369.707031	17996.109375
368.408203	17971.791016
367.109375	17653.005859
365.810547	17946.269531
364.509766	17841.162109
363.210938	17612.978516
361.910156	17573.357422
360.611328	17845.275391
359.310547	17828.697266
358.009766	17733.312500
356.708984	17809.013672
355.408203	17673.308594
354.107422	17914.226563
352.804688	17617.187500
351.503906	17673.648438
350.201172	17680.160156
348.900391	17634.830078
347.597656	17814.111328
346.294922	17672.808594
344.992188	17625.583984
343.689453	17467.093750
342.386719	17370.044922
341.082031	17620.175781
339.779297	17411.912109
338.474609	17372.437500
337.169922	17281.220703
335.867188	17431.527344
334.562500	17468.720703
333.257813	17233.837891
331.951172	17144.621094
330.646484	17317.826172
329.341797	17127.134766
328.035156	17256.244141
326.728516	17065.628906
325.423828	17246.378906
324.117188	17293.115234
322.810547	17154.248047
321.503906	16906.394531
320.195313	17027.753906
318.888672	16858.408203
317.580078	16880.312500
316.273438	17102.925781
314.964844	16899.250000
313.656250	16976.550781
312.347656	16971.669922
311.039063	17048.927734
309.730469	17087.962891
308.421875	16987.582031
307.111328	16967.425781
305.802734	16922.458984
304.492188	17087.449219
303.181641	17219.943359
301.871094	17050.939453
300.560547	17070.845703
299.250000	17168.939453
297.939453	17133.515625
296.628906	17174.365234
295.316406	16982.640625
294.005859	16928.205078
292.693359	17251.091797
291.380859	17145.187500
290.068359	17163.138672
288.755859	17160.130859
287.443359	17227.582031
286.130859	17136.984375
284.816406	17253.906250
283.503906	17094.816406
282.189453	16952.910156
280.875000	17220.103516
279.560547	16945.066406
278.246094	17001.054688
276.931641	17108.367188
275.617188	16987.492188
274.300781	17319.072266
272.986328	17101.271484
271.669922	17227.490234
270.355469	17059.177734
269.039063	17198.654297
267.722656	17081.685547
266.406250	16985.644531
265.089844	16940.896484
263.771484	17169.509766
262.455078	16893.203125
261.136719	16918.703125
259.820313	16811.388672
258.501953	16926.046875
257.183594	16928.767578
255.865234	17026.298828
254.546875	16962.642578
253.228516	17007.056641
251.908203	17108.310547
250.589844	16953.716797
249.269531	17339.128906
247.949219	17133.404297
246.628906	17149.335938
245.310547	17330.003906
243.988281	17287.205078
242.667969	17214.132813
241.347656	17387.121094
240.025391	17291.349609
238.705078	17171.015625
237.382813	17342.027344
236.060547	17503.521484
234.738281	17426.703125
233.416016	17508.720703
232.093750	17537.779297
230.771484	17632.976563
229.449219	17575.082031
228.125000	17432.191406
226.800781	17502.798828
225.478516	17643.257813
224.154297	17568.404297
222.830078	17567.207031
221.505859	17396.125000
220.181641	17555.375000
218.855469	17508.890625
217.531250	17543.548828
216.205078	17495.195313
214.878906	17426.113281
213.554688	17358.941406
212.228516	17452.041016
210.902344	17473.478516
209.574219	17485.484375
208.248047	17608.658203
206.921875	17722.369141
205.593750	17591.167969
204.265625	17629.509766
202.939453	17773.281250
201.611328	17551.771484
200.283203	17804.679688
198.955078	17955.871094
197.625000	17992.228516
196.296875	17917.576172
194.968750	17997.189453
193.638672	18323.136719
192.308594	17953.253906
190.978516	18171.935547
189.648438	18443.169922
188.318359	18402.339844
186.988281	18605.791016
185.658203	18668.273438
184.326172	18653.718750
182.996094	18783.775391
181.664063	18851.822266
180.332031	18683.300781
179.000000	18899.625000
177.667969	18971.365234
176.335938	19063.722656
175.003906	19007.839844
173.669922	18950.099609
172.337891	18944.888672
171.003906	19119.683594
169.669922	19026.332031
168.335938	19127.949219
167.001953	19356.962891
165.667969	19149.322266
164.333984	18979.220703
163.000000	19236.232422
161.664063	19053.064453
160.328125	19324.953125
158.994141	19179.273438
157.658203	19428.580078
156.322266	19325.974609
154.986328	19446.062500
153.650391	19592.296875
152.312500	19401.806641
150.976563	19409.609375
149.638672	19466.023438
148.302734	19546.718750
146.964844	19832.986328
145.626953	19840.705078
144.289063	20031.527344
142.949219	20252.171875
141.611328	20345.726563
140.273438	20536.357422
138.933594	20467.390625
137.595703	20762.470703
136.255859	20805.472656
134.916016	20697.302734
133.576172	21154.509766
132.236328	20977.291016
130.894531	21253.367188
129.554688	21322.349609
128.212891	21503.175781
126.873047	21614.962891
125.531250	21283.117188
124.189453	21489.941406
122.847656	21549.500000
121.505859	21514.031250
120.164063	21635.027344
118.820313	21346.296875
117.478516	21718.628906
116.134766	21619.861328
114.792969	21562.072266
113.449219	21675.505859
112.105469	21290.269531
110.761719	21669.720703
109.417969	21773.771484
108.072266	22084.197266
106.728516	22305.267578
105.382813	22450.044922
104.039063	21990.732422
102.693359	21853.058594
101.347656	22044.285156
100.001953	22235.441406
98.654297	22179.513672
97.308594	22324.156250
95.962891	22754.664063
94.615234	22965.976563
93.269531	22702.087891
91.921875	22981.992188
90.574219	23124.503906
89.226563	22938.634766
87.878906	22828.871094
86.529297	23171.597656
85.181641	23358.468750
83.832031	23304.294922
82.484375	23518.873047
81.134766	23188.589844
79.785156	23052.955078
78.435547	23063.701172
77.085938	22898.501953
75.736328	23411.082031
74.384766	23090.361328
73.035156	22969.667969
71.683594	22902.685547
70.332031	22894.937500
68.982422	22452.427734
67.630859	22298.630859
66.279297	21821.240234
64.925781	21591.796875
63.574219	21275.541016
62.220703	21399.322266
60.869141	21229.210938
59.515625	21236.544922
58.162109	20218.539063
56.808594	19472.419922
55.455078	18697.015625
54.101563	18089.914063
52.748047	17630.716797
51.392578	17079.390625
