#Wave		#Intensity
4002.114258	6024.279297
4001.416016	5945.530762
4000.717773	5940.996094
4000.018555	5950.776367
3999.320313	5989.175293
3998.621094	5938.132324
3997.921875	5958.637695
3997.223633	6064.961426
3996.524414	6131.920410
3995.824219	6005.813965
3995.125000	6187.138672
3994.425781	5968.145996
3993.725586	6063.662598
3993.026367	6048.397949
3992.326172	5972.413574
3991.625977	6064.311523
3990.925781	5920.501953
3990.225586	6158.760742
3989.525391	6097.085449
3988.825195	5974.754883
3988.125000	6070.146484
3987.423828	5979.970703
3986.723633	5975.442383
3986.022461	5871.043457
3985.321289	5969.956055
3984.620117	6058.139648
3983.918945	6149.859863
3983.217773	6027.676758
3982.516602	6048.092285
3981.814453	6164.713379
3981.113281	6071.088867
3980.411133	5956.120605
3979.708984	6086.946777
3979.006836	6118.018555
3978.304688	6017.340332
3977.602539	6140.973145
3976.900391	6008.288086
3976.198242	6025.117188
3975.495117	6077.523438
3974.792969	6055.200684
3974.089844	6157.384766
3973.386719	5982.124023
3972.683594	6027.391113
3971.980469	6001.534668
3971.277344	6142.764648
3970.574219	5921.413086
3969.870117	5973.767090
3969.166992	6065.188965
3968.462891	5961.190430
3967.759766	5942.473145
3967.055664	6282.454590
3966.351563	6025.784668
3965.647461	5989.313965
3964.943359	6172.936523
3964.238281	5983.840820
3963.534180	6064.496582
3962.829102	6006.754395
3962.125000	5938.388672
3961.419922	6196.355469
3960.714844	5996.768066
3960.009766	5985.167969
3959.304688	5939.899414
3958.599609	5894.630859
3957.893555	6007.092773
3957.188477	5945.889160
3956.482422	6161.049316
3955.777344	6032.537109
3955.071289	5935.941406
3954.365234	6101.422852
3953.659180	6178.335938
3952.953125	6173.803711
3952.246094	6094.944336
3951.540039	6168.282227
3950.833008	6046.988770
3950.126953	5968.187012
3949.419922	6006.137695
3948.712891	5969.807129
3948.005859	5912.271484
3947.298828	6038.599609
3946.591797	6012.885254
3945.884766	5898.820801
3945.176758	5968.549316
3944.469727	6055.920898
3943.761719	6062.014160
3943.053711	5997.463379
3942.345703	5876.428711
3941.637695	6214.455566
3940.929688	5941.619141
3940.221680	6043.029297
3939.513672	5830.304688
3938.804688	5906.999512
3938.095703	6015.422363
3937.387695	6063.842285
3936.678711	6006.437012
3935.969727	6125.370605
3935.260742	6050.344238
3934.551758	5957.715820
3933.841797	6009.629883
3933.132813	6040.382324
3932.422852	5951.323242
3931.713867	6154.702148
3931.003906	6002.249023
3930.293945	6124.551270
3929.583984	6060.184082
3928.874023	5974.713379
3928.164063	6054.718262
3927.453125	5902.402832
3926.743164	6017.583984
3926.032227	6122.172852
3925.322266	6170.440918
3924.611328	5958.408691
3923.900391	6087.573730
3923.189453	6160.437500
3922.478516	6022.337402
3921.766602	5863.190918
3921.055664	5855.220703
3920.344727	5949.158203
3919.632813	6120.360352
3918.920898	6129.916504
3918.208984	6037.613281
3917.497070	6068.249512
3916.785156	5947.895996
3916.073242	6231.299316
3915.361328	5953.006836
3914.648438	5952.051270
3913.936523	6084.434570
3913.223633	5925.582520
3912.510742	6029.864746
3911.797852	6116.577148
3911.084961	6052.475586
3910.372070	5942.815918
3909.659180	6180.237305
3908.945313	6109.146484
3908.232422	5960.980957
3907.518555	6026.597168
3906.804688	6078.179199
3906.091797	5842.521973
3905.377930	6058.717773
3904.663086	5931.687988
3903.949219	6144.298828
3903.235352	6104.807617
3902.520508	5981.331055
3901.806641	6095.849609
3901.091797	5895.440918
3900.376953	5877.003906
3899.662109	6117.398926
3898.947266	6154.885254
3898.232422	6028.022461
3897.517578	6058.518555
3896.802734	6176.390137
3896.086914	6028.615723
3895.372070	6038.130859
3894.656250	6047.643066
3893.940430	6120.029297
3893.224609	6164.451172
3892.508789	6142.509766
3891.792969	6012.338867
3891.076172	5976.464844
3890.360352	6010.409668
3889.643555	6110.649414
3888.927734	6099.201172
3888.210938	6157.530273
3887.494141	6079.803711
3886.777344	5998.614258
3886.060547	6276.612305
3885.342773	6198.903320
3884.625977	6051.501465
3883.909180	6022.647461
3883.191406	6028.650879
3882.473633	6128.725586
3881.755859	6044.134766
3881.038086	6241.701172
3880.320313	5958.614746
3879.602539	6044.708008
3878.884766	6043.738281
3878.166016	6188.964355
3877.448242	6198.412598
3876.729492	6086.066406
3876.010742	6269.486816
3875.291992	6108.463867
3874.573242	6177.045410
3873.854492	6082.161621
3873.135742	6195.925293
3872.416016	6170.596680
3871.697266	6065.331543
3870.977539	6071.309082
3870.257813	6198.899902
3869.539063	6111.051270
3868.819336	6280.277344
3868.099609	6039.629883
3867.378906	6285.207520
3866.659180	6207.816895
3865.938477	6165.164551
3865.218750	6320.362305
3864.498047	6076.430176
3863.777344	6113.622070
3863.056641	6140.394531
3862.335938	6094.317871
3861.615234	6086.404297
3860.894531	6071.558105
3860.173828	6136.455566
3859.452148	6232.529785
3858.730469	6134.487305
3858.009766	6136.968750
3857.288086	6094.407715
3856.566406	6034.539551
3855.844727	6134.016113
3855.122070	6126.105957
3854.400391	6010.861328
3853.678711	6193.379395
3852.956055	6088.544922
3852.233398	6153.323730
3851.510742	5989.704590
3850.788086	6147.890137
3850.065430	6091.558105
3849.342773	6094.039551
3848.620117	6089.604004
3847.896484	5991.817871
3847.173828	6146.418457
3846.450195	5979.526855
3845.727539	6182.461426
3845.003906	6264.395996
3844.280273	6121.748047
3843.555664	6086.224609
3842.832031	6140.506348
3842.108398	6042.835938
3841.383789	6162.704590
3840.660156	6241.110840
3839.935547	6012.318359
3839.210938	6056.214844
3838.486328	6006.939453
3837.761719	6368.197754
3837.037109	6125.734375
3836.312500	6090.265625
3835.586914	6185.834961
3834.862305	6264.135742
3834.136719	6118.358887
3833.411133	6258.680176
3832.685547	6137.071777
3831.959961	6187.767090
3831.234375	6179.885254
3830.508789	6120.342773
3829.782227	6394.853027
3829.056641	6252.660645
3828.330078	6038.220703
3827.603516	6064.788086
3826.876953	6063.815918
3826.150391	6104.133789
3825.423828	6030.908203
3824.697266	6195.050781
3823.970703	6152.786621
3823.243164	6182.748047
3822.516602	6013.288086
3821.789063	6252.954590
3821.061523	6138.529785
3820.333984	6199.402344
3819.606445	5954.457520
3818.878906	6139.013184
3818.151367	6165.507324
3817.422852	6226.335449
3816.695313	6280.276855
3815.966797	6190.007324
3815.238281	6110.064453
3814.509766	6009.554688
3813.781250	6197.324707
3813.052734	6189.469238
3812.324219	6092.425293
3811.595703	6208.063965
3810.866211	6097.330078
3810.136719	6240.360840
3809.408203	6328.494141
3808.678711	6396.033203
3807.949219	6179.098633
3807.219727	6140.416016
3806.489258	6211.377930
3805.759766	6111.043457
3805.030273	6202.536621
3804.299805	6057.718262
3803.569336	6248.481445
3802.839844	6213.247070
3802.109375	6229.364258
3801.378906	6074.367676
3800.647461	6165.777832
3799.916992	6287.948242
3799.186523	6133.016113
3798.455078	6070.473145
3797.723633	6264.407715
3796.993164	6212.120117
3796.261719	6159.849121
3795.530273	6230.635254
3794.798828	6195.463867
3794.066406	6259.388184
3793.334961	6289.129883
3792.602539	6134.419922
3791.871094	6160.756836
3791.138672	6081.235352
3790.406250	6209.991211
3789.673828	6301.157715
3788.941406	6184.110352
3788.208984	6148.995605
3787.476563	6287.892578
3786.743164	6358.520020
3786.010742	6084.646973
3785.277344	6226.896973
3784.543945	6195.212402
3783.810547	6364.671387
3783.077148	6285.255859
3782.343750	6256.984375
3781.610352	6273.018555
3780.875977	6149.366211
3780.142578	6165.412109
3779.408203	6161.018066
3778.673828	6078.305664
3777.939453	6404.179199
3777.205078	6229.542480
3776.470703	6255.772461
3775.736328	6295.605957
3775.000977	6165.302734
3774.266602	6259.568848
3773.531250	6285.776367
3772.795898	6226.954590
3772.061523	6389.170898
3771.326172	6286.154297
3770.589844	6322.538086
3769.854492	6311.328613
3769.119141	6238.956055
3768.382813	6350.076172
3767.647461	6281.117676
3766.911133	6059.339355
3766.174805	6241.749023
3765.438477	6295.075195
3764.702148	6266.907227
3763.965820	6330.395020
3763.229492	6421.012207
3762.492188	6345.332031
3761.755859	6337.529297
3761.018555	6434.885742
3760.281250	6159.135254
3759.543945	6266.661621
3758.806641	6384.325195
3758.069336	6244.313477
3757.332031	6368.721191
3756.593750	6537.144043
3755.856445	6444.611328
3755.118164	6294.515625
3754.379883	6303.668945
3753.641602	6285.725098
3752.903320	6321.965332
3752.165039	6310.795410
3751.426758	6336.864258
3750.688477	6335.848633
3749.949219	6622.472656
3749.210938	6144.344727
3748.471680	6549.309082
3747.732422	6426.494141
3746.993164	6493.101074
3746.253906	6312.852539
3745.514648	6467.354492
3744.774414	6486.599609
3744.035156	6526.115723
3743.294922	6450.729492
3742.554688	6307.795410
3741.815430	6465.552246
3741.075195	6413.853516
3740.334961	6149.423828
3739.593750	6357.775391
3738.853516	6366.884277
3738.113281	6548.131348
3737.372070	6337.845215
3736.630859	6481.922363
3735.890625	6433.651855
3735.149414	6317.933105
3734.408203	6465.315918
3733.666016	6487.884277
3732.924805	6496.959473
3732.183594	6559.967285
3731.441406	6269.056641
3730.699219	6483.726563
3729.958008	6448.994141
3729.215820	6410.903320
3728.473633	6167.358398
3727.731445	6600.811035
3726.988281	6613.222168
3726.246094	6531.362305
3725.502930	6425.964844
3724.760742	6569.656250
3724.017578	6484.477051
3723.274414	6493.531250
3722.531250	6522.766602
3721.788086	6545.265625
3721.044922	6402.974609
3720.300781	6442.296875
3719.557617	6525.310547
3718.813477	6514.181152
3718.070313	6355.181641
3717.326172	6391.125977
3716.582031	6521.128906
3715.837891	6422.668945
3715.092773	6747.423828
3714.348633	6581.797852
3713.604492	6409.509766
3712.859375	6512.548828
3712.114258	6726.317871
3711.369141	6500.394531
3710.624023	6506.063477
3709.878906	6494.956543
3709.133789	6520.750000
3708.388672	6593.487793
3707.642578	6612.550781
3706.897461	6467.325684
3706.151367	6449.528809
3705.405273	6431.737305
3704.659180	6467.568848
3703.913086	6590.501953
3703.166992	6545.895996
3702.420898	6420.916992
3701.673828	6383.050293
3700.927734	6552.795410
3700.180664	6675.615723
3699.433594	6523.916992
3698.687500	6539.605469
3697.940430	6481.671387
3697.192383	6514.090332
3696.445313	6650.198242
3695.698242	6542.104492
3694.950195	6537.712402
3694.202148	6529.977539
3693.455078	6522.245117
3692.707031	6511.172852
3691.958984	6536.865234
3691.210938	6378.770996
3690.461914	6511.384277
3689.713867	6527.042969
3688.964844	6419.123047
3688.216797	6605.094238
3687.467773	6517.228516
3686.718750	6499.493164
3685.969727	6865.596191
3685.220703	6640.907715
3684.471680	6653.189941
3683.721680	6668.804688
3682.972656	6601.025391
3682.222656	6796.732910
3681.473633	6575.568848
3680.723633	6521.172363
3679.973633	6606.795898
3679.223633	6575.741699
3678.472656	6701.316895
3677.722656	6663.593262
3676.972656	6679.182129
3676.221680	6688.104004
3675.470703	6660.391113
3674.719727	6712.598633
3673.968750	6804.738770
3673.217773	6603.932617
3672.466797	6646.139648
3671.715820	6648.402344
3670.963867	6683.934082
3670.212891	6785.983398
3669.460938	6715.051758
3668.708984	6717.301270
3667.957031	6649.727539
3667.205078	6824.852051
3666.453125	6813.787109
3665.701172	6909.070313
3664.948242	6662.081055
3664.196289	6680.946777
3663.443359	6835.994629
3662.690430	7017.562012
3661.937500	6750.789551
3661.184570	6643.465820
3660.431641	6642.401855
3659.678711	6641.337891
3658.924805	6640.273926
3658.171875	6639.209961
3657.417969	6638.145996
3656.664063	6637.082031
3655.910156	6884.745117
3655.156250	6940.010742
3654.402344	6610.685547
3653.648438	6967.620117
3652.893555	6860.448730
3652.139648	6875.917969
3651.384766	7023.908691
3650.629883	6853.839355
3649.875000	6786.499023
3649.120117	6970.859863
3648.365234	6840.612793
3647.610352	6942.142578
3646.854492	6921.170410
3646.099609	6956.465820
3645.343750	7018.220703
3644.587891	7010.479492
3643.832031	7082.129395
3643.076172	6958.623535
3642.320313	6967.429199
3641.564453	7174.607910
3640.808594	6994.948242
3640.051758	7086.373535
3639.294922	7108.371094
3638.539063	7054.366211
3637.782227	7132.522949
3637.025391	7144.592285
3636.267578	7120.330078
3635.510742	7139.001465
3634.753906	7193.983398
3633.996094	7281.957031
3633.239258	7237.884766
3632.481445	7319.223145
3631.723633	7129.985352
3630.965820	7069.463379
3630.208008	7315.706055
3629.449219	7156.239258
3628.691406	7214.443848
3627.933594	7223.178223
3627.174805	7271.464355
3626.416016	7201.090332
3625.657227	7269.134766
3624.898438	7406.345215
3624.139648	7289.864746
3623.380859	7486.312012
3622.621094	7294.115234
3621.862305	7184.293457
3621.102539	7285.194336
3620.342773	7425.560547
3619.583984	7434.244141
3618.824219	7245.499023
3618.063477	7408.833008
3617.303711	7397.777832
3616.543945	7383.437500
3615.783203	7388.831055
3615.023438	7542.173340
3614.262695	7609.997559
3613.501953	7546.330566
3612.741211	7627.276367
3611.980469	7501.198730
3611.219727	7424.438965
3610.458008	7433.103027
3609.697266	7491.026367
3608.935547	7286.244629
3608.173828	7629.797363
3607.412109	7513.686523
3606.650391	7450.125000
3605.888672	7432.524414
3605.126953	7378.838379
3604.365234	7663.052734
3603.602539	7501.110352
3602.839844	7408.086426
3602.078125	7711.831543
3601.315430	7592.576660
3600.552734	7558.582520
3599.790039	7573.758301
3599.026367	7605.312012
3598.263672	7532.017090
3597.500000	7635.632324
3596.737305	7585.281738
3595.973633	7606.989258
3595.209961	7635.237305
3594.446289	7578.363281
3593.682617	7541.145508
3592.918945	7562.845215
3592.154297	7715.418457
3591.390625	7779.612305
3590.625977	7582.107910
3589.861328	7721.521973
3589.096680	7743.174805
3588.332031	7630.774414
3587.567383	7577.250000
3586.802734	7801.552246
3586.038086	7829.712891
3585.272461	7743.508789
3584.506836	7680.199707
3583.742188	7708.365234
3582.976563	7798.570801
3582.210938	7630.795898
3581.445313	7639.367676
3580.678711	7723.011719
3579.913086	7578.174316
3579.146484	7665.064453
3578.380859	7663.836426
3577.614258	7457.098145
3576.847656	7707.042969
3576.081055	7787.333984
3575.314453	7642.624023
3574.547852	7709.859375
3573.780273	7659.732422
3573.013672	7560.737305
3572.246094	7654.020020
3571.478516	7649.535645
3570.710938	7511.500488
3569.943359	7523.324707
3569.175781	7658.885254
3568.408203	7735.797363
3567.639648	7522.964844
3566.872070	7681.243164
3566.103516	7618.181641
3565.334961	7525.856934
3564.567383	7658.032715
3563.798828	7585.246582
3563.029297	7483.214844
3562.260742	7641.346191
3561.492188	7571.848145
3560.722656	7755.919434
3559.953125	7621.423828
3559.184570	7694.942383
3558.415039	7628.729004
3557.645508	7588.524414
3556.875000	7535.340820
3556.105469	7573.103516
3555.335938	7640.076172
3554.565430	7583.662598
3553.794922	7549.988770
3553.025391	7600.705566
3552.254883	7622.201660
3551.484375	7523.649902
3550.712891	7538.664063
3549.942383	7582.862305
3549.171875	7614.075684
3548.400391	7538.283203
3547.628906	7537.075684
3546.858398	7694.688477
3546.086914	7499.013184
3545.315430	7501.051758
3544.542969	7363.783691
3543.771484	7450.061035
3543.000000	7513.640137
3542.227539	7586.913086
3541.455078	7569.509766
3540.682617	7620.090332
3539.911133	7683.600586
3539.137695	7413.777832
3538.365234	7487.007324
3537.592773	7366.112305
3536.819336	7578.408691
3536.046875	7544.854492
3535.273438	7663.283691
3534.500000	7584.465332
3533.726563	7492.742676
3532.953125	7611.122559
3532.179688	7396.631836
3531.406250	7540.835449
3530.631836	7575.161133
3529.857422	7441.524414
3529.083984	7672.842773
3528.309570	7238.955078
3527.535156	7644.558105
3526.760742	7565.867188
3525.985352	7629.199707
3525.210938	7469.867676
3524.436523	7400.920898
3523.661133	7486.828613
3522.885742	7440.476563
3522.110352	7439.284668
3521.334961	7499.351074
3520.559570	7552.951172
3519.784180	7467.940430
3519.008789	7544.085938
3518.232422	7459.103516
3517.456055	7464.351074
3516.680664	7563.007813
3515.904297	7507.046875
3515.127930	7744.125000
3514.351563	7398.397949
3513.574219	7265.234863
3512.797852	7486.144531
3512.020508	7472.073242
3511.244141	7310.004395
3510.466797	7357.086914
3509.689453	7564.974121
3508.912109	7409.399414
3508.134766	7305.320313
3507.356445	7268.786621
3506.579102	7357.623535
3505.800781	7411.079590
3505.023438	7519.144531
3504.245117	7411.917480
3503.466797	7513.522949
3502.688477	7220.048340
3501.910156	7353.764160
3501.130859	7320.478516
3500.352539	7457.345215
3499.573242	7414.423828
3498.794922	7323.378418
3498.015625	7533.978027
3497.236328	7584.101074
3496.457031	7406.465332
3495.677734	7305.857422
3494.897461	7532.356934
3494.118164	7377.256836
3493.337891	7513.915039
3492.557617	7435.789063
3491.777344	7405.756348
3490.998047	7475.059082
3490.216797	7454.640137
3489.436523	7450.242676
3488.656250	7449.048828
3487.875000	7454.259277
3487.094727	7481.877930
3486.313477	7327.032227
3485.532227	7469.878906
3484.750977	7571.080566
3483.969727	7272.319824
3483.188477	7354.326172
3482.406250	7407.520996
3481.625000	7604.603516
3480.842773	7558.621582
3480.060547	7551.016602
3479.278320	7505.057617
3478.496094	7551.792480
3477.713867	7493.066406
3476.931641	7469.501953
3476.148438	7576.911621
3475.366211	7467.107910
3474.583008	7389.272461
3473.799805	7426.401855
3473.016602	7473.095703
3472.233398	7360.186523
3471.450195	7547.290527
3470.666992	7287.631836
3469.882813	7573.583984
3469.099609	7550.042480
3468.315430	7303.264160
3467.531250	7624.150879
3466.747070	7693.069336
3465.962891	7484.638184
3465.178711	7480.251465
3464.394531	7447.186523
3463.609375	7512.901855
3462.825195	7559.481934
3462.040039	7386.274414
3461.254883	7569.797852
3460.469727	7336.145996
3459.684570	7564.187988
3458.899414	7492.948242
3458.113281	7514.025391
3457.328125	7436.452148
3456.541992	7667.512695
3455.755859	7379.991211
3454.969727	7633.250000
3454.183594	7457.125977
3453.397461	7500.443848
3452.611328	7527.853027
3451.824219	7647.428711
3451.038086	7404.677246
3450.250977	7648.155273
3449.463867	7570.682617
3448.676758	7413.823242
3447.889648	7409.458984
3447.102539	7592.446289
3446.315430	7362.635742
3445.527344	7542.396973
3444.740234	7433.275391
3443.952148	7409.870117
3443.164063	7478.486328
3442.375977	7493.149414
3441.587891	7466.573730
3440.799805	7500.261719
3440.011719	7318.321289
3439.222656	7475.665527
3438.434570	7452.278320
3437.645508	7609.550293
3436.856445	7453.058594
3436.067383	7518.398438
3435.278320	7561.542480
3434.489258	7493.817383
3433.699219	7489.449707
3432.910156	7371.096680
3432.120117	7335.091797
3431.330078	7473.187988
3430.540039	7623.898438
3429.750000	7537.241699
3428.959961	7425.302734
3428.169922	7572.784668
3427.378906	7520.966797
3426.588867	7421.732422
3425.797852	7629.216309
3425.006836	7435.159668
3424.215820	7332.825195
3423.424805	7429.616211
3422.633789	7403.147461
3421.842773	7193.455078
3421.050781	7511.328125
3420.259766	7402.746582
3419.467773	7360.510254
3418.675781	7441.416504
3417.883789	7493.886719
3417.091797	7293.848145
3416.299805	7463.083496
3415.506836	7638.574707
3414.714844	7470.155273
3413.921875	7434.262207
3413.128906	7253.314453
3412.336914	7305.754883
3411.543945	7525.265625
3410.750000	7448.409180
3409.957031	7447.215332
3409.164063	7550.007324
3408.370117	7567.700195
3407.576172	7478.285156
3406.783203	7442.440918
3405.989258	7409.757324
3405.195313	7279.478516
3404.400391	7344.420410
3403.606445	7450.259766
3402.812500	7354.654297
3402.017578	7447.871582
3401.222656	7364.880371
3400.427734	7382.572754
3399.633789	7365.664063
3398.837891	7392.784180
3398.042969	7281.558105
3397.248047	7242.668457
3396.452148	7543.236816
3395.657227	7460.322266
3394.861328	7364.866211
3394.065430	7470.496582
3393.269531	7525.836914
3392.473633	7439.836914
3391.677734	7338.164551
3390.880859	7327.569336
3390.084961	7332.672363
3389.288086	7350.327637
3388.491211	7248.733887
3387.694336	7256.984375
3386.897461	7444.039063
3386.100586	7433.436523
3385.302734	7363.253418
3384.505859	7424.782227
3383.708008	7345.217773
3382.911133	7381.653320
3382.113281	7345.996094
3381.315430	7181.878906
3380.517578	7431.363770
3379.718750	7364.390625
3378.920898	7569.918457
3378.123047	7343.240723
3377.324219	7495.479492
3376.525391	7231.320313
3375.726563	7345.968750
3374.927734	7391.732422
3374.128906	7484.415527
3373.330078	7405.004395
3372.530273	7378.793457
3371.731445	7474.561035
3370.931641	7473.362305
3370.131836	7315.842773
3369.332031	7392.817871
3368.532227	7322.873047
3367.732422	7409.196289
3366.932617	7501.741211
3366.131836	7388.077148
3365.332031	7424.373535
3364.531250	7485.641113
3363.730469	7525.032227
3362.929688	7423.924316
3362.128906	7329.091309
3361.327148	7356.004395
3360.526367	7304.897949
3359.725586	7419.163574
3358.923828	7648.810547
3358.122070	7304.503418
3357.320313	7465.489258
3356.518555	7352.047363
3355.716797	7378.924805
3354.915039	7440.080078
3354.112305	7429.537598
3353.310547	7453.273438
3352.507813	7330.577148
3351.705078	7379.240234
3350.902344	7384.285645
3350.099609	7541.911133
3349.296875	7304.081543
3348.493164	7259.329590
3347.690430	7311.076172
3346.886719	7309.903809
3346.083008	7392.739746
3345.279297	7435.107422
3344.475586	7402.810547
3343.671875	7382.963867
3342.868164	7484.390625
3342.063477	7455.209961
3341.259766	7357.652832
3340.455078	7477.682129
3339.650391	7460.945801
3338.845703	7385.182617
3338.041016	7427.488281
3337.236328	7345.542480
3336.431641	7394.051758
3335.625977	7414.600098
3334.821289	7388.575684
3334.015625	7260.128418
3333.209961	7473.102051
3332.404297	7475.006348
3331.598633	7470.705078
3330.791992	7488.118164
3329.986328	7527.236328
3329.180664	7495.019043
3328.374023	7329.492676
3327.567383	7508.114746
3326.760742	7500.711426
3325.954102	7425.133301
3325.147461	7259.723145
3324.339844	7621.021973
3323.533203	7288.369141
3322.725586	7457.533691
3321.918945	7484.206055
3321.111328	7455.141602
3320.303711	7518.951172
3319.496094	7356.805176
3318.687500	7364.908691
3317.879883	7478.205078
3317.071289	7514.127441
3316.263672	7512.922363
3315.455078	7264.315918
3314.646484	7362.095215
3313.837891	7388.737793
3313.029297	7359.733398
3312.219727	7550.165527
3311.411133	7502.603516
3310.601563	7248.057617
3309.792969	7345.744629
3308.983398	7313.680664
3308.173828	7309.418945
3307.364258	7268.108398
3306.553711	7591.083496
3305.744141	7503.441895
3304.933594	7505.324219
3304.124023	7430.066406
3303.313477	7345.577148
3302.502930	7421.513184
3301.692383	7179.763184
3300.881836	7431.466309
3300.070313	7399.442871
3299.259766	7299.612305
3298.448242	7218.306152
3297.637695	7528.391602
3296.826172	7370.046387
3296.014648	7581.427246
3295.203125	7469.325684
3294.390625	7388.056641
3293.579102	7537.749512
3292.766602	7511.910645
3291.955078	7335.250488
3291.142578	7266.364746
3290.330078	7388.285645
3289.517578	7596.314453
3288.705078	7330.543945
3287.891602	7578.498047
3287.079102	7408.146484
3286.265625	7394.658691
3285.453125	7402.694824
3284.639648	7401.507324
3283.826172	7455.637207
3283.012695	7316.167969
3282.198242	7314.994141
3281.384766	7544.201172
3280.570313	7481.565430
3279.756836	7354.463867
3278.942383	7503.726563
3278.127930	7321.405762
3277.313477	7381.616699
3276.499023	7190.166992
3275.683594	7268.789063
3274.869141	7482.368652
3274.053711	7502.639160
3273.238281	7268.356934
3272.423828	7598.353516
3271.608398	7272.155762
3270.791992	7332.295410
3269.976563	7377.091309
3269.161133	7293.169922
3268.344727	7457.448242
3267.528320	7471.567871
3266.712891	7280.470215
3265.896484	7429.358887
3265.080078	7382.237793
3264.262695	7322.886230
3263.446289	7367.625000
3262.629883	7556.188477
3261.812500	7282.641602
3260.995117	7474.217773
3260.177734	7457.723145
3259.360352	7490.169434
3258.542969	7421.691895
3257.725586	7515.282227
3256.907227	7431.537598
3256.089844	7433.401367
3255.271484	7423.040039
3254.453125	7394.348633
3253.634766	7353.446777
3252.816406	7443.902344
3251.998047	7344.978027
3251.179688	7646.101074
3250.360352	7318.195801
3249.541992	7249.864258
3248.722656	7453.189941
3247.903320	7485.561035
3247.083984	7292.140137
3246.264648	7412.994141
3245.444336	7353.851563
3244.625000	7401.465332
3243.804688	7503.947754
3242.985352	7310.678223
3242.165039	7541.165039
3241.344727	7308.331055
3240.524414	7389.431641
3239.703125	7467.459473
3238.882813	7493.676758
3238.061523	7367.599121
3237.241211	7348.145020
3236.419922	7453.531250
3235.598633	7504.086914
3234.777344	7569.844727
3233.956055	7471.244629
3233.134766	7549.157715
3232.312500	7447.549805
3231.490234	7656.238770
3230.668945	7600.266113
3229.846680	7465.249023
3229.024414	7682.955078
3228.202148	7547.967773
3227.378906	7346.157715
3226.556641	7509.077637
3225.733398	7328.606445
3224.911133	7506.666504
3224.087891	7599.621094
3223.264648	7643.954590
3222.441406	7518.233398
3221.618164	7523.097656
3220.793945	7764.727539
3219.970703	7587.451660
3219.146484	7522.508789
3218.322266	7600.185059
3217.498047	7335.048340
3216.673828	7609.876465
3215.849609	7642.012695
3215.025391	7649.881348
3214.201172	7521.327148
3213.375977	7598.927246
3212.550781	7588.615234
3211.725586	7338.927734
3210.900391	7713.422363
3210.075195	7457.735840
3209.250000	7644.314941
3208.424805	7521.960449
3207.598633	7629.749023
3206.772461	7825.291016
3205.947266	7509.256836
3205.121094	7505.024414
3204.294922	7646.028809
3203.467773	7578.245117
3202.641602	7592.151855
3201.815430	7748.194824
3200.988281	7707.641113
3200.161133	7648.960449
3199.333984	7442.180176
3198.506836	7610.235840
3197.679688	7741.974609
3196.852539	7761.880859
3196.024414	7521.984863
3195.197266	7702.000000
3194.369141	7441.050781
3193.541016	7473.069336
3192.712891	7698.289063
3191.884766	7691.015625
3191.056641	7566.043457
3190.227539	7661.387695
3189.399414	7524.392090
3188.570313	7689.091797
3187.741211	7612.455566
3186.913086	7837.398926
3186.083008	7540.664063
3185.253906	7714.297852
3184.424805	7830.608398
3183.594727	7678.669922
3182.765625	7587.042480
3181.935547	7655.114746
3181.105469	7665.933594
3180.275391	7658.678711
3179.445313	7666.481445
3178.615234	7623.100098
3177.784180	7679.069824
3176.954102	7732.011230
3176.123047	7559.241699
3175.291992	7822.798828
3174.460938	7713.243652
3173.629883	7727.043457
3172.798828	7647.611816
3171.966797	7682.464844
3171.135742	7747.370117
3170.303711	7704.043457
3169.471680	7687.778809
3168.639648	7569.352051
3167.807617	7619.210938
3166.975586	7672.057617
3166.143555	7667.821289
3165.310547	7708.630859
3164.478516	7887.541992
3163.645508	7814.226074
3162.812500	7830.979492
3161.979492	7517.612793
3161.146484	7846.466309
3160.312500	7650.200684
3159.479492	7477.994141
3158.645508	7713.722656
3157.812500	7694.491211
3156.978516	7648.282227
3156.144531	7907.850586
3155.310547	7897.588379
3154.475586	7698.536621
3153.641602	7733.253906
3152.807617	7633.151855
3151.972656	7640.910645
3151.137695	7759.474121
3150.302734	7641.449219
3149.467773	7616.270508
3148.632813	7800.633301
3147.796875	7473.158691
3146.961914	7708.354980
3146.125977	7614.367188
3145.290039	7771.688477
3144.455078	7976.813477
3143.618164	7769.190430
3142.782227	7803.821289
3141.946289	7700.924316
3141.109375	7720.609375
3140.273438	7659.598145
3139.436523	7730.080078
3138.599609	7758.713379
3137.762695	7614.085938
3136.925781	7600.915527
3136.088867	7802.750488
3135.250977	7774.625488
3134.414063	7719.642578
3133.576172	7694.523926
3132.738281	7732.082031
3131.900391	7847.204102
3131.062500	7649.048340
3130.224609	7934.164551
3129.385742	7730.093262
3128.547852	7776.559570
3127.708984	7742.515137
3126.870117	7663.768066
3126.031250	7647.634277
3125.192383	7759.640625
3124.353516	7689.866699
3123.514648	7730.335449
3122.674805	8029.916504
3121.835938	7766.563477
3120.996094	7839.752441
3120.156250	7659.870605
3119.316406	7667.568848
3118.476563	7725.857422
3117.635742	7584.762695
3116.795898	7610.318848
3115.955078	7751.877441
3115.114258	7842.829590
3114.274414	7791.016113
3113.433594	7843.280762
3112.591797	7720.138672
3111.750977	7507.868164
3110.910156	7854.356934
3110.068359	7784.754395
3109.226563	7661.699707
3108.384766	7737.695801
3107.542969	7656.265625
3106.701172	7687.697754
3105.859375	7766.621582
3105.017578	7670.383301
3104.174805	7983.750977
3103.332031	7644.176758
3102.490234	7731.957031
3101.647461	7793.010254
3100.803711	7598.964844
3099.960938	7802.365723
3099.118164	7922.679199
3098.274414	7820.608887
3097.431641	7834.171387
3096.587891	7637.311035
3095.744141	7763.499023
3094.900391	7871.869629
3094.056641	7749.152832
3093.211914	7739.021484
3092.368164	7758.505371
3091.523438	7911.218262
3090.678711	7874.421875
3089.833984	7713.324707
3088.989258	7617.384277
3088.144531	7725.637695
3087.299805	7898.940918
3086.454102	7690.615234
3085.609375	7582.910156
3084.763672	7762.065918
3083.917969	7979.598145
3083.072266	7724.096191
3082.226563	7631.231934
3081.380859	7757.072266
3080.534180	7882.872559
3079.688477	7710.265137
3078.841797	7815.355957
3077.995117	7843.630371
3077.148438	7833.510254
3076.301758	7832.250000
3075.455078	7724.727051
3074.607422	7814.974121
3073.760742	7725.192871
3072.913086	7735.750977
3072.065430	7764.004883
3071.217773	7892.528320
3070.370117	7755.608887
3069.522461	7718.979980
3068.673828	7826.812500
3067.826172	7840.290527
3066.977539	7844.922852
3066.128906	7855.446777
3065.280273	7851.236816
3064.431641	7626.109375
3063.583008	7978.294922
3062.734375	7644.267578
3061.884766	7843.240234
3061.035156	7871.415039
3060.186523	7899.580566
3059.336914	7827.683594
3058.487305	7814.654785
3057.636719	7860.465820
3056.787109	7782.726563
3055.937500	7966.747559
3055.086914	7815.506348
3054.236328	7626.095215
3053.385742	7907.052734
3052.535156	7826.428711
3051.684570	7848.676758
3050.833984	7885.607422
3049.982422	7899.026367
3049.130859	7897.754883
3048.280273	7928.786133
3047.428711	7801.257324
3046.577148	7735.417480
3045.725586	7684.274414
3044.873047	7756.405273
3044.021484	7945.881348
3043.168945	7768.577148
3042.316406	7667.595215
3041.464844	7856.993652
3040.612305	7779.487793
3039.758789	7666.824707
3038.906250	7870.788086
3038.053711	7769.870117
3037.200195	7950.307129
3036.346680	7770.298828
3035.493164	7930.170410
3034.639648	7791.229492
3033.786133	7833.903320
3032.932617	7885.348145
3032.079102	7831.381348
3031.224609	7847.683594
3030.370117	7834.713379
3029.515625	7731.034668
3028.661133	7864.374023
3027.806641	7921.613281
3026.952148	7841.368164
3026.097656	7766.997559
3025.242188	8005.502930
3024.386719	7893.125488
3023.532227	7982.464844
3022.676758	7802.911133
3021.820313	7807.498535
3020.964844	7820.848633
3020.109375	7953.956543
3019.252930	7897.185547
3018.397461	7954.315430
3017.541016	7731.144043
3016.684570	7858.341309
3015.828125	7892.100098
3014.970703	7914.174805
3014.114258	7787.437500
3013.256836	7786.183594
3012.400391	7784.929688
3011.542969	7836.169922
3010.685547	7788.254395
3009.828125	7807.407715
3008.970703	7803.235352
3008.112305	7895.241211
3007.254883	7946.421387
3006.396484	7848.995605
3005.538086	7771.992188
3004.679688	7861.030273
3003.821289	7810.258301
3002.962891	7873.056641
3002.104492	7650.540039
3001.245117	7940.377441
3000.385742	7869.252930
2999.527344	7777.782715
2998.667969	7910.357422
2997.808594	7795.639160
2996.948242	7954.342773
2996.088867	7848.377930
2995.229492	7637.779785
2994.369141	7918.522949
2993.508789	7943.405762
2992.648438	7788.107422
2991.788086	7763.608887
2990.927734	7837.890137
2990.067383	7859.864258
2989.206055	7905.063965
2988.344727	7895.079590
2987.484375	7853.163086
2986.623047	7718.372070
2985.761719	7670.691895
2984.899414	7913.207520
2984.038086	8059.900391
2983.176758	7693.092773
2982.314453	7836.873047
2981.452148	7809.511230
2980.589844	7764.761230
2979.727539	7896.863770
2978.865234	7814.432617
2978.002930	7868.236328
2977.139648	7950.999023
2976.276367	7894.672363
2975.414063	7763.050293
2974.550781	7993.495117
2973.687500	7925.605469
2972.824219	7782.460449
2971.959961	7963.578125
2971.096680	8008.604004
2970.232422	7963.905762
2969.368164	7945.261719
2968.503906	7845.622070
2967.639648	7754.691406
2966.775391	7947.205078
2965.911133	7945.924316
2965.045898	7886.822266
2964.181641	7954.925781
2963.316406	7936.302734
2962.451172	7955.251465
2961.585938	7977.083008
2960.720703	7981.574707
2959.854492	7977.399902
2958.989258	7993.440918
2958.123047	7798.700684
2957.256836	7961.995605
2956.391602	7914.529785
2955.524414	7999.832031
2954.658203	8053.366699
2953.791992	7881.852539
2952.924805	7946.926758
2952.058594	7913.920898
2951.191406	7976.084473
2950.324219	8098.774414
2949.457031	8065.759277
2948.589844	8150.925781
2947.722656	7968.061035
2946.854492	7981.182617
2945.986328	7925.160156
2945.119141	8128.388672
2944.250977	8124.198242
2943.382813	7958.760254
2942.513672	8035.209473
2941.645508	8059.820313
2940.777344	8058.520996
2939.908203	8068.731934
2939.039063	8185.392578
2938.169922	8241.605469
2937.300781	7955.534668
2936.431641	7974.381836
2935.562500	8159.987793
2934.692383	8253.540039
2933.822266	8203.345703
2932.953125	8144.545410
2932.083008	7976.574707
2931.212891	7946.559082
2930.341797	8123.371094
2929.471680	7906.659668
2928.601563	8103.521973
2927.730469	8110.828125
2926.859375	8187.027344
2925.988281	8113.952637
2925.117188	8126.992676
2924.246094	8117.074219
2923.375000	7923.557129
2922.502930	8077.167969
2921.630859	8124.618652
2920.759766	7862.375977
2919.887695	7906.978516
2919.015625	7997.430176
2918.142578	8053.460449
2917.270508	8023.505859
2916.397461	8277.203125
2915.525391	8255.815430
2914.652344	8171.423828
2913.779297	8379.155273
2912.906250	8200.283203
2912.033203	8153.156250
2911.159180	8146.116211
2910.286133	8173.420410
2909.412109	8217.883789
2908.538086	8090.677734
2907.664063	8238.116211
2906.790039	8162.427246
2905.916016	7963.802734
2905.041992	8259.861328
2904.166992	8215.649414
2903.291992	8325.791992
2902.417969	8064.398926
2901.542969	8000.238770
2900.666992	7956.096191
2899.791992	8149.041504
2898.916992	8084.897949
2898.041016	8037.907227
2897.165039	8227.890625
2896.290039	8043.876953
2895.414063	8202.403320
2894.538086	8121.180176
2893.661133	8168.372070
2892.785156	8110.001465
2891.908203	8151.475098
2891.032227	8224.303711
2890.155273	8271.448242
2889.278320	8138.977051
2888.401367	8311.533203
2887.523438	8181.948242
2886.646484	8325.947266
2885.768555	8210.645508
2884.891602	8215.017578
2884.013672	8199.451172
2883.135742	8320.573242
2882.256836	8062.991211
2881.378906	8070.229492
2880.500977	8140.081543
2879.622070	8215.602539
2878.743164	8234.192383
2877.865234	8047.951172
2876.985352	8077.939941
2876.106445	8298.458984
2875.227539	8154.948242
2874.348633	8355.482422
2873.468750	8368.346680
2872.588867	7986.160645
2871.708984	8047.386230
2870.829102	8108.592285
2869.949219	8022.062988
2869.069336	8225.263672
2868.188477	7888.844238
2867.308594	8162.982422
2866.427734	8238.313477
2865.546875	8092.225586
2864.666016	8218.625977
2863.785156	8174.736328
2862.903320	8128.024414
2862.022461	8098.346680
2861.140625	8199.138672
2860.258789	8027.676270
2859.376953	8202.161133
2858.495117	8081.778320
2857.613281	8091.810547
2856.731445	8286.036133
2855.848633	8332.865234
2854.965820	8172.877441
2854.083984	8324.508789
2853.201172	8292.012695
2852.318359	8041.500488
2851.434570	8227.051758
2850.551758	8333.285156
2849.667969	8173.451660
2848.785156	8344.742188
2847.901367	8272.664063
2847.017578	7962.991699
2846.133789	8159.687500
2845.249023	8152.713867
2844.365234	8408.690430
2843.480469	8209.446289
2842.596680	8004.613281
2841.711914	8110.709473
2840.827148	8123.527344
2839.942383	8195.667969
2839.056641	8267.785156
2838.171875	8226.911133
2837.286133	8126.750977
2836.401367	8252.486328
2835.515625	7991.452148
2834.629883	8052.253418
2833.743164	8302.103516
2832.857422	8094.795410
2831.971680	8262.748047
2831.084961	8402.441406
2830.198242	8271.359375
2829.311523	8230.547852
2828.424805	8257.409180
2827.538086	8256.075195
2826.651367	8046.188965
2825.763672	8191.415527
2824.876953	8218.265625
2823.989258	8208.487305
2823.101563	8286.021484
2822.213867	8267.786133
2821.325195	8204.508789
2820.437500	8177.846680
2819.549805	8151.193359
2818.661133	8293.399414
2817.772461	8306.127930
2816.883789	8293.532227
2815.995117	8365.325195
2815.106445	8355.536133
2814.216797	8269.829102
2813.328125	8296.606445
2812.438477	8278.399414
2811.548828	8220.850586
2810.659180	8320.685547
2809.769531	8291.244141
2808.879883	8486.546875
2807.989258	8181.832520
2807.099609	8306.882813
2806.208984	8283.077148
2805.318359	8217.168945
2804.427734	8288.820313
2803.537109	8382.900391
2802.646484	8507.815430
2801.754883	8315.662109
2800.863281	8325.538086
2799.972656	8537.345703
2799.081055	8507.923828
2798.189453	8397.202148
2797.296875	8421.074219
2796.405273	8470.164063
2795.513672	8381.920898
2794.621094	8400.178711
2793.728516	8241.938477
2792.835938	8372.253906
2791.943359	8359.697266
2791.050781	8419.948242
2790.157227	8432.584961
2789.264648	8504.000977
2788.371094	8421.461914
2787.477539	8501.250977
2786.583984	8270.452148
2785.690430	8476.123047
2784.796875	8430.000977
2783.903320	8434.230469
2783.008789	8346.189453
2782.114258	8448.276367
2781.219727	8494.427734
2780.325195	8641.171875
2779.430664	8553.153320
2778.536133	8356.205078
2777.640625	8477.760742
2776.746094	8384.224609
2775.850586	8502.942383
2774.955078	8331.256836
2774.059570	8357.824219
2773.164063	8496.026367
2772.267578	8550.463867
2771.372070	8459.795898
2770.475586	8464.006836
2769.579102	8627.204102
2768.683594	8617.442383
2767.786133	8599.318359
2766.889648	8514.289063
2765.993164	8532.424805
2765.095703	8411.202148
2764.199219	8618.833984
2763.301758	8455.844727
2762.404297	8423.834961
2761.506836	8650.859375
2760.608398	8521.360352
2759.710938	8494.922852
2758.812500	8552.009766
2757.914063	8558.976563
2757.016602	8565.940430
2756.118164	8533.946289
2755.218750	8738.437500
2754.320313	8433.829102
2753.421875	8696.673828
2752.522461	8606.284180
2751.623047	8621.572266
2750.723633	8606.278320
2749.824219	8435.344727
2748.924805	8556.251953
2748.025391	8502.076172
2747.125000	8664.602539
2746.224609	8704.864258
2745.325195	8556.268555
2744.424805	8738.143555
2743.523438	8706.190430
2742.623047	8704.781250
2741.722656	8689.496094
2740.821289	8374.530273
2739.919922	8758.818359
2739.019531	8599.284180
2738.118164	8636.721680
2737.215820	8410.705078
2736.314453	8578.473633
2735.413086	8624.211914
2734.510742	8608.957031
2733.608398	8654.674805
2732.706055	8550.752930
2731.803711	8560.450195
2730.901367	8780.658203
2729.999023	8549.370117
2729.095703	8517.527344
2728.193359	8571.519531
2727.290039	8619.958008
2726.386719	8549.370117
2725.483398	8730.624023
2724.579102	8712.609375
2723.675781	8547.984375
2722.771484	8784.466797
2721.868164	8727.736328
2720.963867	8682.083008
2720.059570	8655.795898
2719.155273	8455.378906
2718.250000	8525.865234
2717.345703	8505.141602
2716.440430	8531.391602
2715.536133	8607.355469
2714.630859	8575.581055
2713.725586	8582.475586
2712.819336	8658.393555
2711.914063	8502.401367
2711.007813	8492.744141
2710.102539	8585.196289
2709.196289	8713.487305
2708.290039	8634.831055
2707.383789	8619.641602
2706.477539	8521.720703
2705.570313	8740.931641
2704.664063	8665.078125
2703.756836	8721.560547
2702.849609	8662.271484
2701.942383	8525.842773
2701.035156	8700.791992
2700.127930	8674.589844
2699.219727	8722.761719
2698.312500	8666.272461
2697.404297	8502.418945
2696.496094	8611.159180
2695.587891	8598.753906
2694.679688	8357.933594
2693.770508	8708.783203
2692.862305	8583.570313
2691.953125	8700.458984
2691.043945	8690.798828
2690.134766	8716.888672
2689.225586	8578.007813
2688.316406	8744.301758
2687.406250	8547.744141
2686.497070	8496.894531
2685.586914	8498.264648
2684.676758	8584.795898
2683.766602	8649.325195
2682.856445	8708.340820
2681.946289	8632.792969
2681.035156	8738.462891
2680.124023	8608.036133
2679.213867	8538.029297
2678.302734	8830.254883
2677.391602	8666.953125
2676.479492	8525.648438
2675.568359	8601.061523
2674.657227	8775.170898
2673.745117	8680.527344
2672.833008	8766.843750
2671.920898	8781.868164
2671.008789	8747.559570
2670.096680	8546.120117
2669.183594	8769.379883
2668.270508	8663.871094
2667.358398	8629.601563
2666.445313	8776.068359
2665.532227	8763.694336
2664.619141	8655.516602
2663.705078	8577.479492
2662.791992	8940.039063
2661.877930	8689.611328
2660.963867	8726.500977
2660.049805	8602.004883
2659.135742	8740.079102
2658.221680	8848.032227
2657.306641	8696.237305
2656.392578	8656.560547
2655.477539	8835.529297
2654.562500	8765.785156
2653.647461	8726.115234
2652.732422	8661.873047
2651.817383	8900.809570
2650.901367	8817.444336
2649.986328	8824.205078
2649.070313	8798.206055
2648.154297	8720.356445
2647.238281	8658.905273
2646.321289	8908.522461
2645.405273	8743.394531
2644.489258	8807.438477
2643.572266	8737.831055
2642.655273	8815.488281
2641.738281	8838.595703
2640.821289	8918.936523
2639.903320	8808.473633
2638.986328	8725.296875
2638.068359	8642.145508
2637.151367	8725.189453
2636.233398	8911.705078
2635.315430	8844.902344
2634.396484	8731.834961
2633.478516	8730.417969
2632.559570	8963.082031
2631.641602	8784.735352
2630.722656	8911.196289
2629.803711	9018.571289
2628.884766	8687.976563
2627.965820	8895.980469
2627.045898	8948.920898
2626.125977	8923.000000
2625.207031	8804.664063
2624.287109	8892.925781
2623.367188	8766.479492
2622.447266	8735.169922
2621.526367	8812.533203
2620.606445	8974.070313
2619.685547	9007.917969
2618.764648	8786.521484
2617.843750	8950.698242
2616.922852	8837.956055
2616.001953	8904.370117
2615.080078	8940.913086
2614.159180	8898.766602
2613.237305	8900.035156
2612.315430	8933.847656
2611.393555	8864.605469
2610.471680	8857.743164
2609.548828	9024.377930
2608.626953	8987.677734
2607.704102	8877.820313
2606.781250	9206.940430
2605.858398	8939.956055
2604.935547	9125.400391
2604.012695	8937.052734
2603.089844	8968.095703
2602.166016	8944.980469
2601.242188	8794.650391
2600.318359	8812.166992
2599.394531	8924.388672
2598.470703	8931.055664
2597.546875	8710.491211
2596.622070	9071.503906
2595.698242	8880.734375
2594.773438	9019.889648
2593.848633	8904.883789
2592.923828	8943.981445
2591.998047	8934.421875
2591.073242	8889.737305
2590.147461	9147.648438
2589.222656	8973.288086
2588.296875	8988.035156
2587.371094	9062.183594
2586.445313	9041.812500
2585.518555	9051.141602
2584.592773	9046.972656
2583.666016	8835.016602
2582.739258	9054.826172
2581.812500	9069.541016
2580.885742	9041.095703
2579.958984	9018.052734
2579.031250	9057.033203
2578.104492	8896.502930
2577.176758	8913.926758
2576.249023	9128.081055
2575.321289	9137.375977
2574.393555	9009.266602
2573.465820	9123.632813
2572.537109	9119.457031
2571.608398	9225.689453
2570.680664	8995.335938
2569.751953	8948.110352
2568.823242	9091.999023
2567.893555	8993.642578
2566.964844	8887.245117
2566.035156	8901.942383
2565.105469	9123.748047
2564.176758	9116.886719
2563.246094	8911.047852
2562.316406	9073.596680
2561.386719	9244.156250
2560.456055	9119.024414
2559.526367	9061.112305
2558.595703	8979.038086
2557.665039	9157.559570
2556.734375	9021.779297
2555.802734	9420.439453
2554.872070	8991.997070
2553.940430	8867.045898
2553.009766	8962.232422
2552.078125	9121.795898
2551.146484	9125.679688
2550.213867	9177.852539
2549.282227	9098.572266
2548.349609	9174.868164
2547.417969	9205.554688
2546.485352	9005.660156
2545.552734	9041.724609
2544.620117	8941.087891
2543.686523	9137.935547
2542.753906	9007.842773
2541.820313	9092.102539
2540.887695	9237.938477
2539.954102	9113.248047
2539.020508	9149.251953
2538.085938	9051.387695
2537.152344	9202.487305
2536.217773	9118.027344
2535.284180	9154.005859
2534.349609	9090.983398
2533.415039	9266.051758
2532.480469	9165.587891
2531.544922	9161.422852
2530.610352	9151.912109
2529.674805	9182.502930
2528.739258	9341.375977
2527.803711	9246.324219
2526.868164	9463.917969
2525.932617	9213.930664
2524.997070	8998.748047
2524.060547	9304.405273
2523.124023	9286.870117
2522.187500	9173.230469
2521.250977	9153.052734
2520.314453	9119.538086
2519.377930	9376.892578
2518.440430	9196.611328
2517.503906	9253.801758
2516.566406	9201.620117
2515.628906	9109.455078
2514.691406	9342.604492
2513.752930	9197.129883
2512.815430	9240.945313
2511.876953	9300.736328
2510.938477	9299.222656
2510.000000	9420.257813
2509.061523	9317.505859
2508.123047	9246.746094
2507.184570	9370.392578
2506.245117	9198.476563
2505.306641	9117.121094
2504.367188	9211.452148
2503.427734	9305.750977
2502.487305	9336.164063
2501.547852	9289.420898
2500.608398	9266.630859
2499.667969	9243.848633
2498.727539	9271.591797
2497.787109	9307.300781
2496.846680	9335.024414
2495.906250	9248.461914
2494.964844	9342.614258
2494.024414	9274.675781
2493.083008	9387.386719
2492.141602	9189.324219
2491.200195	9110.820313
2490.258789	9292.533203
2489.317383	9158.291016
2488.375000	9438.139648
2487.432617	9500.291992
2486.490234	9238.723633
2485.547852	9372.514648
2484.605469	9288.763672
2483.663086	9403.938477
2482.720703	9184.980469
2481.777344	9377.016602
2480.833984	9338.379883
2479.890625	9440.219727
2478.947266	9178.999023
2478.003906	9262.285156
2477.059570	9409.119141
2476.116211	9291.050781
2475.171875	9419.294922
2474.227539	9399.227539
2473.283203	9278.570313
2472.338867	9208.242188
2471.394531	9302.012695
2470.449219	9453.961914
2469.503906	9404.802734
2468.559570	9278.952148
2467.614258	9430.831055
2466.667969	9151.651367
2465.722656	9247.980469
2464.777344	9431.509766
2463.831055	9324.255859
2462.884766	9201.181641
2461.938477	9260.450195
2460.992188	9256.299805
2460.045898	9386.852539
2459.099609	9076.352539
2458.152344	9188.408203
2457.205078	9292.507813
2456.257813	9409.770508
2455.310547	9358.095703
2454.363281	9327.545898
2453.416016	9402.534180
2452.467773	9337.695313
2451.520508	9357.272461
2450.572266	9326.741211
2449.624023	9283.038086
2448.675781	9547.765625
2447.726563	9164.045898
2446.778320	9038.698242
2445.829102	9100.458984
2444.879883	9196.446289
2443.930664	9239.723633
2442.981445	9109.177734
2442.032227	9342.033203
2441.083008	9340.510742
2440.132813	9410.057617
2439.182617	9063.763672
2438.232422	9249.110352
2437.282227	9137.105469
2436.332031	9219.790039
2435.381836	9223.547852
2434.430664	9408.746094
2433.480469	9273.124023
2432.529297	9216.408203
2431.578125	9259.587891
2430.626953	9218.659180
2429.674805	9217.156250
2428.723633	9118.453125
2427.771484	9195.764648
2426.819336	9244.163086
2425.867188	9350.311523
2424.915039	9325.158203
2423.962891	9195.017578
2423.010742	9204.016602
2422.057617	9307.477539
2421.104492	9195.767578
2420.151367	9349.036133
2419.198242	9308.169922
2418.245117	9138.822266
2417.291992	9247.452148
2416.337891	9337.695313
2415.383789	9173.666992
2414.430664	9326.788086
2413.475586	9154.954102
2412.521484	9208.475586
2411.567383	8973.852539
2410.612305	9158.331055
2409.658203	9264.195313
2408.703125	9068.947266
2407.748047	9182.643555
2406.792969	9204.701172
2405.837891	9038.341797
2404.881836	9078.729492
2403.925781	9098.175781
2402.970703	9073.151367
2402.013672	9259.956055
2401.058594	9020.512695
2400.101563	9097.467773
2399.144531	9030.638672
2398.189453	9167.672852
2397.232422	9113.917969
2396.275391	9133.331055
2395.318359	9155.349609
2394.361328	9253.098633
2393.404297	9076.635742
2392.445313	9312.737305
2391.488281	9094.556641
2390.529297	8897.326172
2389.572266	9185.531250
2388.613281	9129.240234
2387.656250	9122.533203
2386.697266	9042.796875
2385.738281	9265.593750
2384.779297	9120.673828
2383.820313	9319.921875
2382.861328	9026.467773
2381.902344	8897.293945
2380.943359	9052.183594
2379.982422	9055.916016
2379.023438	9059.647461
2378.064453	9079.003906
2377.103516	8929.093750
2376.142578	8919.825195
2375.183594	9100.588867
2374.222656	8922.118164
2373.261719	8834.786133
2372.300781	9077.918945
2371.339844	8969.777344
2370.378906	9093.161133
2369.417969	8985.051758
2368.455078	8871.777344
2367.494141	9052.310547
2366.533203	9063.829102
2365.570313	8903.816406
2364.609375	9146.618164
2363.646484	8929.486328
2362.683594	9081.288086
2361.720703	8978.513672
2360.757813	8997.822266
2359.794922	8918.461914
2358.832031	8774.228516
2357.869141	8912.953125
2356.906250	8963.398438
2355.943359	8917.825195
2354.978516	8926.745117
2354.015625	8966.788086
2353.050781	8918.641602
2352.085938	8917.184570
2351.123047	8863.876953
2350.158203	8935.008789
2349.193359	8884.306641
2348.228516	8748.109375
2347.263672	8814.041992
2346.298828	8838.505859
2345.333984	8912.170898
2344.367188	8983.222656
2343.402344	8782.390625
2342.437500	8830.141602
2341.470703	9030.585938
2340.503906	9047.224609
2339.539063	8797.350586
2338.572266	8912.329102
2337.605469	8828.101563
2336.638672	8862.865234
2335.671875	8936.403320
2334.705078	8828.944336
2333.738281	9054.973633
2332.771484	8994.050781
2331.802734	8953.819336
2330.835938	9241.724609
2329.867188	9359.041992
2328.900391	9303.273438
2327.931641	9244.940430
2326.962891	9021.379883
2325.994141	9118.003906
2325.027344	8770.642578
2324.058594	9078.892578
2323.089844	8783.256836
2322.119141	8861.795898
2321.150391	8757.169922
2320.181641	8768.632813
2319.210938	8707.891602
2318.242188	8683.264648
2317.271484	8854.553711
2316.302734	8713.929688
2315.332031	8867.119141
2314.361328	8927.504883
2313.390625	8707.079102
2312.419922	8757.167969
2311.449219	8786.638672
2310.478516	8872.744141
2309.507813	8714.256836
2308.537109	8782.328125
2307.564453	8961.039063
2306.593750	8666.238281
2305.621094	8718.847656
2304.650391	8671.120117
2303.677734	9068.337891
2302.705078	8724.854492
2301.732422	8836.551758
2300.759766	8822.252930
2299.787109	8815.669922
2298.814453	8796.239258
2297.841797	8694.596680
2296.869141	8711.156250
2295.896484	8761.100586
2294.921875	8713.441406
2293.949219	8984.186523
2292.974609	8605.333984
2292.000000	8819.538086
2291.027344	8720.572266
2290.052734	8721.710938
2289.078125	8717.717773
2288.103516	8695.770508
2287.128906	8832.840820
2286.154297	8959.609375
2285.177734	8801.748047
2284.203125	8813.124023
2283.228516	8891.135742
2282.251953	8897.368164
2281.277344	8708.872070
2280.300781	8707.446289
2279.324219	8785.422852
2278.347656	8840.325195
2277.371094	8751.821289
2276.394531	8671.025391
2275.417969	8810.387695
2274.441406	8819.182617
2273.464844	8950.797852
2272.488281	9079.811523
2271.509766	8750.901367
2270.533203	8851.771484
2269.554688	8781.279297
2268.578125	8772.170898
2267.599609	8834.642578
2266.621094	8779.522461
2265.642578	8775.529297
2264.664063	8687.219727
2263.685547	8844.185547
2262.707031	8697.145508
2261.728516	8846.396484
2260.750000	8921.548828
2259.769531	8828.180664
2258.791016	8834.392578
2257.810547	8769.142578
2256.832031	8767.706055
2255.851563	8886.180664
2254.871094	8999.514648
2253.890625	8814.407227
2252.910156	8999.117188
2251.929688	8900.756836
2250.949219	8863.609375
2249.968750	8760.206055
2248.988281	8944.802734
2248.005859	9012.131836
2247.025391	8901.111328
2246.042969	8948.047852
2245.062500	8829.433594
2244.080078	8889.097656
2243.097656	8859.636719
2242.115234	8942.184570
2241.132813	8869.458008
2240.150391	8985.057617
2239.167969	8942.877930
2238.185547	8844.748047
2237.203125	8848.385742
2236.218750	8885.080078
2235.236328	8853.113281
2234.253906	8706.761719
2233.269531	8883.253906
2232.285156	8757.274414
2231.300781	8905.750000
2230.318359	8858.562500
2229.333984	8915.531250
2228.349609	8825.183594
2227.365234	8851.667969
2226.378906	8695.350586
2225.394531	8701.540039
2224.410156	8799.093750
2223.423828	8921.991211
2222.439453	8895.157227
2221.453125	8883.551758
2220.468750	8780.643555
2219.482422	8789.347656
2218.496094	8803.119141
2217.509766	8930.962891
2216.523438	8861.063477
2215.537109	8813.994141
2214.550781	8913.900391
2213.564453	8909.905273
2212.576172	8931.241211
2211.589844	8813.279297
2210.601563	8720.676758
2209.615234	8825.579102
2208.626953	8872.226563
2207.638672	9027.686523
2206.650391	8894.621094
2205.664063	8991.833984
2204.675781	8846.168945
2203.685547	8685.376953
2202.697266	8805.334961
2201.708984	8998.577148
2200.720703	8767.054688
2199.730469	8851.553711
2198.742188	8761.651367
2197.751953	8793.061523
2196.763672	9049.303711
2195.773438	8865.953125
2194.783203	8899.855469
2193.792969	8913.545898
2192.802734	8826.245117
2191.812500	8860.135742
2190.822266	8936.920898
2189.832031	8978.352539
2188.839844	8820.453125
2187.849609	8866.934570
2186.857422	8792.335938
2185.867188	9078.375000
2184.875000	8887.783203
2183.882813	9065.311523
2182.892578	8963.001953
2181.900391	8956.491211
2180.908203	8667.774414
2179.916016	8827.586914
2178.921875	9027.647461
2177.929688	9008.536133
2176.937500	8780.433594
2175.943359	8977.884766
2174.951172	8994.031250
2173.957031	9068.059570
2172.964844	8789.766602
2171.970703	9052.501953
2170.976563	8993.157227
2169.982422	9029.408203
2168.988281	8949.968750
2167.994141	8920.841797
2167.000000	9180.824219
2166.005859	9036.046875
2165.009766	8750.583008
2164.015625	9040.617188
2163.019531	9132.085938
2162.025391	9150.681641
2161.029297	8998.492188
2160.033203	9127.587891
2159.039063	9103.493164
2158.042969	8996.569336
2157.046875	8784.268555
2156.050781	9003.651367
2155.052734	9062.387695
2154.056641	9103.544922
2153.060547	9059.411133
2152.062500	9040.368164
2151.066406	9141.683594
2150.068359	8927.094727
2149.072266	9045.939453
2148.074219	9024.404297
2147.076172	8997.865234
2146.078125	9249.417969
2145.080078	9197.800781
2144.082031	9033.501953
2143.083984	9234.842773
2142.085938	9083.109375
2141.085938	9014.030273
2140.087891	9090.134766
2139.087891	9288.832031
2138.089844	9057.124023
2137.089844	9170.707031
2136.089844	9149.190430
2135.089844	9222.708984
2134.089844	9236.195313
2133.089844	9197.178711
2132.089844	9118.181641
2131.089844	9211.648438
2130.089844	9122.680664
2129.089844	9046.233398
2128.087891	9259.561523
2127.087891	9080.720703
2126.085938	9401.345703
2125.083984	9137.654297
2124.082031	9255.970703
2123.082031	9039.809570
2122.080078	9170.579102
2121.078125	9186.536133
2120.076172	9115.177734
2119.072266	9118.666992
2118.070313	9164.548828
2117.068359	9310.149414
2116.064453	9213.886719
2115.062500	9135.102539
2114.058594	9170.982422
2113.054688	9186.916016
2112.052734	9175.439453
2111.048828	9286.020508
2110.044922	9135.064453
2109.041016	9233.165039
2108.037109	9256.542969
2107.031250	9264.977539
2106.027344	9283.364258
2105.023438	9209.671875
2104.017578	9240.501953
2103.013672	9296.196289
2102.007813	9294.666992
2101.001953	8972.341797
2099.998047	9159.831055
2098.992188	9406.920898
2097.986328	9315.892578
2096.980469	9426.192383
2095.972656	9104.109375
2094.966797	9383.340820
2093.960938	9061.370117
2092.955078	9134.384766
2091.947266	9237.171875
2090.939453	8970.002930
2089.933594	9333.423828
2088.925781	9235.093750
2087.917969	9044.982422
2086.910156	9405.729492
2085.902344	9146.192383
2084.894531	9283.581055
2083.886719	9051.427734
2082.878906	9322.675781
2081.871094	9063.322266
2080.861328	9103.966797
2079.853516	9337.898438
2078.843750	9190.170898
2077.833984	9300.140625
2076.826172	9241.638672
2075.816406	9425.860352
2074.806641	9154.406250
2073.796875	9296.493164
2072.787109	9129.113281
2071.777344	9323.130859
2070.765625	9158.276367
2069.755859	9077.595703
2068.744141	9209.682617
2067.734375	9406.031250
2066.722656	9317.929688
2065.712891	9331.230469
2064.701172	9322.277344
2063.689453	9261.421875
2062.677734	9410.644531
2061.666016	9258.371094
2060.654297	9227.200195
2059.642578	9260.261719
2058.628906	9426.672852
2057.617188	9205.356445
2056.605469	9285.312500
2055.591797	9340.556641
2054.578125	9257.572266
2053.566406	9362.155273
2052.552734	9350.744141
2051.539063	9349.203125
2050.525391	9268.738281
2049.511719	9326.394531
2048.498047	9398.826172
2047.484375	9441.650391
2046.468750	9247.841797
2045.455078	9330.106445
2044.439453	9207.834961
2043.425781	9297.468750
2042.410156	9394.462891
2041.394531	9269.777344
2040.380859	9278.098633
2039.365234	9379.970703
2038.349609	9277.501953
2037.333984	9369.496094
2036.316406	9306.433594
2035.300781	9361.486328
2034.285156	9332.884766
2033.267578	9478.916016
2032.251953	9374.071289
2031.234375	9343.021484
2030.218750	9339.023438
2029.201172	9396.472656
2028.183594	9375.263672
2027.166016	9413.031250
2026.148438	9291.102539
2025.130859	9319.045898
2024.113281	9322.420898
2023.093750	9284.051758
2022.076172	9233.419922
2021.056641	9268.716797
2020.039063	9176.381836
2019.019531	9255.844727
2018.001953	9342.641602
2016.982422	9321.476563
2015.962891	9501.432617
2014.943359	9526.839844
2013.923828	9466.424805
2012.904297	9288.362305
2011.882813	9387.321289
2010.863281	9371.069336
2009.843750	9357.272461
2008.822266	9453.719727
2007.802734	9341.938477
2006.781250	9347.744141
2005.759766	9402.519531
2004.738281	9251.629883
2003.716797	9247.655273
2002.695313	9295.077148
2001.673828	9239.709961
2000.652344	9299.349609
1999.630859	9207.307617
1998.609375	9359.870117
1997.585938	9128.462891
1996.564453	9324.997070
1995.541016	9208.564453
1994.517578	9202.156250
1993.494141	9374.142578
1992.472656	9225.996094
1991.449219	9268.445313
1990.425781	9222.950195
1989.400391	9429.007813
1988.376953	9114.912109
1987.353516	9110.965820
1986.328125	9202.216797
1985.304688	9139.684570
1984.279297	9235.780273
1983.255859	9373.318359
1982.230469	9159.551758
1981.205078	9099.505859
1980.179688	9156.527344
1979.154297	9191.586914
1978.128906	9148.628906
1977.103516	9268.982422
1976.078125	9031.074219
1975.050781	9102.676758
1974.025391	9210.796875
1972.998047	9016.858398
1971.972656	9176.096680
1970.945313	9145.363281
1969.917969	9063.514648
1968.892578	9057.150391
1967.865234	9082.423828
1966.837891	8956.828125
1965.808594	9021.035156
1964.781250	9063.329102
1963.753906	8879.428711
1962.724609	8992.249023
1961.697266	9160.951172
1960.667969	9091.374023
1959.640625	9138.480469
1958.611328	8996.028320
1957.582031	8897.356445
1956.552734	9143.668945
1955.523438	9006.142578
1954.494141	9106.649414
1953.464844	9068.723633
1952.435547	8957.981445
1951.404297	9123.980469
1950.375000	9090.923828
1949.343750	9193.757813
1948.314453	9114.605469
1947.283203	8999.094727
1946.251953	9041.261719
1945.222656	9114.936523
1944.191406	9176.464844
1943.158203	9012.538086
1942.126953	9168.584961
1941.095703	9045.907227
1940.064453	9080.754883
1939.031250	9064.718750
1938.000000	9334.487305
1936.966797	9148.900391
1935.935547	9014.220703
1934.902344	8973.997070
1933.869141	8971.304688
1932.835938	8968.612305
1931.802734	8965.919922
1930.769531	8963.226563
1929.736328	8960.534180
1928.703125	8957.841797
1927.667969	9258.613281
1926.634766	9090.266602
1925.599609	9054.921875
1924.566406	9341.026367
1923.531250	9097.838867
1922.496094	9357.264648
1921.460938	9106.907227
1920.425781	9293.789063
1919.390625	8983.153320
1918.355469	9208.624023
1917.320313	9291.591797
1916.285156	9275.572266
1915.248047	9160.616211
1914.212891	9296.631836
1913.175781	9273.381836
1912.138672	9431.041992
1911.103516	9195.552734
1910.066406	9051.768555
1909.029297	9134.650391
1907.992188	9128.317383
1906.955078	9182.238281
1905.917969	9354.212891
1904.878906	9222.565430
1903.841797	9396.884766
1902.802734	9229.147461
1901.765625	9181.867188
1900.726563	9358.512695
1899.687500	9414.737305
1898.650391	9213.411133
1897.611328	9426.059570
1896.572266	9511.117188
1895.533203	9406.099609
1894.494141	9370.869141
1893.453125	9299.577148
1892.414063	9413.451172
1891.375000	9116.193359
1890.333984	9287.748047
1889.292969	9293.419922
1888.253906	9207.781250
1887.212891	9340.794922
1886.171875	9384.886719
1885.130859	9308.880859
1884.089844	9396.186523
1883.048828	9250.578125
1882.007813	9227.442383
1880.964844	9307.516602
1879.923828	9229.185547
1878.880859	9309.232422
1877.839844	9262.111328
1876.796875	9248.584961
1875.753906	9297.413086
1874.712891	9449.326172
1873.669922	9510.089844
1872.626953	9249.649414
1871.583984	9245.720703
1870.539063	9210.643555
1869.496094	9319.320313
1868.453125	9212.381836
1867.408203	9337.786133
1866.365234	9317.083008
1865.320313	9217.380859
1864.275391	9254.152344
1863.230469	9240.652344
1862.187500	9181.691406
1861.142578	9010.298828
1860.095703	9350.881836
1859.050781	9174.735352
1858.005859	9309.521484
1856.960938	9226.686523
1855.914063	9134.315430
1854.869141	9333.575195
1853.822266	9267.504883
1852.775391	9070.040039
1851.730469	9180.818359
1850.683594	9267.673828
1849.636719	9218.374023
1848.589844	9107.007813
1847.541016	9105.498047
1846.494141	9197.081055
1845.447266	9257.607422
1844.400391	8960.183594
1843.351563	8930.068359
1842.302734	9016.847656
1841.255859	9113.138672
1840.207031	9221.319336
1839.158203	9131.574219
1838.109375	9263.554688
1837.060547	9097.561523
1836.011719	9038.859375
1834.962891	9085.013672
1833.912109	8931.042969
1832.863281	9227.292969
1831.814453	9170.989258
1830.763672	9059.938477
1829.712891	9213.179688
1828.664063	9211.651367
1827.613281	9007.833008
1826.562500	9037.272461
1825.511719	9192.792969
1824.460938	8965.291992
1823.408203	9075.583984
1822.357422	8974.207031
1821.306641	9058.307617
1820.253906	9189.923828
1819.203125	8893.685547
1818.150391	9037.165039
1817.097656	9023.786133
1816.046875	9176.698242
1814.994141	9068.293945
1813.941406	9178.402344
1812.888672	9060.535156
1811.833984	9099.389648
1810.781250	9140.603516
1809.728516	9139.085938
1808.673828	9168.415039
1807.621094	9048.274414
1806.566406	9053.887695
1805.511719	9095.073242
1804.458984	9264.290039
1803.404297	9111.020508
1802.349609	9085.803711
1801.294922	9231.236328
1800.238281	9123.070313
1799.183594	9100.232422
1798.128906	9122.410156
1797.072266	9028.526367
1796.017578	9060.179688
1794.960938	9200.734375
1793.906250	9052.436523
1792.849609	9043.832031
1791.792969	9255.313477
1790.736328	9249.043945
1789.679688	9155.246094
1788.623047	9148.995117
1787.564453	9093.082031
1786.507813	9190.881836
1785.451172	9208.267578
1784.392578	9031.822266
1783.335938	9188.665039
1782.277344	9125.702148
1781.218750	9180.887695
1780.160156	9323.454102
1779.101563	9130.601563
1778.042969	9176.312500
1776.984375	9066.182617
1775.925781	9114.248047
1774.865234	9169.378906
1773.806641	9118.298828
1772.746094	9338.569336
1771.687500	9226.142578
1770.626953	9281.216797
1769.566406	9053.283203
1768.507813	9094.219727
1767.447266	9368.530273
1766.386719	9385.830078
1765.324219	9240.512695
1764.263672	9161.219727
1763.203125	9209.170898
1762.140625	9087.509766
1761.080078	9177.847656
1760.017578	9364.699219
1758.957031	9153.607422
1757.894531	9220.349609
1756.832031	9254.120117
1755.769531	9254.934570
1754.707031	9291.040039
1753.644531	9282.437500
1752.582031	9215.039063
1751.517578	9394.578125
1750.455078	9355.397461
1749.390625	9403.208008
1748.328125	9176.004883
1747.263672	9282.580078
1746.199219	9060.170898
1745.136719	9331.175781
1744.072266	9435.321289
1743.007813	9166.028320
1741.941406	9152.762695
1740.876953	9238.104492
1739.812500	9220.136719
1738.748047	9326.559570
1737.681641	9226.455078
1736.615234	9238.997070
1735.550781	9260.916992
1734.484375	9170.253906
1733.417969	9257.835938
1732.351563	9439.169922
1731.285156	9360.242188
1730.218750	9342.278320
1729.152344	9329.006836
1728.085938	9470.376953
1727.017578	9440.689453
1725.951172	9450.829102
1724.882813	9318.114258
1723.814453	9438.318359
1722.748047	9310.331055
1721.679688	9404.748047
1720.611328	9332.974609
1719.542969	9375.878906
1718.474609	9299.454102
1717.404297	9478.016602
1716.335938	9233.212891
1715.267578	9322.870117
1714.197266	9403.145508
1713.128906	9399.242188
1712.058594	9318.214844
1710.988281	9433.500977
1709.917969	9249.693359
1708.847656	9306.552734
1707.777344	9258.291016
1706.707031	9326.805664
1705.636719	9493.358398
1704.566406	9398.400391
1703.494141	9322.146484
1702.423828	9493.283203
1701.351563	9421.704102
1700.281250	9210.176758
1699.208984	9304.274414
1698.136719	9305.056641
1697.064453	9291.847656
1695.992188	9357.908203
1694.919922	9423.946289
1693.847656	9459.665039
1692.773438	9448.768555
1691.701172	9328.375977
1690.626953	9364.091797
1689.554688	9360.203125
1688.480469	9465.758789
1687.406250	9487.463867
1686.332031	9348.541016
1685.257813	9281.814453
1684.183594	9375.676758
1683.109375	9357.828125
1682.035156	9460.950195
1680.960938	9617.534180
1679.884766	9315.941406
1678.810547	9539.924805
1677.734375	9333.758789
1676.658203	9369.392578
1675.583984	9314.379883
1674.507813	9238.472656
1673.431641	9522.682617
1672.355469	9363.146484
1671.279297	9503.250977
1670.201172	9318.227539
1669.125000	9393.288086
1668.048828	9380.115234
1666.970703	9399.439453
1665.892578	9370.026367
1664.816406	9396.304688
1663.738281	9364.582031
1662.660156	9495.219727
1661.582031	9437.982422
1660.503906	9364.534180
1659.425781	9548.423828
1658.347656	9410.083008
1657.267578	9151.286133
1656.189453	9397.676758
1655.109375	9444.757813
1654.031250	9452.447266
1652.951172	9286.446289
1651.871094	9187.649414
1650.791016	9257.882813
1649.710938	9436.881836
1648.630859	9270.994141
1647.550781	9304.155273
1646.470703	9415.964844
1645.388672	9190.020508
1644.308594	9246.305664
1643.226563	9323.382813
1642.146484	9155.365234
1641.064453	9190.822266
1639.982422	9316.404297
1638.900391	9021.376953
1637.818359	9056.837891
1636.736328	9175.448242
1635.654297	9053.815430
1634.570313	9061.541016
1633.488281	9043.866211
1632.406250	8931.548828
1631.322266	9024.690430
1630.238281	9062.415039
1629.156250	9037.828125
1628.072266	9110.141602
1626.988281	9133.993164
1625.904297	9139.386719
1624.820313	9124.025391
1623.734375	9131.723633
1622.650391	8934.271484
1621.566406	8962.740234
1620.480469	8933.592773
1619.396484	9141.752930
1618.310547	8893.752930
1617.224609	9097.243164
1616.138672	9098.026367
1615.052734	9131.041992
1613.966797	9069.666016
1612.880859	8918.549805
1611.794922	9080.443359
1610.708984	8956.984375
1609.621094	9183.228516
1608.535156	9108.093750
1607.447266	9012.287109
1606.359375	9183.225586
1605.273438	8990.884766
1604.185547	9076.724609
1603.097656	9008.563477
1602.009766	9009.355469
1600.921875	8994.066406
1599.832031	9100.519531
1598.744141	9156.413086
1597.654297	9035.481445
1596.566406	9123.507813
1595.476563	9138.050781
1594.388672	9269.634766
1593.298828	9001.906250
1592.208984	9007.284180
1591.119141	9120.472656
1590.029297	9100.600586
1588.939453	9241.251953
1587.847656	9056.288086
1586.757813	9082.282227
1585.666016	9115.143555
1584.576172	9221.324219
1583.484375	9045.651367
1582.392578	9259.474609
1581.302734	9051.788086
1580.210938	9098.365234
1579.119141	9170.113281
1578.025391	9127.372070
1576.933594	9185.357422
1575.841797	8936.661133
1574.750000	9134.234375
1573.656250	9366.057617
1572.562500	9350.766602
1571.470703	9273.731445
1570.376953	9400.230469
1569.283203	9389.512695
1568.189453	9225.647461
1567.095703	9251.529297
1566.001953	9313.963867
1564.908203	9371.807617
1563.812500	9205.769531
1562.718750	9190.525391
1561.623047	9428.759766
1560.529297	9310.741211
1559.433594	9491.805664
1558.337891	9451.416016
1557.242188	9397.348633
1556.146484	9594.278320
1555.050781	9588.109375
1553.955078	9511.236328
1552.859375	9491.400391
1551.761719	9464.730469
1550.666016	9506.460938
1549.568359	9420.534180
1548.472656	9197.897461
1547.375000	9533.587891
1546.277344	9490.984375
1545.179688	9405.116211
1544.082031	9414.928711
1542.984375	9413.352539
1541.886719	9541.546875
1540.787109	9312.319336
1539.689453	9322.139648
1538.589844	9434.355469
1537.492188	9464.627930
1536.392578	9353.853516
1535.292969	9575.177734
1534.193359	9503.079102
1533.095703	9440.099609
1531.994141	9327.129883
1530.894531	9432.392578
1529.794922	9410.359375
1528.695313	9456.498047
1527.593750	9375.403320
1526.494141	9344.305664
1525.392578	9426.765625
1524.291016	9434.268555
1523.189453	9414.526367
1522.089844	9367.552734
1520.988281	9343.288086
1519.884766	9412.063477
1518.783203	9215.379883
1517.681641	9404.373047
1516.580078	9418.672852
1515.476563	9360.406250
1514.373047	9424.584961
1513.271484	9364.069336
1512.167969	9407.827148
1511.064453	9193.245117
1509.960938	9257.407227
1508.857422	9267.181641
1507.753906	9374.342773
1506.650391	9368.242188
1505.544922	9312.333008
1504.441406	9070.815430
1503.335938	9198.306641
1502.232422	9364.224609
1501.126953	9242.736328
1500.021484	9189.156250
1498.916016	9101.665039
1497.810547	9091.092773
1496.705078	9349.593750
1495.599609	9257.597656
1494.494141	9179.193359
1493.386719	9087.255859
1492.281250	9205.489258
1491.173828	9240.092773
1490.068359	9324.377930
1488.960938	9318.296875
1487.853516	9230.927734
1486.746094	9066.826172
1485.638672	9058.533203
1484.531250	9079.583008
1483.423828	9064.520508
1482.314453	9112.635742
1481.207031	8971.248047
1480.097656	9199.793945
1478.990234	9078.734375
1477.880859	9056.918945
1476.771484	9026.093750
1475.662109	9105.718750
1474.552734	9183.064453
1473.443359	9091.397461
1472.333984	9182.234375
1471.224609	9038.793945
1470.113281	9005.749023
1469.003906	9168.605469
1467.892578	9101.780273
1466.783203	9147.520508
1465.671875	9353.030273
1464.560547	9380.711914
1463.449219	9174.411133
1462.337891	9112.138672
1461.226563	9288.277344
1460.115234	9295.712891
1459.001953	8974.904297
1457.890625	9411.727539
1456.777344	9189.895508
1455.666016	9116.445313
1454.552734	9218.262695
1453.439453	9174.034180
1452.326172	9201.691406
1451.212891	9110.322266
1450.099609	9268.202148
1448.986328	9307.051758
1447.873047	9386.289063
1446.757813	9319.634766
1445.644531	9261.976563
1444.529297	9303.043945
1443.414063	9391.198242
1442.300781	9199.002930
1441.185547	9327.503906
1440.070313	9256.441406
1438.955078	9192.125977
1437.839844	9396.758789
1436.722656	9408.624023
1435.607422	9393.600586
1434.492188	9215.068359
1433.375000	9217.998047
1432.257813	9321.690430
1431.142578	9223.855469
1430.025391	9287.219727
1428.908203	9393.084961
1427.791016	9165.500977
1426.673828	9204.232422
1425.556641	9359.269531
1424.437500	9386.771484
1423.320313	9394.137695
1422.201172	9139.914063
1421.083984	9216.617188
1419.964844	9132.371094
1418.845703	9215.752930
1417.726563	9263.357422
1416.607422	9277.437500
1415.488281	9313.847656
1414.369141	9267.618164
1413.250000	9223.636719
1412.128906	9117.162109
1411.009766	9390.168945
1409.888672	9140.875977
1408.769531	9275.447266
1407.648438	9209.190430
1406.527344	9258.943359
1405.406250	9201.631836
1404.285156	9220.152344
1403.164063	9240.895508
1402.042969	9286.150391
1400.919922	9195.442383
1399.798828	9178.296875
1398.675781	9165.613281
1397.554688	9108.382813
1396.431641	9075.669922
1395.308594	9127.585938
1394.185547	9199.521484
1393.062500	9151.226563
1391.939453	9212.004883
1390.816406	9148.146484
1389.693359	9128.807617
1388.568359	9205.129883
1387.445313	9103.493164
1386.320313	9006.337891
1385.197266	9153.791016
1384.072266	9065.551758
1382.947266	9019.572266
1381.822266	8958.051758
1380.697266	9136.519531
1379.572266	9092.771484
1378.445313	9046.817383
1377.320313	9096.372070
1376.195313	9119.265625
1375.068359	9097.749023
1373.941406	9016.309570
1372.816406	9205.650391
1371.689453	8911.202148
1370.562500	9022.847656
1369.435547	9127.800781
1368.308594	9059.729492
1367.179688	9171.291992
1366.052734	9145.359375
1364.923828	8982.001953
1363.796875	9239.796875
1362.667969	9171.761719
1361.541016	9159.139648
1360.412109	9306.013672
1359.283203	9266.793945
1358.154297	9311.736328
1357.025391	9210.534180
1355.894531	9456.916016
1354.765625	9003.804688
1353.636719	9250.137695
1352.505859	9295.042969
1351.376953	9185.079102
1350.246094	9305.181641
1349.115234	9347.842773
1347.984375	9330.790039
1346.853516	9176.677734
1345.722656	9287.858398
1344.591797	9390.161133
1343.460938	9496.848633
1342.328125	9327.346680
1341.197266	9310.312500
1340.064453	9319.785156
1338.933594	9260.802734
1337.800781	9539.624023
1336.667969	9438.684570
1335.535156	9373.089844
1334.402344	9333.997070
1333.269531	9363.310547
1332.134766	9423.496094
1331.001953	9382.208008
1329.869141	9490.881836
1328.734375	9442.981445
1327.599609	9417.140625
1326.466797	9349.431641
1325.332031	9471.258789
1324.197266	9394.750000
1323.062500	9364.527344
1321.927734	9380.568359
1320.791016	9381.187500
1319.656250	9350.982422
1318.519531	9556.336914
1317.384766	9383.043945
1316.248047	9381.460938
1315.113281	9357.875000
1313.976563	9270.498047
1312.839844	9183.151367
1311.703125	9331.146484
1310.566406	9237.221680
1309.427734	9393.950195
1308.291016	9311.036133
1307.154297	9371.000000
1306.015625	9266.144531
1304.878906	9086.625977
1303.740234	9379.435547
1302.601563	9412.991211
1301.462891	9338.939453
1300.324219	9262.716797
1299.185547	9138.227539
1298.046875	9312.262695
1296.906250	9319.468750
1295.767578	9201.613281
1294.626953	9211.027344
1293.488281	9240.177734
1292.347656	9118.008789
1291.207031	9155.934570
1290.066406	9139.042969
1288.925781	9279.964844
1287.785156	9087.745117
1286.644531	9053.344727
1285.503906	8981.714844
1284.361328	9197.036133
1283.220703	9127.595703
1282.078125	9123.864258
1280.937500	9113.565430
1279.794922	9070.438477
1278.652344	9178.328125
1277.509766	9076.126953
1276.367188	9022.087891
1275.224609	9304.916992
1274.080078	8885.634766
1272.937500	9131.218750
1271.794922	9131.861328
1270.650391	9040.698242
1269.505859	9065.396484
1268.363281	9170.934570
1267.218750	9007.713867
1266.074219	9102.303711
1264.929688	9231.805664
1263.783203	9027.166992
1262.638672	9099.872070
1261.494141	9185.649414
1260.347656	9214.652344
1259.203125	8944.688477
1258.056641	9026.083984
1256.910156	9277.603516
1255.763672	9051.385742
1254.617188	9204.684570
1253.470703	9028.702148
1252.324219	9195.032227
1251.177734	9045.265625
1250.031250	9157.054688
1248.882813	9277.521484
1247.734375	9099.496094
1246.587891	9237.355469
1245.439453	9229.259766
1244.291016	9112.297852
1243.142578	9295.801758
1241.994141	9250.697266
1240.845703	9399.293945
1239.697266	9264.974609
1238.546875	9206.842773
1237.398438	9168.307617
1236.248047	9260.272461
1235.099609	9184.775391
1233.949219	9274.531250
1232.798828	9327.304688
1231.648438	9277.913086
1230.498047	9391.509766
1229.347656	9237.838867
1228.197266	9127.664063
1227.044922	9284.665039
1225.894531	9426.411133
1224.742188	9309.746094
1223.591797	9332.048828
1222.439453	9241.483398
1221.287109	9285.489258
1220.134766	9207.979492
1218.982422	9234.621094
1217.830078	9315.476563
1216.677734	9580.630859
1215.523438	9427.235352
1214.371094	9328.087891
1213.216797	9463.057617
1212.064453	9617.484375
1210.910156	9572.521484
1209.755859	9603.395508
1208.601563	9623.428711
1207.447266	9372.753906
1206.292969	9386.323242
1205.136719	9380.403320
1203.982422	9391.801758
1202.828125	9465.956055
1201.671875	9503.299805
1200.515625	9508.180664
1199.361328	9484.939453
1198.205078	9647.695313
1197.048828	9460.102539
1195.892578	9404.451172
1194.736328	9588.752930
1193.578125	9697.349609
1192.421875	9583.342773
1191.265625	9493.138672
1190.107422	9515.291992
1188.949219	9323.621094
1187.792969	9343.634766
1186.634766	9668.062500
1185.476563	9416.020508
1184.318359	9565.503906
1183.160156	9494.829102
1182.000000	9527.740234
1180.841797	9668.499023
1179.681641	9619.410156
1178.523438	9382.726563
1177.363281	9424.256836
1176.203125	9610.207031
1175.044922	9599.956055
1173.884766	9509.973633
1172.724609	9618.247070
1171.562500	9571.375977
1170.402344	9791.604492
1169.242188	9546.594727
1168.080078	9644.021484
1166.919922	9689.747070
1165.757813	9681.646484
1164.595703	9686.459961
1163.433594	9906.442383
1162.271484	9900.458984
1161.109375	9855.760742
1159.947266	9709.997070
1158.785156	9794.359375
1157.621094	9996.936523
1156.458984	9801.784180
1155.294922	10122.493164
1154.132813	9804.904297
1152.968750	10144.838867
1151.804688	9984.162109
1150.640625	10059.784180
1149.476563	10122.497070
1148.312500	10137.954102
1147.146484	10091.155273
1145.982422	10138.805664
1144.818359	10192.876953
1143.652344	10330.604492
1142.486328	10191.562500
1141.320313	10181.252930
1140.156250	10254.579102
1138.990234	10480.106445
1137.822266	10476.183594
1136.656250	10459.402344
1135.490234	10472.626953
1134.324219	10695.820313
1133.156250	10552.617188
1131.988281	10692.188477
1130.822266	10523.334961
1129.654297	10943.352539
1128.486328	10958.619141
1127.318359	10727.734375
1126.150391	10890.696289
1124.982422	10961.594727
1123.812500	10835.652344
1122.644531	11049.846680
1121.474609	11039.415039
1120.306641	11174.385742
1119.136719	11033.526367
1117.966797	11300.976563
1116.796875	11273.411133
1115.626953	11346.283203
1114.457031	11299.490234
1113.287109	11622.250000
1112.115234	11500.675781
1110.945313	11494.451172
1109.773438	11857.576172
1108.603516	11714.676758
1107.431641	11661.463867
1106.259766	11855.797852
1105.087891	11894.319336
1103.916016	12043.750977
1102.744141	12150.475586
1101.572266	12050.319336
1100.398438	12201.778320
1099.226563	12257.259766
1098.052734	12172.053711
1096.880859	12287.187500
1095.707031	12233.963867
1094.533203	12432.126953
1093.359375	12608.922852
1092.185547	12653.627930
1091.011719	12513.081055
1089.837891	12766.408203
1088.662109	12968.567383
1087.488281	12883.366211
1086.312500	12974.793945
1085.138672	12936.421875
1083.962891	13157.555664
1082.787109	13170.204102
1081.611328	13352.948242
1080.435547	13397.446289
1079.259766	13363.284180
1078.082031	13329.132813
1076.906250	13603.090820
1075.728516	13704.875000
1074.552734	13589.964844
1073.375000	13785.160156
1072.197266	13844.391602
1071.019531	13892.988281
1069.841797	13784.491211
1068.664063	14128.078125
1067.486328	13934.699219
1066.308594	14392.708008
1065.128906	14226.924805
1063.951172	14103.615234
1062.771484	14264.491211
1061.591797	14433.791992
1060.412109	14344.424805
1059.232422	14693.802734
1058.052734	14606.539063
1056.873047	14794.733398
1055.693359	15088.778320
1054.513672	14933.716797
1053.332031	14981.995117
1052.152344	15030.257813
1050.970703	15173.762695
1049.789063	15088.633789
1048.607422	15416.183594
1047.425781	15455.874023
1046.244141	15319.968750
1045.062500	15463.298828
1043.880859	15579.088867
1042.697266	15675.809570
1041.515625	15899.335938
1040.332031	16025.558594
1039.150391	15889.692383
1037.966797	15891.209961
1036.783203	16038.494141
1035.599609	16257.541016
1034.416016	16254.770508
1033.232422	16429.363281
1032.046875	16299.897461
1030.863281	16406.878906
1029.677734	16431.517578
1028.494141	16477.246094
1027.308594	16662.199219
1026.123047	16750.058594
1024.937500	16831.562500
1023.751953	16891.951172
1022.566406	16840.582031
1021.380859	16905.162109
1020.193359	16965.505859
1019.007813	16848.826172
1017.820313	17155.652344
1016.634766	17272.794922
1015.447266	17288.802734
1014.259766	17315.335938
1013.072266	17066.054688
1011.884766	17410.468750
1010.697266	17790.544922
1009.509766	17394.009766
1008.320313	17409.978516
1007.132813	17352.314453
1005.943359	17391.419922
1004.753906	17602.943359
1003.566406	17555.787109
1002.376953	17529.669922
1001.187500	17703.226563
999.998047	17481.660156
998.806641	17793.833984
997.617188	17668.958984
996.427734	17651.240234
995.236328	17602.029297
994.046875	17529.738281
992.855469	17659.000000
991.664063	17702.162109
990.472656	17434.722656
989.281250	17469.513672
988.089844	17678.414063
986.898438	17476.134766
985.705078	17385.074219
984.513672	17459.685547
983.320313	17391.716797
982.126953	17493.548828
980.935547	17442.361328
979.742188	17684.537109
978.548828	17534.869141
977.355469	17360.117188
976.162109	17390.660156
974.966797	17326.966797
973.773438	17372.160156
972.578125	17540.832031
971.384766	17269.955078
970.189453	17158.197266
968.994141	17331.003906
967.798828	17294.576172
966.603516	17203.783203
965.408203	17104.656250
964.212891	17183.269531
963.015625	17268.126953
961.820313	17087.531250
960.623047	17130.582031
959.427734	17117.208984
958.230469	17066.240234
957.033203	17196.988281
955.835938	17060.406250
954.638672	17072.105469
953.441406	17171.474609
952.244141	17247.849609
951.044922	16748.253906
949.847656	17031.228516
948.648438	16992.853516
947.449219	17083.804688
946.251953	17043.347656
945.052734	16961.205078
943.853516	17004.167969
942.654297	17028.355469
941.453125	16771.207031
940.253906	17135.042969
939.054688	16771.722656
937.853516	16895.906250
936.652344	17107.511719
935.453125	16811.007813
934.251953	16822.705078
933.050781	17011.316406
931.849609	16900.193359
930.646484	16961.802734
929.445313	16809.117188
928.244141	17008.000000
927.041016	16724.341797
925.839844	16665.339844
924.636719	16797.617188
923.433594	16859.179688
922.230469	16804.339844
921.027344	16793.152344
919.824219	16759.117188
918.621094	16745.863281
917.417969	16589.316406
916.212891	16708.986328
915.009766	16733.115234
913.804688	16734.402344
912.599609	16644.373047
911.394531	16398.748047
910.189453	16111.714844
908.984375	16322.608398
907.779297	16504.394531
906.574219	16232.003906
905.367188	16297.640625
904.162109	16207.790039
902.955078	16364.598633
901.750000	16152.507813
900.542969	15973.638672
899.335938	16051.689453
898.128906	15993.021484
896.921875	15853.613281
895.712891	15782.575195
894.505859	15771.591797
893.298828	15752.333008
892.089844	15540.632813
890.880859	15585.556641
889.673828	15357.408203
888.464844	15528.510742
887.255859	15285.973633
886.046875	15182.043945
884.835938	15045.075195
883.626953	15199.577148
882.417969	15184.574219
881.207031	15142.714844
879.998047	14976.923828
878.787109	15090.020508
877.576172	15013.091797
876.365234	14574.863281
875.154297	14776.737305
873.943359	14693.708008
872.732422	14852.154297
871.519531	14375.047852
870.308594	14529.368164
869.095703	14504.188477
867.884766	14425.399414
866.671875	14286.840820
865.458984	14086.484375
864.246094	14180.944336
863.033203	13902.361328
861.820313	13803.134766
860.605469	14004.719727
859.392578	13808.700195
858.177734	13787.796875
856.964844	13698.951172
855.750000	13731.599609
854.535156	13671.610352
853.320313	13687.787109
852.105469	13601.076172
850.890625	13545.252930
849.675781	13536.757813
848.458984	13517.983398
847.244141	13342.939453
846.027344	13295.420898
844.810547	13307.528320
843.595703	13276.471680
842.378906	13165.288086
841.162109	13021.269531
839.943359	13271.692383
838.726563	13084.575195
837.509766	13057.688477
836.291016	12963.058594
835.074219	12669.348633
833.855469	12907.299805
832.636719	13017.945313
831.417969	12906.972656
830.199219	13033.988281
828.980469	13007.139648
827.761719	12898.274414
826.542969	13000.623047
825.322266	13055.788086
824.103516	12875.235352
822.882813	12748.023438
821.664063	12915.887695
820.443359	12737.500000
819.222656	12772.178711
818.001953	12870.326172
816.779297	12984.819336
815.558594	12679.621094
814.337891	13031.527344
813.115234	12945.386719
811.894531	12869.505859
810.671875	12726.143555
809.449219	12881.447266
808.226563	12670.646484
807.003906	13050.813477
805.781250	12827.790039
804.558594	12846.024414
803.333984	12807.033203
802.111328	12911.079102
800.886719	12939.502930
799.664063	12935.236328
798.439453	12947.308594
797.214844	12967.542969
795.990234	13061.262695
794.765625	12873.276367
793.541016	12944.530273
792.314453	12970.871094
791.089844	12858.477539
789.863281	12997.006836
788.638672	12880.568359
787.412109	12998.654297
786.185547	12904.679688
784.958984	12969.724609
783.732422	12965.456055
782.505859	12877.647461
781.279297	13005.816406
780.050781	12999.505859
778.824219	13031.891602
777.595703	13096.844727
776.367188	13233.029297
775.140625	13008.882813
773.912109	13114.507813
772.683594	13024.755859
771.453125	13179.166992
770.224609	13126.046875
768.996094	13247.847656
767.765625	13056.461914
766.537109	13357.139648
765.306641	13074.328125
764.076172	13216.375000
762.845703	12994.644531
761.615234	13061.483398
760.384766	13164.863281
759.154297	13170.720703
757.921875	13357.299805
756.691406	13040.311523
755.458984	13184.219727
754.228516	13301.693359
752.996094	13285.199219
751.763672	13211.901367
750.531250	13394.220703
749.298828	13345.266602
748.066406	13079.353516
746.832031	13367.028320
745.599609	13222.828125
744.365234	13248.925781
743.132813	13410.783203
741.898438	13495.593750
740.664063	13308.929688
739.429688	13592.212891
738.195313	13425.845703
736.960938	13500.469727
735.724609	13496.120117
734.490234	13534.274414
733.255859	13503.611328
732.019531	13580.192383
730.783203	13448.385742
729.546875	13640.235352
728.310547	13500.373047
727.074219	13716.409180
725.837891	13481.569336
724.601563	13640.940430
723.363281	13826.526367
722.126953	13739.283203
720.888672	13597.525391
719.650391	13716.369141
718.414063	13653.420898
717.175781	13540.017578
715.937500	13676.976563
714.697266	13644.342773
713.458984	13637.954102
712.220703	13526.646484
710.980469	13689.736328
709.742188	13590.559570
708.501953	13935.081055
707.261719	13807.666992
706.021484	13611.752930
704.781250	13730.341797
703.541016	13830.751953
702.300781	13792.098633
701.058594	13715.179688
699.818359	13879.994141
698.576172	13764.823242
697.335938	13943.666016
696.093750	13985.549805
694.851563	13979.111328
693.609375	13958.586914
692.367188	13905.875000
691.123047	13899.451172
689.880859	14011.705078
688.638672	13950.964844
687.394531	13946.546875
686.150391	13889.858398
684.908203	13847.260742
683.664063	14031.772461
682.419922	14184.071289
681.175781	13882.280273
679.929688	14066.689453
678.685547	13893.553711
677.439453	14101.992188
676.195313	14175.846680
674.949219	14340.003906
673.703125	13992.334961
672.458984	14116.333984
671.212891	14079.790039
669.964844	14183.670898
668.718750	14179.215820
667.472656	14098.563477
666.224609	14286.589844
664.978516	14119.752930
663.730469	14301.696289
662.482422	14183.004883
661.234375	14226.633789
659.986328	14172.094727
658.738281	14203.693359
657.490234	14211.251953
656.242188	14254.844727
654.992188	14336.454102
653.744141	14067.791992
652.494141	14351.510742
651.244141	14180.971680
649.994141	14046.497070
648.744141	14116.069336
647.494141	14193.616211
646.244141	14387.095703
644.994141	14052.779297
643.742188	14078.331055
642.492188	14111.866211
641.240234	14313.216797
639.988281	14314.737305
638.738281	14156.476563
637.486328	13996.273438
636.232422	14167.553711
634.980469	14226.986328
633.728516	14312.344727
632.474609	14186.147461
631.222656	14191.674805
629.968750	14231.111328
628.714844	14260.561523
627.462891	14212.229492
626.208984	14502.859375
624.953125	14534.239258
623.699219	14465.952148
622.445313	14471.419922
621.191406	14488.840820
619.935547	14526.175781
618.679688	14457.934570
617.425781	14604.787109
616.169922	14500.716797
614.914063	14888.382813
613.658203	14587.253906
612.400391	14807.610352
611.144531	14968.199219
609.888672	14866.142578
608.630859	15084.344727
607.373047	14986.280273
606.117188	14890.236328
604.859375	15070.548828
603.601563	15314.401367
602.343750	15337.583984
601.083984	15545.540039
599.826172	15451.466797
598.568359	15544.129883
597.308594	15749.955078
596.048828	15747.227539
594.791016	15665.092773
593.531250	15636.577148
592.271484	15953.373047
591.011719	15645.049805
589.750000	16140.276367
588.490234	16089.876953
587.230469	15956.204102
585.968750	16371.805664
584.707031	16313.460938
583.447266	16308.652344
582.185547	16575.345703
580.923828	16376.313477
579.662109	16617.146484
578.398438	16739.052734
577.136719	16732.191406
575.875000	16661.970703
574.611328	16845.173828
573.347656	16529.517578
572.085938	16853.187500
570.822266	16784.970703
569.558594	16831.517578
568.292969	16883.984375
567.029297	16875.123047
565.765625	16899.880859
564.500000	16871.250000
563.236328	16816.933594
561.970703	17043.263672
560.705078	16817.029297
559.439453	17072.914063
558.173828	16977.117188
556.908203	17041.318359
555.642578	17020.591797
554.376953	17055.150391
553.109375	16856.779297
551.843750	17033.445313
550.576172	16925.912109
549.308594	17047.265625
548.041016	17002.884766
546.773438	17347.033203
545.505859	17065.998047
544.238281	17047.265625
542.968750	17006.857422
541.701172	17108.357422
540.431641	17292.580078
539.164063	17275.789063
537.894531	17318.093750
536.625000	17303.271484
535.355469	17314.052734
534.085938	17450.826172
532.814453	17428.113281
531.544922	17403.439453
530.273438	17329.582031
529.003906	17468.222656
527.732422	17476.992188
526.460938	17418.890625
525.189453	17533.845703
523.917969	17741.164063
522.646484	17761.671875
521.375000	17556.158203
520.101563	17822.310547
518.830078	17797.605469
517.556641	17708.085938
516.283203	17793.386719
515.011719	17741.207031
513.738281	17808.802734
512.462891	18064.814453
511.189453	17961.583984
509.916016	17897.634766
508.642578	18061.287109
507.367188	18248.419922
506.091797	18060.894531
504.818359	18040.107422
503.542969	18084.025391
502.267578	18482.724609
500.992188	18385.439453
499.714844	18491.976563
498.439453	18333.988281
497.164063	18248.529297
495.886719	18384.410156
494.609375	18486.955078
493.333984	18442.626953
492.056641	18226.056641
490.779297	18551.687500
489.501953	18566.072266
488.222656	18331.982422
486.945313	18542.011719
485.666016	18290.404297
484.388672	18498.410156
483.109375	18399.392578
481.830078	18396.193359
480.550781	18283.546875
479.271484	18127.949219
477.992188	18122.841797
476.712891	18231.033203
475.433594	18177.082031
474.152344	18027.466797
472.871094	18176.615234
471.591797	17948.968750
470.310547	18004.396484
469.029297	17975.896484
467.748047	18015.689453
466.466797	17913.070313
465.183594	18073.781250
463.902344	17910.736328
462.619141	17989.503906
461.337891	17838.224609
460.054688	18028.070313
458.771484	18046.367188
457.488281	17686.685547
456.205078	18042.031250
454.921875	18007.728516
453.638672	18004.593750
452.353516	17865.173828
451.070313	18152.107422
449.785156	17948.480469
448.500000	18089.353516
447.214844	18294.380859
445.929688	18156.972656
444.644531	18107.132813
443.359375	18226.488281
442.072266	17921.957031
440.787109	18397.033203
439.500000	18409.376953
438.214844	18336.214844
436.927734	18577.822266
435.640625	18487.171875
434.353516	18493.662109
433.066406	18632.195313
431.777344	18663.896484
430.490234	18654.820313
429.203125	18907.761719
427.914063	19032.541016
426.625000	18918.634766
425.335938	19053.064453
424.046875	18886.826172
422.757813	19178.287109
421.468750	19248.619141
420.179688	19251.078125
418.888672	19298.115234
417.599609	19380.013672
416.308594	19461.882813
415.017578	19470.113281
413.728516	19602.292969
412.437500	19500.115234
411.144531	19361.187500
409.853516	19580.425781
408.562500	19414.433594
407.269531	19509.738281
405.978516	19781.072266
404.685547	19566.769531
403.392578	19455.046875
402.099609	19592.816406
400.806641	19620.333984
399.513672	19412.003906
398.220703	19284.921875
396.927734	19579.148438
395.632813	19421.166016
394.337891	19309.599609
393.044922	19333.269531
391.750000	19295.136719
390.455078	19152.757813
389.160156	19238.212891
387.865234	19167.304688
386.568359	18999.933594
385.273438	19152.896484
383.976563	18958.578125
382.681641	18903.193359
381.384766	18757.193359
380.087891	18740.423828
378.791016	18509.683594
377.494141	18681.841797
376.197266	18773.001953
374.898438	18584.763672
373.601563	18610.414063
372.302734	18376.042969
371.005859	18359.353516
369.707031	18562.158203
368.408203	18555.064453
367.109375	18632.660156
365.810547	18350.378906
364.509766	18189.404297
363.210938	18474.775391
361.910156	18323.453125
360.611328	18414.476563
359.310547	18555.458984
358.009766	18567.593750
356.708984	18616.244141
355.408203	18568.792969
354.107422	18388.787109
352.804688	18349.076172
351.503906	18265.201172
350.201172	18413.712891
348.900391	18448.892578
347.597656	18247.947266
346.294922	18185.259766
344.992188	18082.294922
343.689453	18284.425781
342.386719	18047.199219
341.082031	18162.955078
339.779297	17860.632813
338.474609	17876.681641
337.169922	17931.064453
335.867188	17812.931641
334.562500	17813.648438
333.257813	17845.019531
331.951172	17746.119141
330.646484	17698.964844
329.341797	17739.912109
328.035156	17857.427734
326.728516	17578.650391
325.423828	17742.085938
324.117188	17819.353516
322.810547	17577.078125
321.503906	17839.898438
320.195313	17668.468750
318.888672	17455.029297
317.580078	17486.390625
316.273438	17756.685547
314.964844	17658.015625
313.656250	17595.687500
312.347656	17542.931641
311.039063	17516.937500
309.730469	17693.404297
308.421875	17527.992188
307.111328	17713.937500
305.802734	17638.298828
304.492188	17688.650391
303.181641	17489.003906
301.871094	17907.589844
300.560547	17830.058594
299.250000	17710.593750
297.939453	17657.912109
296.628906	17813.064453
295.316406	17817.570313
294.005859	17656.259766
292.693359	17792.273438
291.380859	17901.564453
290.068359	18047.011719
288.755859	17840.060547
287.443359	17789.330078
286.130859	17803.347656
284.816406	17547.054688
283.503906	17760.947266
282.189453	17875.814453
280.875000	17745.210938
279.560547	17821.994141
278.246094	17691.443359
276.931641	17604.673828
275.617188	17683.341797
274.300781	17832.314453
272.986328	17715.154297
271.669922	17603.734375
270.355469	17680.445313
269.039063	17686.841797
267.722656	17750.214844
266.406250	17716.720703
265.089844	17757.279297
263.771484	17731.386719
262.455078	17642.873047
261.136719	17558.183594
259.820313	17591.150391
258.501953	17705.673828
257.183594	17602.048828
255.865234	17593.273438
254.546875	17641.376953
253.228516	17653.445313
251.908203	17699.625000
250.589844	17853.796875
249.269531	17731.306641
247.949219	17646.742188
246.628906	17698.570313
245.310547	17865.884766
243.988281	17851.390625
242.667969	17975.082031
241.347656	17828.091797
240.025391	17900.652344
238.705078	17999.673828
237.382813	17988.949219
236.060547	17925.269531
234.738281	18145.251953
233.416016	18204.455078
232.093750	18057.599609
230.771484	18043.089844
229.449219	18363.041016
228.125000	18242.683594
226.800781	17925.917969
225.478516	18005.867188
224.154297	18112.224609
222.830078	18243.087891
221.505859	18136.064453
220.181641	18221.580078
218.855469	18216.492188
217.531250	18064.251953
216.205078	18036.556641
214.878906	18246.498047
213.554688	18247.064453
212.228516	18292.875000
210.902344	18185.988281
209.574219	18260.062500
208.248047	18160.755859
206.921875	18016.267578
205.593750	18472.705078
204.265625	18134.232422
202.939453	18362.648438
201.611328	18253.994141
200.283203	18487.955078
198.955078	18315.328125
197.625000	18520.968750
196.296875	18677.625000
194.968750	18505.052734
193.638672	18718.072266
192.308594	18773.072266
190.978516	19318.726563
189.648438	19116.085938
188.318359	19080.775391
186.988281	19285.988281
185.658203	19113.515625
184.326172	19215.339844
182.996094	19521.830078
181.664063	19567.216797
180.332031	19449.255859
179.000000	19346.353516
177.667969	19725.791016
176.335938	19697.927734
175.003906	19797.644531
173.669922	19597.212891
172.337891	19856.314453
171.003906	19732.818359
169.669922	19676.853516
168.335938	19830.837891
167.001953	19831.095703
165.667969	19906.300781
164.333984	19921.531250
163.000000	19944.246094
161.664063	19938.863281
160.328125	20055.185547
158.994141	19768.972656
157.658203	19829.130859
156.322266	20128.806641
154.986328	20048.548828
153.650391	20162.875000
152.312500	20376.291016
150.976563	20079.099609
149.638672	20533.654297
148.302734	20373.003906
146.964844	20434.833984
145.626953	20735.843750
144.289063	20692.953125
142.949219	20767.769531
141.611328	21077.896484
140.273438	21163.820313
138.933594	21245.980469
137.595703	21669.732422
136.255859	21468.068359
134.916016	21484.812500
133.576172	21430.648438
132.236328	21900.703125
130.894531	22059.111328
129.554688	22195.083984
128.212891	22083.031250
126.873047	22217.085938
125.531250	22166.574219
124.189453	22363.925781
122.847656	22335.759766
121.505859	22376.531250
120.164063	22279.458984
118.820313	22603.275391
117.478516	22563.914063
116.134766	22368.197266
114.792969	22408.921875
113.449219	22382.638672
112.105469	22004.720703
110.761719	22139.304688
109.417969	22273.888672
108.072266	22408.472656
106.728516	22543.056641
105.382813	22677.640625
104.039063	22812.224609
102.693359	22964.292969
101.347656	22999.257813
100.001953	23171.671875
98.654297	23396.025391
97.308594	23445.748047
95.962891	23497.308594
94.615234	23764.179688
93.269531	23869.486328
91.921875	23716.822266
90.574219	23799.835938
89.226563	24240.828125
87.878906	23772.886719
86.529297	23909.617188
85.181641	24257.654297
83.832031	24433.177734
82.484375	24373.263672
81.134766	24079.888672
79.785156	23916.304688
78.435547	23886.148438
77.085938	23865.261719
75.736328	23966.593750
74.384766	24130.835938
73.035156	23943.318359
71.683594	23363.513672
70.332031	23316.828125
68.982422	23236.855469
67.630859	23003.382813
66.279297	22923.492188
64.925781	22523.736328
63.574219	22168.492188
62.220703	22305.054688
60.869141	21944.427734
59.515625	21711.425781
58.162109	20937.199219
56.808594	20037.642578
55.455078	19225.201172
54.101563	18557.072266
52.748047	18099.638672
51.392578	17610.988281
