#Wave		#Intensity
4002.114258	6038.597656
4001.416016	5902.576660
4000.717773	5969.627441
4000.018555	6065.283203
3999.320313	5871.109375
3998.621094	5752.118652
3997.921875	6083.819336
3997.223633	5786.030273
3996.524414	5735.043945
3995.824219	5823.494629
3995.125000	6037.017578
3994.425781	5953.851074
3993.725586	5895.723633
3993.026367	5826.896973
3992.326172	5897.401367
3991.625977	5878.596191
3990.925781	6052.624023
3990.225586	5940.972656
3989.525391	5954.296875
3988.825195	5732.052734
3988.125000	5881.011719
3987.423828	5901.474609
3986.723633	5782.801270
3986.022461	6052.953125
3985.321289	5923.594727
3984.620117	5837.065918
3983.918945	5900.300293
3983.217773	5981.337402
3982.516602	5951.864258
3981.814453	5933.090820
3981.113281	6010.520508
3980.411133	5920.498047
3979.708984	6026.397461
3979.006836	5893.667480
3978.304688	5985.295410
3977.602539	5920.253906
3976.900391	6154.224121
3976.198242	6014.440430
3975.495117	5896.051270
3974.792969	5937.796875
3974.089844	5904.828613
3973.386719	5978.567871
3972.683594	6105.622559
3971.980469	5841.541504
3971.277344	6061.002930
3970.574219	6035.149414
3969.870117	6094.592773
3969.166992	6061.635742
3968.462891	5836.851074
3967.759766	5892.745117
3967.055664	5813.667480
3966.351563	5894.403320
3965.647461	5928.958984
3964.943359	5885.410156
3964.238281	5888.014160
3963.534180	5975.782715
3962.829102	5875.479004
3962.125000	6037.716797
3961.419922	5990.637695
3960.714844	5833.639160
3960.009766	5914.253418
3959.304688	5700.594727
3958.599609	6008.057617
3957.893555	5801.540039
3957.188477	5740.370117
3956.482422	5990.991699
3955.777344	5848.337402
3955.071289	6109.486328
3954.365234	5977.482422
3953.659180	5916.332031
3952.953125	5957.862305
3952.246094	5815.327148
3951.540039	5927.637695
3950.833008	5848.842773
3950.126953	5872.667969
3949.419922	5677.179688
3948.712891	6054.686035
3948.005859	5968.848633
3947.298828	5716.871094
3946.591797	6005.815430
3945.884766	5997.782715
3945.176758	5820.130371
3944.469727	5833.329102
3943.761719	5825.327148
3943.053711	5827.923828
3942.345703	5989.437012
3941.637695	5882.547363
3940.929688	6008.696289
3940.221680	5845.360352
3939.513672	5823.246094
3938.804688	5995.216309
3938.095703	5951.916504
3937.387695	6067.369629
3936.678711	5907.681641
3935.969727	5843.257813
3935.260742	5828.216309
3934.551758	5830.805664
3933.841797	6013.154297
3933.132813	5839.505859
3932.422852	6085.219238
3931.713867	5872.861328
3931.003906	5917.710449
3930.293945	6022.416504
3929.583984	5919.331543
3928.874023	6112.022461
3928.164063	5910.390625
3927.453125	5941.118652
3926.743164	5862.745605
3926.032227	5991.988770
3925.322266	6096.564453
3924.611328	5796.610352
3923.900391	6006.687500
3923.189453	5938.914551
3922.478516	5825.459961
3921.766602	5933.493164
3921.055664	5806.017090
3920.344727	5917.532227
3919.632813	5860.368164
3918.920898	6052.633789
3918.208984	6118.395508
3917.497070	5903.198730
3916.785156	5912.784668
3916.073242	5862.687500
3915.361328	5858.236328
3914.648438	5867.824219
3913.936523	5965.131836
3913.223633	5855.416016
3912.510742	6022.849121
3911.797852	5948.230957
3911.084961	5838.570313
3910.372070	5788.547852
3909.659180	5899.795410
3908.945313	6049.562012
3908.232422	5862.857910
3907.518555	5889.947754
3906.804688	5836.453125
3906.091797	5902.067871
3905.377930	6058.717773
3904.663086	6064.748535
3903.949219	6067.275879
3903.235352	5845.773438
3902.520508	5935.832520
3901.806641	5808.903809
3901.091797	5905.937012
3900.376953	5925.978516
3899.662109	5956.506836
3898.947266	5976.533203
3898.232422	6021.029297
3897.517578	5946.647461
3896.802734	5945.693359
3896.086914	5983.182617
3895.372070	5940.291016
3894.656250	5810.069824
3893.940430	6036.193359
3893.224609	5885.042480
3892.508789	5877.114258
3891.792969	5715.562500
3891.076172	5938.064941
3890.360352	5961.544434
3889.643555	5869.853027
3888.927734	6158.518555
3888.210938	6129.621094
3887.494141	6128.637207
3886.777344	5921.887695
3886.060547	5983.703613
3885.342773	6017.607910
3884.625977	6027.100098
3883.909180	5918.087891
3883.191406	5969.409668
3882.473633	5968.452148
3881.755859	6005.814453
3881.038086	5736.652832
3880.320313	6007.370117
3879.602539	5929.802734
3878.884766	6155.143555
3878.166016	5851.321289
3877.448242	6013.956543
3876.729492	6086.066406
3876.010742	5914.609863
3875.291992	5944.968750
3874.573242	5944.015137
3873.854492	6123.891602
3873.135742	5830.845703
3872.416016	6128.879883
3871.697266	6107.041504
3870.977539	6029.605957
3870.257813	5955.669434
3869.539063	5989.455566
3868.819336	5964.179688
3868.099609	6091.725586
3867.378906	6170.615723
3866.659180	6159.209961
3865.938477	5835.383789
3865.218750	6049.638672
3864.498047	5982.732910
3863.777344	6165.667969
3863.056641	5914.899902
3862.335938	6045.757813
3861.615234	6027.447754
3860.894531	5953.663574
3860.173828	6004.712891
3859.452148	6048.812012
3858.730469	6120.624023
3858.009766	6130.038086
3857.288086	6042.437500
3856.566406	6083.037598
3855.844727	6158.261230
3855.122070	5952.954102
3854.400391	5903.524902
3853.678711	6113.754883
3852.956055	6036.624512
3852.233398	6049.499512
3851.510742	6072.750977
3850.788086	5967.985840
3850.065430	6032.752441
3849.342773	6042.160645
3848.620117	5999.695313
3847.896484	5991.817871
3847.173828	5990.856934
3846.450195	6173.083984
3845.727539	6023.493652
3845.003906	6084.722168
3844.280273	6170.114258
3843.555664	6068.954102
3842.832031	6040.352051
3842.108398	6035.930176
3841.383789	5996.984375
3840.660156	6109.937012
3839.935547	6060.637695
3839.210938	6111.428223
3838.486328	6024.190918
3837.761719	5909.383789
3837.037109	6063.648926
3836.312500	5838.516113
3835.586914	6220.315430
3834.862305	6040.047363
3834.136719	6035.631836
3833.411133	5982.967773
3832.685547	6112.950684
3831.959961	5901.806641
3831.234375	5897.415527
3830.508789	6030.793945
3829.782227	6064.263184
3829.056641	6159.697266
3828.330078	6189.692383
3827.603516	6336.705566
3826.876953	5877.978027
3826.150391	6179.833496
3825.423828	6003.385254
3824.697266	5995.542969
3823.970703	6056.487793
3823.243164	6113.974609
3822.516602	6057.983887
3821.789063	6005.448730
3821.061523	6183.211426
3820.333984	6165.037598
3819.606445	6050.663574
3818.878906	6108.094727
3818.151367	6055.592773
3817.422852	6109.570313
3816.695313	5895.699707
3815.966797	6159.108887
3815.238281	6140.958008
3814.509766	6133.109375
3813.781250	6090.947754
3813.052734	6127.711914
3812.324219	6082.133789
3811.595703	6290.380859
3810.866211	6227.644531
3810.136719	6250.647461
3809.408203	6153.654785
3808.678711	5988.140137
3807.949219	6110.556641
3807.219727	6222.653809
3806.489258	6153.135742
3805.759766	6189.829102
3805.030273	5911.417969
3804.299805	6085.113281
3803.569336	6121.799805
3802.839844	5980.463867
3802.109375	6123.259766
3801.378906	6269.431641
3800.647461	6090.501953
3799.916992	6055.314453
3799.186523	6037.241211
3798.455078	6166.232910
3797.723633	6141.308105
3796.993164	6136.904785
3796.261719	6122.247559
3795.530273	6008.479004
3794.798828	6154.457031
3794.066406	6204.721191
3793.334961	6108.074219
3792.602539	6144.666504
3791.871094	6116.360840
3791.138672	6347.566895
3790.406250	6254.372559
3789.673828	6130.487305
3788.941406	6139.743164
3788.208984	6183.118652
3787.476563	6226.480469
3786.743164	6147.024414
3786.010742	6156.270996
3785.277344	6138.233398
3784.543945	6045.190918
3783.810547	6221.491699
3783.077148	6179.592285
3782.343750	6362.630859
3781.610352	6255.981445
3780.875977	5944.955566
3780.142578	6155.193359
3779.408203	6317.683105
3778.673828	6163.436035
3777.939453	6135.210449
3777.205078	6076.356934
3776.470703	6177.490234
3775.736328	6234.351563
3775.000977	6202.729980
3774.266602	6113.285156
3773.531250	6261.966797
3772.795898	6335.781738
3772.061523	6236.157227
3771.326172	6262.355957
3770.589844	6268.150391
3769.854492	6182.179199
3769.119141	6283.131836
3768.382813	6176.799805
3767.647461	6260.735840
3766.911133	6181.612793
3766.174805	6245.145020
3765.438477	6179.631348
3764.702148	6199.010254
3763.965820	6153.890625
3763.229492	6098.604004
3762.492188	6223.175781
3761.755859	6252.712402
3761.018555	6166.906738
3760.281250	6145.568848
3759.543945	6276.834961
3758.806641	6231.752441
3758.069336	6308.722656
3757.332031	6395.836426
3756.593750	6296.533691
3755.856445	6393.786621
3755.118164	6111.575195
3754.379883	6080.110352
3753.641602	6140.096680
3752.903320	6179.746582
3752.165039	6266.782227
3751.426758	6262.392578
3750.688477	6214.005371
3749.949219	6328.065430
3749.210938	6215.397461
3748.471680	6109.531250
3747.732422	6223.552246
3746.993164	6354.446289
3746.253906	6363.571777
3745.514648	6332.125000
3744.774414	6148.579590
3744.035156	6336.854980
3743.294922	6555.481934
3742.554688	6280.767090
3741.815430	6235.846191
3741.075195	6423.985840
3740.334961	6301.386230
3739.593750	6398.292480
3738.853516	6329.749512
3738.113281	6264.604004
3737.372070	6277.099121
3736.630859	6340.204102
3735.890625	6372.924805
3735.149414	6348.291504
3734.408203	6448.453125
3733.666016	6285.559570
3732.924805	6426.157227
3732.183594	6489.176270
3731.441406	6447.690918
3730.699219	6399.478516
3729.958008	6398.453125
3729.215820	6336.788574
3728.473633	6288.617188
3727.731445	6223.622070
3726.988281	6266.398438
3726.246094	6346.194824
3725.502930	6180.236816
3724.760742	6334.063965
3724.017578	6430.635742
3723.274414	6395.959961
3722.531250	6361.295410
3721.788086	6266.099609
3721.044922	6624.926758
3720.300781	6418.760254
3719.557617	6431.179199
3718.813477	6470.484375
3718.070313	6442.561523
3717.326172	6394.485840
3716.582031	6383.382324
3715.837891	6338.690918
3715.092773	6310.806152
3714.348633	6350.091797
3713.604492	6412.867188
3712.859375	6398.411621
3712.114258	6256.415527
3711.369141	6352.734375
3710.624023	6291.319824
3709.878906	6340.634277
3709.133789	6524.104492
3708.388672	6452.630371
3707.642578	6401.297852
3706.897461	6477.383789
3706.151367	6392.542480
3705.405273	6344.595703
3704.659180	6269.855469
3703.913086	6396.170898
3703.166992	6452.096191
3702.420898	6394.121582
3701.673828	6413.190430
3700.927734	6428.904785
3700.180664	6494.832031
3699.433594	6597.558105
3698.687500	6405.734375
3697.940430	6451.555664
3697.192383	6517.436035
3696.445313	6399.310547
3695.698242	6465.177734
3694.950195	6494.238770
3694.202148	6616.910156
3693.455078	6478.786133
3692.707031	6417.583008
3691.958984	6510.129395
3691.210938	6412.185059
3690.461914	6588.224609
3689.713867	6350.004395
3688.964844	6703.007324
3688.216797	6471.522949
3687.467773	6634.084473
3686.718750	6459.434570
3685.969727	6465.075195
3685.220703	6510.759277
3684.471680	6529.735840
3683.721680	6421.935547
3682.972656	6324.175781
3682.222656	6489.912598
3681.473633	6612.248047
3680.723633	6571.181641
3679.973633	6610.129395
3679.223633	6615.736328
3678.472656	6657.996582
3677.722656	6860.169434
3676.972656	6592.569336
3676.221680	6501.583496
3675.470703	6443.928223
3674.719727	6536.126465
3673.968750	6538.408203
3673.217773	6680.490234
3672.466797	6629.499023
3671.715820	6548.576172
3670.963867	6697.241699
3670.212891	6533.172363
3669.460938	6465.606934
3668.708984	6687.372559
3667.957031	6480.159668
3667.205078	6625.392090
3666.453125	6647.597168
3665.701172	6496.985352
3664.948242	6628.853516
3664.196289	6621.146973
3663.443359	6600.156250
3662.690430	6685.448242
3661.937500	6664.453613
3661.184570	6786.228516
3660.431641	6815.017578
3659.678711	6737.588379
3658.924805	6792.922852
3658.171875	6735.429688
3657.417969	6880.316895
3656.664063	6809.560059
3655.910156	6702.345703
3655.156250	6704.587891
3654.402344	6773.134766
3653.648438	6898.010254
3652.893555	6744.450684
3652.139648	6783.134766
3651.384766	6748.916504
3650.629883	6857.151855
3649.875000	6819.620117
3649.120117	6795.346680
3648.365234	6794.257813
3647.610352	6789.858887
3646.854492	6931.100586
3646.099609	7118.628906
3645.343750	6932.188477
3644.587891	6993.937500
3643.832031	6920.043945
3643.076172	7084.301758
3642.320313	7023.644531
3641.564453	7019.213379
3640.808594	6866.024414
3640.051758	6964.081055
3639.294922	7081.933594
3638.539063	7064.278320
3637.782227	6825.285645
3637.025391	7068.621094
3636.267578	6958.504395
3635.510742	7036.638184
3634.753906	7094.937988
3633.996094	7123.510254
3633.239258	6888.037109
3632.481445	7230.125488
3631.723633	7080.494629
3630.965820	7260.797852
3630.208008	7150.789551
3629.449219	7169.430664
3628.691406	7112.228516
3627.933594	7206.694824
3627.174805	7198.947754
3626.416016	7329.622070
3625.657227	7292.201172
3624.898438	6997.810059
3624.139648	7164.688477
3623.380859	7226.119141
3622.621094	7248.012695
3621.862305	7213.926270
3621.102539	7334.574707
3620.342773	7126.036621
3619.583984	7414.498047
3618.824219	7235.627930
3618.063477	7481.210449
3617.303711	7381.331055
3616.543945	7232.150879
3615.783203	7273.740234
3615.023438	7456.690918
3614.262695	7389.751465
3613.501953	7286.678711
3612.741211	7361.094238
3611.980469	7471.627930
3611.219727	7233.899902
3610.458008	7357.556641
3609.697266	7435.196289
3608.935547	7486.542480
3608.173828	7429.531250
3607.412109	7411.928711
3606.650391	7328.691406
3605.888672	7370.176270
3605.126953	7454.300293
3604.365234	7446.544922
3603.602539	7350.235352
3602.839844	7535.981445
3602.078125	7341.322754
3601.315430	7435.217773
3600.552734	7489.749023
3599.790039	7327.963379
3599.026367	7451.305176
3598.263672	7525.464844
3597.500000	7416.161133
3596.737305	7447.724609
3595.973633	7548.045410
3595.209961	7667.978516
3594.446289	7309.928711
3593.682617	7577.148926
3592.918945	7464.668945
3592.154297	7587.809570
3591.390625	7501.535156
3590.625977	7490.520508
3589.861328	7538.377441
3589.096680	7677.776367
3588.332031	7467.304688
3587.567383	7469.377441
3586.802734	7611.988281
3586.038086	7561.751465
3585.272461	7576.876465
3584.506836	7539.728027
3583.742188	7437.266113
3582.976563	7677.738770
3582.210938	7457.739746
3581.445313	7672.014160
3580.678711	7510.841309
3579.913086	7545.538086
3579.146484	7560.645020
3578.380859	7500.707031
3577.614258	7431.001465
3576.847656	7413.503418
3576.081055	7451.448242
3575.314453	7528.506348
3574.547852	7628.359863
3573.780273	7750.997070
3573.013672	7710.648438
3572.246094	7536.716797
3571.478516	7659.309570
3570.710938	7387.720703
3569.943359	7627.543945
3569.175781	7434.198730
3568.408203	7465.565430
3567.639648	7581.560059
3566.872070	7290.671387
3566.103516	7644.215820
3565.334961	7525.856934
3564.567383	7479.106445
3563.798828	7601.510254
3563.029297	7567.770996
3562.260742	7524.287109
3561.492188	7588.104004
3560.722656	7642.148438
3559.953125	7530.421387
3559.184570	7467.473633
3558.415039	7508.514648
3557.645508	7582.027344
3556.875000	7577.564941
3556.105469	7469.184082
3555.335938	7386.813965
3554.565430	7541.458984
3553.794922	7647.366211
3553.025391	7577.987793
3552.254883	7463.203125
3551.484375	7552.849121
3550.712891	7405.666992
3549.942383	7495.292969
3549.171875	7416.265137
3548.400391	7405.350098
3547.628906	7443.064941
3546.858398	7402.977539
3546.086914	7482.809570
3545.315430	7335.801758
3544.542969	7435.056641
3543.771484	7427.386719
3543.000000	7364.663086
3542.227539	7321.387207
3541.455078	7543.608887
3540.682617	7296.381836
3539.911133	7615.632813
3539.137695	7358.765137
3538.365234	7415.825684
3537.592773	7489.042969
3536.819336	7513.718750
3536.046875	7282.902832
3535.273438	7314.070801
3534.500000	7312.898926
3533.726563	7205.057617
3532.953125	7294.396484
3532.179688	7406.326172
3531.406250	7505.295898
3530.631836	7465.329590
3529.857422	7212.207031
3529.083984	7385.434082
3528.309570	7400.394531
3527.535156	7241.023438
3526.760742	7498.083984
3525.985352	7361.338867
3525.210938	7431.146973
3524.436523	7313.812988
3523.661133	7499.731445
3522.885742	7256.641602
3522.110352	7313.522949
3521.334961	7315.575195
3520.559570	7217.694336
3519.784180	7210.091797
3519.008789	7382.956543
3518.232422	7207.781250
3517.456055	7374.147461
3516.680664	7285.998047
3515.904297	7271.948730
3515.127930	7357.723633
3514.351563	7446.690430
3513.574219	7361.804199
3512.797852	7424.993652
3512.020508	7243.599121
3511.244141	7351.831055
3510.466797	7437.509766
3509.689453	7465.265625
3508.912109	7251.821289
3508.134766	7340.689453
3507.356445	7455.248047
3506.579102	7425.124512
3505.800781	7501.066895
3505.023438	7329.559570
3504.245117	7373.364258
3503.466797	7291.875488
3502.688477	7306.766113
3501.910156	7132.187988
3501.130859	7208.102539
3500.352539	7181.266113
3499.573242	7225.051270
3498.794922	7390.771484
3498.015625	7389.587402
3497.236328	7365.946289
3496.457031	7188.345215
3495.677734	7450.178223
3494.897461	7269.413574
3494.118164	7181.684082
3493.337891	7414.541504
3492.557617	7333.226563
3491.777344	7283.982910
3490.998047	7311.652344
3490.216797	7281.648926
3489.436523	7533.520996
3488.656250	7221.670410
3487.875000	7454.259277
3487.094727	7360.221680
3486.313477	7371.845703
3485.532227	7085.823730
3484.750977	7503.881348
3483.969727	7233.926270
3483.188477	7213.573730
3482.406250	7401.124023
3481.625000	7281.615723
3480.842773	7293.238281
3480.060547	7336.826172
3479.278320	7348.435547
3478.496094	7481.483887
3477.713867	7684.786621
3476.931641	7389.631348
3476.148438	7433.167480
3475.366211	7566.116211
3474.583008	7255.154297
3473.799805	7276.341309
3473.016602	7339.020508
3472.233398	7159.105957
3471.450195	7339.859863
3470.666992	7498.220215
3469.882813	7576.773926
3469.099609	7380.987793
3468.315430	7424.453613
3467.531250	7337.169434
3466.747070	7371.063477
3465.962891	7318.879395
3465.178711	7394.198242
3464.394531	7278.294434
3463.609375	7468.295898
3462.825195	7489.398438
3462.040039	7373.534180
3461.254883	7553.874512
3460.469727	7301.121094
3459.684570	7478.231445
3458.899414	7508.863770
3458.113281	7501.294922
3457.328125	7563.733887
3456.541992	7470.257324
3455.755859	7246.387695
3454.969727	7471.043457
3454.183594	7434.866211
3453.397461	7360.545898
3452.611328	7476.988770
3451.824219	7329.580566
3451.038086	7452.346680
3450.250977	7378.070801
3449.463867	7440.427246
3448.676758	7420.176270
3447.889648	7546.024414
3447.102539	7459.078613
3446.315430	7349.936035
3445.527344	7361.455566
3444.740234	7153.972168
3443.952148	7466.991211
3443.164063	7205.618164
3442.375977	7233.014648
3441.587891	7380.933105
3440.799805	7297.294922
3440.011719	7464.180176
3439.222656	7513.709473
3438.434570	7423.750000
3437.645508	7546.163574
3436.856445	7430.876953
3436.067383	7550.081543
3435.278320	7368.306641
3434.489258	7370.292969
3433.699219	7359.611328
3432.910156	7177.954102
3432.120117	7328.760254
3431.330078	7197.810059
3430.540039	7392.871094
3429.750000	7372.700684
3428.959961	7409.483887
3428.169922	7398.806641
3427.378906	7347.017090
3426.588867	7336.352539
3425.797852	7490.100586
3425.006836	7454.126953
3424.215820	7282.254395
3423.424805	7439.096680
3422.633789	7365.231445
3421.842773	7376.687500
3421.050781	7347.077148
3420.259766	7399.588379
3419.467773	7398.402344
3418.675781	7343.544434
3417.883789	7285.547852
3417.091797	7432.718750
3416.299805	7286.367676
3415.506836	7430.335938
3414.714844	7318.732910
3413.921875	7386.950684
3413.128906	7369.998047
3412.336914	7179.630371
3411.543945	7250.989258
3410.750000	7379.062988
3409.957031	7434.608887
3409.164063	7310.524414
3408.370117	7321.955078
3407.576172	7201.078125
3406.783203	7407.795898
3405.989258	7170.428223
3405.195313	7292.072754
3404.400391	7237.386719
3403.606445	7223.636230
3402.812500	7266.536621
3402.017578	7539.121094
3401.222656	7292.521484
3400.427734	7354.263184
3399.633789	7302.763672
3398.837891	7439.952148
3398.042969	7306.710449
3397.248047	7308.682617
3396.452148	7313.796875
3395.657227	7450.895020
3394.861328	7280.031738
3394.065430	7303.996582
3393.269531	7324.812988
3392.473633	7458.679688
3391.677734	7231.404785
3390.880859	7264.779785
3390.084961	7398.591309
3389.288086	7303.250488
3388.491211	7330.321777
3387.694336	7435.820313
3386.897461	7312.286133
3386.100586	7279.749512
3385.302734	7451.060547
3384.505859	7321.311523
3383.708008	7119.500000
3382.911133	7231.199219
3382.113281	7170.494629
3381.315430	7319.750977
3380.517578	7221.455566
3379.718750	7389.450195
3378.920898	7350.682129
3378.123047	7214.851074
3377.324219	7154.206543
3376.525391	7334.625000
3375.726563	7374.138184
3374.927734	7341.661621
3374.128906	7424.965332
3373.330078	7311.151367
3372.530273	7438.224121
3371.731445	7230.621094
3370.931641	7379.554199
3370.131836	7275.198730
3369.332031	7264.654785
3368.532227	7304.120117
3367.732422	7359.197754
3366.932617	7383.013184
3366.131836	7359.961914
3365.332031	7299.436523
3364.531250	7273.282715
3363.730469	7443.849609
3362.929688	7317.778809
3362.128906	7285.391602
3361.327148	7396.576172
3360.526367	7164.479004
3359.725586	7387.964355
3358.923828	7358.704590
3358.122070	7276.433105
3357.320313	7231.608398
3356.518555	7548.476074
3355.716797	7332.163574
3354.915039	7268.649414
3354.112305	7264.367676
3353.310547	7369.143555
3352.507813	7355.500488
3351.705078	7351.205566
3350.902344	7396.743164
3350.099609	7171.354980
3349.296875	7444.185547
3348.493164	7271.781250
3347.690430	7345.312988
3346.886719	7331.687500
3346.083008	7330.511719
3345.279297	7379.110840
3344.475586	7287.724609
3343.671875	7317.655273
3342.868164	7468.843750
3342.063477	7228.258301
3341.259766	7597.001953
3340.455078	7443.495117
3339.650391	7196.813965
3338.845703	7388.289551
3338.041016	7250.421387
3337.236328	7342.436523
3336.431641	7505.847168
3335.625977	7392.865723
3334.821289	7286.128906
3334.015625	7374.974609
3333.209961	7609.653809
3332.404297	7232.976074
3331.598633	7135.640137
3330.791992	7277.185547
3329.986328	7276.018066
3329.180664	7358.577148
3328.374023	7183.770996
3327.567383	7343.816895
3326.760742	7466.617676
3325.954102	7353.856934
3325.147461	7371.268066
3324.339844	7419.653320
3323.533203	7446.340332
3322.725586	7346.042480
3321.918945	7382.021973
3321.111328	7430.373535
3320.303711	7472.518555
3319.496094	7353.709961
3318.687500	7163.766113
3317.879883	7292.564941
3317.071289	7418.229004
3316.263672	7265.481445
3315.455078	7285.963379
3314.646484	7417.751465
3313.837891	7391.829102
3313.029297	7189.726563
3312.219727	7420.363281
3311.411133	7412.992676
3310.601563	7455.057129
3309.792969	7317.942871
3308.983398	7369.274414
3308.173828	7423.677246
3307.364258	7215.619629
3306.553711	7337.944824
3305.744141	7222.564453
3304.933594	7280.041016
3304.124023	7556.574707
3303.313477	7376.427734
3302.502930	7359.821289
3301.692383	7417.238281
3300.881836	7329.707520
3300.070313	7445.689453
3299.259766	7336.603516
3298.448242	7202.895508
3297.637695	7281.862305
3296.826172	7212.909180
3296.014648	7282.606445
3295.203125	7441.604492
3294.390625	7323.384277
3293.579102	7276.021973
3292.766602	7145.551270
3291.955078	7233.671387
3291.142578	7432.558594
3290.330078	7419.057617
3289.517578	7110.199219
3288.705078	7072.144531
3287.891602	7412.411133
3287.079102	7239.010742
3286.265625	7416.181641
3285.453125	7221.316406
3284.639648	7275.484863
3283.826172	7277.390625
3283.012695	7383.768066
3282.198242	7413.305664
3281.384766	7378.327148
3280.570313	7328.002930
3279.756836	7345.251465
3278.942383	7473.023926
3278.127930	7361.312988
3277.313477	7182.113281
3276.499023	7340.537598
3275.683594	7440.613281
3274.869141	7154.113770
3274.053711	7284.859863
3273.238281	7151.817871
3272.423828	7120.006836
3271.608398	7385.591309
3270.791992	7289.380859
3269.976563	7328.053711
3269.161133	7418.808594
3268.344727	7304.254883
3267.528320	7333.716309
3266.712891	7366.230957
3265.896484	7306.863281
3265.080078	7581.261230
3264.262695	7411.667480
3263.446289	7392.112305
3262.629883	7222.602539
3261.812500	7163.304199
3260.995117	7443.623535
3260.177734	7234.419922
3259.360352	7364.772461
3258.542969	7381.938477
3257.725586	7203.419434
3256.907227	7171.693359
3256.089844	7326.423828
3255.271484	7080.767090
3254.453125	7397.404297
3253.634766	7313.731445
3252.816406	7168.994141
3251.998047	7470.193848
3251.179688	7209.442383
3250.360352	7214.391602
3249.541992	7277.337402
3248.722656	7379.939941
3247.903320	7278.052734
3247.083984	7389.775391
3246.264648	7300.121094
3245.444336	7207.445801
3244.625000	7352.670898
3243.804688	7263.065430
3242.985352	7338.115723
3242.165039	7343.034180
3241.344727	7384.522949
3240.524414	7224.883789
3239.703125	7461.366211
3238.882813	7283.488281
3238.061523	7468.107910
3237.241211	7250.697266
3236.419922	7395.681152
3235.598633	7263.590820
3234.777344	7320.255859
3233.956055	7309.951172
3233.134766	7409.189453
3232.312500	7371.492188
3231.490234	7388.559570
3230.668945	7341.753418
3229.846680	7453.085449
3229.024414	7385.001465
3228.202148	7271.340820
3227.378906	7598.425293
3226.556641	7417.911133
3225.733398	7295.184570
3224.911133	7339.581543
3224.087891	7423.450684
3223.264648	7367.594238
3222.441406	7645.763672
3221.618164	7538.277832
3220.793945	7394.400391
3219.970703	7496.402344
3219.146484	7373.818848
3218.322266	7563.776855
3217.498047	7456.389160
3216.673828	7534.050781
3215.849609	7320.562500
3215.025391	7461.894043
3214.201172	7448.569336
3213.375977	7556.492188
3212.550781	7521.941895
3211.725586	7548.005371
3210.900391	7480.141113
3210.075195	7418.357422
3209.250000	7286.934082
3208.424805	7428.087402
3207.598633	7475.337402
3206.772461	7492.299805
3205.947266	7436.615723
3205.121094	7447.526367
3204.294922	7540.127930
3203.467773	7414.881836
3202.641602	7546.780762
3201.815430	7557.665527
3200.988281	7683.451172
3200.161133	7494.771973
3199.333984	7466.362793
3198.506836	7580.012207
3197.679688	7539.510742
3196.852539	7638.004883
3196.024414	7525.005371
3195.197266	7466.409180
3194.369141	7706.802734
3193.541016	7602.904297
3192.712891	7580.550781
3191.884766	7518.963867
3191.056641	7572.079590
3190.227539	7601.038086
3189.399414	7672.225098
3188.570313	7616.695313
3187.741211	7494.830566
3186.913086	7475.533691
3186.083008	7610.010254
3185.253906	7430.927734
3184.424805	7598.523438
3183.594727	7527.989746
3182.765625	7568.963867
3181.935547	7646.076660
3181.105469	7497.252930
3180.275391	7628.561523
3179.445313	7690.571289
3178.615234	7457.511230
3177.784180	7489.425781
3176.954102	7635.699707
3176.123047	7547.204590
3175.291992	7678.377930
3174.460938	7785.442383
3173.629883	7690.949707
3172.798828	7515.289551
3171.966797	7709.526367
3171.135742	7726.325684
3170.303711	7550.744141
3169.471680	7774.934570
3168.639648	7683.538574
3167.807617	7435.941406
3166.975586	7729.132324
3166.143555	7565.704102
3165.310547	7660.583496
3164.478516	7839.501953
3163.645508	7508.021484
3162.812500	7698.912598
3161.979492	7619.648438
3161.146484	7615.423340
3160.312500	7590.199219
3159.479492	7516.988770
3158.645508	7608.753418
3157.812500	7673.500977
3156.978516	7627.295410
3156.144531	7689.020508
3155.310547	7696.776855
3154.475586	7725.506836
3153.641602	7679.321777
3152.807617	7462.394531
3151.972656	7410.275391
3151.137695	7681.609863
3150.302734	7599.528809
3149.467773	7703.091309
3148.632813	7606.066406
3147.796875	7646.744141
3146.961914	7603.621582
3146.125977	7689.164551
3145.290039	7702.885742
3144.455078	7701.647949
3143.618164	7589.763184
3142.782227	7528.744141
3141.946289	7557.428711
3141.109375	7735.554688
3140.273438	7531.091309
3139.436523	7670.318848
3138.599609	7483.856934
3137.762695	7488.627930
3136.925781	7738.299316
3136.088867	7516.082031
3135.250977	7574.586914
3134.414063	7653.968750
3133.576172	7724.371094
3132.738281	7690.302734
3131.900391	7733.822754
3131.062500	7666.947754
3130.224609	7692.560547
3129.385742	7747.987305
3128.547852	7675.178223
3127.708984	7575.560547
3126.870117	7654.825684
3126.031250	7689.359375
3125.192383	7682.163574
3124.353516	7689.866699
3123.514648	7545.641602
3122.674805	7624.846680
3121.835938	7724.872070
3120.996094	7613.462402
3120.156250	7511.019531
3119.316406	7753.888672
3118.476563	7597.886719
3117.635742	7575.835938
3116.795898	7762.049316
3115.955078	7719.156738
3115.114258	7679.251465
3114.274414	7597.727539
3113.433594	7688.674805
3112.591797	7577.448242
3111.750977	7519.757324
3110.910156	7506.661133
3110.068359	7561.908203
3109.226563	7539.896484
3108.384766	7547.595215
3107.542969	7682.994629
3106.701172	7601.585938
3105.859375	7668.647949
3105.017578	7486.341797
3104.174805	7606.823242
3103.332031	7498.771484
3102.490234	7577.673828
3101.647461	7573.488770
3100.803711	7723.538086
3099.960938	7579.949707
3099.118164	7617.276367
3098.274414	7568.617676
3097.431641	7626.683105
3096.587891	7681.765625
3095.744141	7724.977539
3094.900391	7572.638184
3094.056641	7695.833008
3093.211914	7691.633301
3092.368164	7666.706055
3091.523438	7751.335938
3090.678711	7788.573242
3089.833984	7443.979980
3088.989258	7789.027344
3088.144531	7761.144531
3087.299805	7440.388184
3086.454102	7690.615234
3085.609375	7686.420898
3084.763672	7762.065918
3083.917969	7657.339844
3083.072266	7842.337402
3082.226563	7811.520508
3081.380859	7730.476563
3080.534180	7735.142578
3079.688477	7751.622559
3078.841797	7629.275879
3077.995117	7899.740723
3077.148438	7709.497070
3076.301758	7770.253418
3075.455078	7709.968262
3074.607422	7513.943848
3073.760742	7790.110352
3072.913086	7918.671387
3072.065430	7646.010742
3071.217773	7748.008789
3070.370117	7431.229980
3069.522461	7636.424316
3068.673828	7853.343750
3067.826172	7698.811523
3066.977539	7668.102539
3066.128906	7740.532227
3065.280273	7792.315430
3064.431641	7735.095703
3063.583008	7745.631348
3062.734375	7762.052734
3061.884766	7763.748047
3061.035156	7886.133301
3060.186523	7770.079102
3059.336914	7760.000488
3058.487305	7617.522949
3057.636719	7860.465820
3056.787109	7597.423828
3055.937500	7634.432129
3055.086914	7515.588867
3054.236328	7673.133789
3053.385742	7671.898926
3052.535156	7705.931641
3051.684570	7804.599609
3050.833984	7803.343262
3049.982422	7793.274902
3049.130859	7542.370605
3048.280273	7699.732422
3047.428711	7939.254395
3046.577148	7524.051270
3045.725586	7693.080078
3044.873047	7867.923340
3044.021484	7825.578125
3043.168945	7616.021973
3042.316406	7582.529785
3041.464844	7581.309570
3040.612305	7717.909180
3039.758789	7807.554199
3038.906250	7565.923340
3038.053711	7614.531250
3037.200195	7733.453613
3036.346680	7773.228516
3035.493164	7807.131348
3034.639648	7756.081055
3033.786133	7763.618164
3032.932617	7683.309570
3032.079102	7714.276855
3031.224609	7686.690430
3030.370117	7600.579102
3029.515625	7707.625000
3028.661133	7744.418945
3027.806641	7725.620605
3026.952148	7759.474121
3026.097656	7775.770996
3025.242188	7783.290527
3024.386719	7685.565430
3023.532227	7736.940430
3022.676758	7653.866699
3021.820313	7763.668945
3020.964844	7864.671387
3020.109375	7612.196777
3019.252930	7824.171387
3018.397461	7723.628906
3017.541016	7591.002441
3016.684570	7709.464844
3015.828125	7632.337891
3014.970703	7937.520508
3014.114258	7854.545898
3013.256836	7908.708984
3012.400391	7688.675293
3011.542969	7751.596680
3010.685547	7727.021484
3009.828125	7556.684570
3008.970703	7820.725098
3008.112305	7726.203125
3007.254883	7710.388672
3006.396484	7636.309570
3005.538086	7675.862305
3004.679688	7837.729980
3003.821289	7749.104492
3002.962891	7625.567871
3002.104492	7729.141602
3001.245117	7722.075195
3000.385742	7781.946289
2999.527344	7783.602539
2998.667969	7697.979004
2997.808594	7676.377441
2996.948242	7858.367188
2996.088867	7862.916992
2995.229492	7640.687012
2994.369141	7703.409180
2993.508789	7786.456055
2992.648438	7921.784180
2991.788086	7903.074707
2990.927734	7736.212402
2990.067383	7708.824707
2989.206055	7643.691895
2988.344727	7680.208008
2987.484375	7673.164063
2986.623047	7715.469238
2985.761719	7757.760254
2984.899414	7588.206055
2984.038086	7816.188477
2983.176758	7968.674805
2982.314453	7839.773438
2981.452148	7766.012207
2980.589844	7631.385742
2979.727539	7754.812988
2978.865234	7724.578125
2978.002930	7740.721680
2977.139648	7846.685547
2976.276367	7657.107910
2975.414063	7945.540039
2974.550781	8028.249512
2973.687500	7743.174316
2972.824219	7967.756836
2971.959961	7836.207520
2971.096680	7777.058105
2970.232422	7836.575684
2969.368164	7780.338379
2968.503906	7926.624023
2967.639648	7795.185547
2966.775391	7825.741211
2965.911133	7908.334473
2965.045898	7857.911621
2964.181641	7466.414551
2963.316406	7786.016113
2962.451172	7937.913574
2961.585938	7939.523438
2960.720703	7802.473145
2959.854492	7919.634277
2958.989258	7828.835938
2958.123047	7816.024902
2957.256836	7956.221680
2956.391602	7744.231445
2955.524414	7910.367676
2954.658203	7871.581543
2953.791992	7994.368164
2952.924805	7768.084961
2952.058594	8055.240723
2951.191406	7814.602051
2950.324219	8003.630371
2949.457031	7950.451660
2948.589844	7894.407715
2947.722656	7910.425781
2946.854492	7909.150391
2945.986328	7879.066895
2945.119141	7880.677246
2944.250977	8095.398926
2943.382813	7857.979980
2942.513672	8058.241211
2941.645508	7961.951172
2940.777344	8067.155273
2939.908203	7720.544922
2939.039063	7929.329590
2938.169922	7928.050781
2937.300781	7958.410645
2936.431641	7965.754395
2935.562500	7967.345215
2934.692383	8037.930664
2933.822266	8030.885742
2932.953125	8038.212402
2932.083008	7950.713867
2931.212891	7995.398926
2930.341797	7994.109375
2929.471680	7918.147949
2928.601563	8071.935059
2927.730469	8185.476563
2926.859375	8098.037598
2925.988281	8211.538086
2925.117188	8072.468262
2924.246094	8008.042969
2923.375000	7978.063965
2922.502930	7979.645508
2921.630859	8038.583496
2920.759766	7899.652344
2919.887695	8067.526367
2919.015625	8212.415039
2918.142578	8021.934082
2917.270508	8029.236816
2916.397461	8027.941895
2915.525391	8118.314453
2914.652344	7919.378418
2913.779297	8098.513184
2912.906250	7942.592773
2912.033203	7898.370117
2911.159180	8008.725586
2910.286133	8021.742676
2909.412109	8089.122070
2908.538086	8067.790527
2907.664063	8252.418945
2906.790039	8299.707031
2905.916016	8166.829590
2905.041992	8099.753418
2904.166992	7878.333496
2903.291992	8260.054688
2902.417969	7864.360840
2901.542969	8163.100586
2900.666992	8024.658691
2899.791992	8003.370117
2898.916992	8221.978516
2898.041016	8152.122559
2897.165039	8202.196289
2896.290039	8163.764160
2895.414063	8153.885254
2894.538086	8032.720703
2893.661133	8273.936523
2892.785156	8078.622559
2891.908203	8094.432129
2891.032227	8147.308105
2890.155273	8191.613281
2889.278320	8167.484863
2888.401367	8103.459961
2887.523438	7871.313477
2886.646484	7975.470703
2885.768555	8105.234863
2884.891602	7978.593262
2884.013672	8256.412109
2883.135742	7879.201172
2882.256836	8091.461914
2881.378906	8036.069824
2880.500977	8077.465332
2879.622070	8192.835938
2878.743164	8077.703125
2877.865234	8107.692383
2876.985352	8194.558594
2876.106445	7962.880859
2875.227539	8009.933594
2874.348633	8142.259766
2873.468750	8320.023438
2872.588867	8051.527832
2871.708984	8072.960938
2870.829102	8108.592285
2869.949219	8056.150879
2869.069336	7918.520020
2868.188477	8081.947266
2867.308594	7910.284668
2866.427734	8073.660156
2865.546875	8029.781250
2864.666016	7846.857422
2863.785156	8083.937500
2862.903320	8125.187500
2862.022461	8174.933594
2861.140625	7816.266113
2860.258789	7934.100586
2859.376953	8012.204102
2858.495117	7914.530273
2857.613281	8122.987305
2856.731445	7948.813477
2855.848633	7910.696777
2854.965820	7923.583496
2854.083984	8066.757813
2853.201172	8175.901855
2852.318359	8095.299316
2851.434570	8238.375977
2850.551758	7951.154785
2849.667969	8034.774902
2848.785156	8135.345703
2847.901367	7981.253418
2847.017578	7897.930176
2846.133789	8049.383301
2845.249023	8002.837402
2844.365234	7987.408203
2843.480469	8056.791504
2842.596680	7990.480957
2841.711914	8096.579590
2840.827148	8267.631836
2839.942383	7870.779297
2839.056641	7996.617676
2838.171875	8170.426758
2837.286133	8217.110352
2836.401367	8212.959961
2835.515625	8002.743164
2834.629883	7891.377441
2833.743164	8107.391113
2832.857422	8055.294434
2831.971680	8245.822266
2831.084961	8255.772461
2830.198242	8130.354004
2829.311523	7959.861328
2828.424805	8088.258301
2827.538086	8230.707031
2826.651367	8223.740234
2825.763672	8171.690918
2824.876953	8226.717773
2823.989258	8059.190430
2823.101563	8063.520996
2822.213867	8093.194336
2821.325195	8111.595215
2820.437500	8121.544922
2819.549805	8221.559570
2818.661133	8037.309082
2817.772461	8221.715820
2816.883789	7953.126465
2815.995117	8157.176758
2815.106445	8265.541016
2814.216797	8278.264648
2813.328125	8217.885742
2812.438477	8185.636719
2811.548828	7979.144043
2810.659180	8390.937500
2809.769531	8251.909180
2808.879883	8160.681641
2807.989258	8134.083984
2807.099609	8169.276855
2806.208984	8111.799805
2805.318359	8307.004883
2804.427734	8364.606445
2803.537109	8074.189453
2802.646484	8353.484375
2801.754883	8138.912109
2800.863281	8087.104980
2799.972656	8141.890137
2799.081055	8409.776367
2798.189453	8324.304688
2797.296875	8269.696289
2796.405273	8279.571289
2795.513672	8306.255859
2794.621094	8192.835938
2793.728516	8292.364258
2792.835938	8361.049805
2791.943359	8443.714844
2791.050781	8341.544922
2790.157227	8270.205078
2789.264648	8313.655273
2788.371094	8323.505859
2787.477539	8305.370117
2786.583984	8259.260742
2785.690430	8260.722656
2784.796875	8270.575195
2783.903320	8532.108398
2783.008789	8248.328125
2782.114258	8403.546875
2781.219727	8455.295898
2780.325195	8319.783203
2779.430664	8259.758789
2778.536133	8442.812500
2777.640625	8396.753906
2776.746094	8691.440430
2775.850586	8500.150391
2774.955078	8342.424805
2774.059570	8382.948242
2773.164063	8451.369141
2772.267578	8385.817383
2771.372070	8267.274414
2770.475586	8388.684570
2769.579102	8398.484375
2768.683594	8355.293945
2767.786133	8420.862305
2766.889648	8544.957031
2765.993164	8418.138672
2765.095703	8433.499023
2764.199219	8317.884766
2763.301758	8505.995117
2762.404297	8231.624023
2761.506836	8662.000000
2760.608398	8309.718750
2759.710938	8492.138672
2758.812500	8454.574219
2757.914063	8453.207031
2757.016602	8507.498047
2756.118164	8578.466797
2755.218750	8476.924805
2754.320313	8353.162109
2753.421875	8418.558594
2752.522461	8533.985352
2751.623047	8404.712891
2750.723633	8639.635742
2749.824219	8527.063477
2748.924805	8300.592773
2748.025391	8538.196289
2747.125000	8534.036133
2746.224609	8352.114258
2745.325195	8417.413086
2744.424805	8499.350586
2743.523438	8403.583984
2742.623047	8427.205078
2741.722656	8567.381836
2740.821289	8466.100586
2739.919922	8478.602539
2739.019531	8457.812500
2738.118164	8428.708008
2737.215820	8399.613281
2736.314453	8470.341797
2735.413086	8327.589844
2734.510742	8495.316406
2733.608398	8635.276367
2732.706055	8644.960938
2731.803711	8471.798828
2730.901367	8459.347656
2729.999023	8469.055664
2729.095703	8442.763672
2728.193359	8419.248047
2727.290039	8473.247070
2726.386719	8557.673828
2725.483398	8500.943359
2724.579102	8535.535156
2723.675781	8578.414063
2722.771484	8314.265625
2721.868164	8647.538086
2720.963867	8314.338867
2720.059570	8523.097656
2719.155273	8563.178711
2718.250000	8456.773438
2717.345703	8386.324219
2716.440430	8630.851563
2715.536133	8565.919922
2714.630859	8396.059570
2713.725586	8320.141602
2712.819336	8390.579102
2711.914063	8582.457031
2711.007813	8677.668945
2710.102539	8483.089844
2709.196289	8434.809570
2708.290039	8463.790039
2707.383789	8470.693359
2706.477539	8574.119141
2705.570313	8614.091797
2704.664063	8455.550781
2703.756836	8399.050781
2702.849609	8808.341797
2701.942383	8349.484375
2701.035156	8590.585938
2700.127930	8432.175781
2699.219727	8692.464844
2698.312500	8379.875000
2697.404297	8634.581055
2696.496094	8553.347656
2695.587891	8618.021484
2694.679688	8393.709961
2693.770508	8474.897461
2692.862305	8490.031250
2691.953125	8595.932617
2691.043945	8495.531250
2690.134766	8606.896484
2689.225586	8525.770508
2688.316406	8488.653320
2687.406250	8360.847656
2686.497070	8730.476563
2685.586914	8528.488281
2684.676758	8560.071289
2683.766602	8586.151367
2682.856445	8381.538086
2681.946289	8459.807617
2681.035156	8565.504883
2680.124023	8533.922852
2679.213867	8461.183594
2678.302734	8682.078125
2677.391602	8702.619141
2676.479492	8605.199219
2675.568359	8483.126953
2674.657227	8514.658203
2673.745117	8768.265625
2672.833008	8465.294922
2671.920898	8524.222656
2671.008789	8536.542969
2670.096680	8776.281250
2669.183594	8796.775391
2668.270508	8362.566406
2667.358398	8706.285156
2666.445313	8863.691406
2665.532227	8443.372070
2664.619141	8713.000977
2663.705078	8624.006836
2662.791992	8515.886719
2661.877930	8659.514648
2660.963867	8699.144531
2660.049805	8544.566406
2659.135742	8589.670898
2658.221680	8563.669922
2657.306641	8649.762695
2656.392578	8653.827148
2655.477539	8701.616211
2654.562500	8626.428711
2653.647461	8630.493164
2652.732422	8670.067383
2651.817383	8726.015625
2650.901367	8776.484375
2649.986328	8701.343750
2649.070313	8552.522461
2648.154297	8493.818359
2647.238281	8746.231445
2646.321289	8774.826172
2645.405273	8639.728516
2644.489258	8521.040039
2643.572266	8846.917969
2642.655273	8619.165039
2641.738281	8634.797852
2640.821289	8650.431641
2639.903320	8666.064453
2638.986328	8681.697266
2638.068359	8662.594727
2637.151367	8643.491211
2636.233398	8624.388672
2635.315430	8605.286133
2634.396484	8586.182617
2633.478516	8567.080078
2632.559570	8767.108398
2631.641602	8645.943359
2630.722656	8718.006836
2629.803711	8792.767578
2628.884766	8734.218750
2627.965820	8634.893555
2627.045898	8652.527344
2626.125977	8827.842773
2625.207031	8886.213867
2624.287109	8667.340820
2623.367188	8807.241211
2622.447266	8735.169922
2621.526367	8660.405273
2620.606445	8680.728516
2619.685547	8763.505859
2618.764648	8558.440430
2617.843750	8592.343750
2616.922852	8954.673828
2616.001953	8760.532227
2615.080078	8740.116211
2614.159180	8974.731445
2613.237305	8748.128906
2612.315430	8735.860352
2611.393555	8864.605469
2610.471680	8958.060547
2609.548828	8737.028320
2608.626953	8781.687500
2607.704102	8801.941406
2606.781250	8830.317383
2605.858398	8961.627930
2604.935547	8903.291992
2604.012695	8750.187500
2603.089844	8767.721680
2602.166016	8839.395508
2601.242188	8754.046875
2600.318359	8682.257813
2599.394531	8670.024414
2598.470703	8906.706055
2597.546875	8799.759766
2596.622070	9003.886719
2595.698242	8956.453125
2594.773438	8808.993164
2593.848633	8802.155273
2592.923828	8965.604492
2591.998047	8812.809570
2591.073242	9011.330078
2590.147461	8861.278320
2589.222656	8943.575195
2588.296875	8931.319336
2587.371094	8778.652344
2586.445313	8750.228516
2585.518555	8805.495117
2584.592773	8774.375977
2583.666016	8872.796875
2582.739258	8963.090820
2581.812500	8840.240234
2580.885742	8763.282227
2579.958984	8848.155273
2579.031250	8941.089844
2578.104492	8683.526367
2577.176758	8819.584961
2576.249023	8990.633789
2575.321289	9026.897461
2574.393555	8871.864258
2573.465820	8716.880859
2572.537109	9103.297852
2571.608398	8948.326172
2570.680664	8844.560547
2569.751953	8913.115234
2568.823242	8865.910156
2567.893555	8789.119141
2566.964844	8932.986328
2566.035156	9138.682617
2565.105469	8798.284180
2564.176758	8877.535156
2563.246094	9021.293945
2562.316406	8952.615234
2561.386719	9136.634766
2560.456055	9145.900391
2559.526367	8991.246094
2558.595703	8957.543945
2557.665039	9047.421875
2556.734375	8951.946289
2555.802734	8974.660156
2554.872070	8892.652344
2553.940430	9003.958008
2553.009766	8938.075195
2552.078125	8933.939453
2551.146484	9053.232422
2550.213867	9070.540039
2549.282227	9015.418945
2548.349609	8957.632813
2547.417969	9060.754883
2546.485352	9107.540039
2545.552734	8891.610352
2544.620117	9179.624023
2543.686523	9041.464844
2542.753906	8897.991211
2541.820313	9014.415039
2540.887695	9037.055664
2539.954102	9032.908203
2539.020508	9098.378906
2538.085938	8874.697266
2537.152344	9079.359375
2536.217773	9019.005859
2535.284180	9231.605469
2534.349609	9149.841797
2533.415039	9041.355469
2532.480469	9192.333008
2531.544922	8979.584961
2530.610352	9034.271484
2529.674805	9209.234375
2528.739258	8935.113281
2527.803711	9104.690430
2526.868164	9031.067383
2525.932617	9155.158203
2524.997070	9094.906250
2524.060547	9259.004883
2523.124023	9078.596680
2522.187500	9106.487305
2521.250977	9091.659180
2520.314453	9143.557617
2519.377930	8931.263672
2518.440430	9100.562500
2517.503906	9275.141602
2516.566406	9134.942383
2515.628906	9178.790039
2514.691406	9070.645508
2513.752930	9194.463867
2512.815430	8995.728516
2511.876953	9154.163086
2510.938477	9110.041016
2510.000000	9201.801758
2509.061523	9112.403320
2508.123047	9260.061523
2507.184570	9215.950195
2506.245117	9121.267578
2505.306641	9149.064453
2504.367188	9110.314453
2503.427734	9300.428711
2502.487305	9110.009766
2501.547852	9212.275391
2500.608398	9176.199219
2499.667969	9044.398438
2498.727539	9098.762695
2497.787109	9158.426758
2496.846680	9138.330078
2495.906250	9277.695313
2494.964844	9156.612305
2494.024414	9160.435547
2493.083008	9185.507813
2492.141602	9104.335938
2491.200195	9081.610352
2490.258789	9305.807617
2489.317383	9275.092773
2488.375000	9310.740234
2487.432617	9041.199219
2486.490234	9164.431641
2485.547852	9178.856445
2484.605469	9307.331055
2483.663086	9130.784180
2482.720703	9253.920898
2481.777344	9016.463867
2480.833984	9065.359375
2479.890625	9148.691406
2478.947266	9221.396484
2478.003906	9177.504883
2477.059570	9141.573242
2476.116211	9169.218750
2475.171875	9151.836914
2474.227539	9134.459961
2473.283203	9297.101563
2472.338867	9200.301758
2471.394531	9074.423828
2470.449219	9176.137695
2469.503906	9304.273438
2468.559570	9149.342773
2467.614258	9224.547852
2466.667969	9201.891602
2465.722656	9303.500000
2464.777344	9209.466797
2463.831055	9213.252930
2462.884766	9259.316406
2461.938477	9197.041016
2460.992188	9301.208008
2460.045898	9167.632813
2459.099609	9110.682617
2458.152344	9183.127930
2457.205078	9107.713867
2456.257813	9177.496094
2455.310547	9226.142578
2454.363281	9203.530273
2453.416016	8996.251953
2452.467773	9153.051758
2451.520508	9164.747070
2450.572266	9305.646484
2449.624023	9243.491211
2448.675781	9118.089844
2447.726563	9090.248047
2446.778320	9065.049805
2445.829102	9298.066406
2444.879883	9170.102539
2443.930664	9158.073242
2442.981445	8988.038086
2442.032227	9118.224609
2441.083008	9100.943359
2440.132813	9228.436523
2439.182617	9153.243164
2438.232422	9057.023438
2437.282227	9289.697266
2436.332031	9117.202148
2435.381836	9431.320313
2434.430664	9127.377930
2433.480469	9175.844727
2432.529297	9019.251953
2431.578125	9070.347656
2430.626953	8934.846680
2429.674805	9180.372070
2428.723633	9262.940430
2427.771484	9135.352539
2426.819336	9097.096680
2425.867188	9171.759766
2424.915039	9012.745117
2423.962891	8874.780273
2423.010742	8994.058594
2422.057617	9047.697266
2421.104492	9019.985352
2420.151367	8942.442383
2419.198242	9077.367188
2418.245117	9094.243164
2417.291992	9313.000000
2416.337891	9067.683594
2415.383789	9024.267578
2414.430664	8983.486328
2413.475586	8997.742188
2412.521484	8909.822266
2411.567383	8942.420898
2410.612305	9006.434570
2409.658203	8976.162109
2408.703125	8998.259766
2407.748047	9028.204102
2406.792969	9162.825195
2405.837891	9218.899414
2404.881836	9049.949219
2403.925781	8983.075195
2402.970703	9054.842773
2402.013672	8993.218750
2401.058594	8913.312500
2400.101563	9058.253906
2399.144531	8954.838867
2398.189453	8966.444336
2397.232422	8878.753906
2396.275391	8898.205078
2395.318359	8841.899414
2394.361328	8900.524414
2393.404297	9000.910156
2392.445313	8908.063477
2391.488281	9068.452148
2390.529297	8761.608398
2389.572266	9008.083008
2388.613281	8972.694336
2387.656250	8890.361328
2386.697266	8928.034180
2385.738281	8830.086914
2384.779297	8951.193359
2383.820313	8829.811523
2382.861328	8877.894531
2381.902344	9032.812500
2380.943359	8880.208008
2379.982422	8883.968750
2379.023438	8827.816406
2378.064453	9019.102539
2377.103516	8939.509766
2376.142578	8794.854492
2375.183594	8920.971680
2374.222656	8955.953125
2373.261719	8988.321289
2372.300781	8921.806641
2371.339844	8899.538086
2370.378906	8817.453125
2369.417969	8948.643555
2368.455078	8915.980469
2367.494141	9169.299805
2366.533203	8801.297852
2365.570313	8789.464844
2364.609375	8798.423828
2363.646484	8765.809570
2362.683594	8785.159180
2361.720703	8853.848633
2360.757813	8717.370117
2359.794922	8645.844727
2358.832031	8688.563477
2357.869141	8811.728516
2356.906250	8797.313477
2355.943359	8863.336914
2354.978516	8815.193359
2354.015625	8697.032227
2353.050781	8711.171875
2352.085938	8909.406250
2351.123047	8804.249023
2350.158203	8732.823242
2349.193359	8671.788086
2348.228516	8859.533203
2347.263672	8640.455078
2346.298828	8926.580078
2345.333984	8681.662109
2344.367188	8799.363281
2343.402344	9007.646484
2342.437500	8661.874023
2341.470703	8722.578125
2340.503906	8651.279297
2339.539063	8748.189453
2338.572266	8751.933594
2337.605469	8729.810547
2336.638672	8547.350586
2335.671875	8789.014648
2334.705078	8803.090820
2333.738281	8724.104492
2332.771484	8903.592773
2331.802734	8832.367188
2330.835938	9037.616211
2329.867188	9149.800781
2328.900391	9303.273438
2327.931641	8904.065430
2326.962891	8900.027344
2325.994141	8955.366211
2325.027344	8760.318359
2324.058594	8696.949219
2323.089844	8587.156250
2322.119141	8696.685547
2321.150391	8721.057617
2320.181641	8688.683594
2319.210938	8738.834961
2318.242188	8551.778320
2317.271484	8581.312500
2316.302734	8783.517578
2315.332031	8684.159180
2314.361328	8821.869141
2313.390625	8694.199219
2312.419922	8571.722656
2311.449219	8699.081055
2310.478516	8499.399414
2309.507813	8665.343750
2308.537109	8743.718750
2307.564453	8834.935547
2306.593750	8558.167969
2305.621094	8618.512695
2304.650391	8756.004883
2303.677734	8433.091797
2302.705078	8722.283203
2301.732422	8648.868164
2300.759766	8655.165039
2299.787109	8648.608398
2298.814453	8580.380859
2297.841797	8720.289063
2296.869141	8713.724609
2295.896484	8422.060547
2294.921875	8603.014648
2293.949219	8791.613281
2292.974609	8708.023438
2292.000000	8724.566406
2291.027344	8718.005859
2290.052734	8580.583008
2289.078125	8707.456055
2288.103516	8739.376953
2287.128906	8607.147461
2286.154297	8595.481445
2285.177734	8794.055664
2284.203125	8697.769531
2283.228516	8524.623047
2282.251953	8653.920898
2281.277344	8680.688477
2280.300781	8556.302734
2279.324219	8752.125977
2278.347656	8643.133789
2277.371094	8710.852539
2276.394531	8663.344727
2275.417969	8702.881836
2274.441406	8494.157227
2273.464844	8648.855469
2272.488281	8721.633789
2271.509766	8533.471680
2270.533203	8621.589844
2269.554688	8804.293945
2268.578125	8700.582031
2267.599609	8525.328125
2266.621094	8667.062500
2265.642578	8433.093750
2264.664063	8730.656250
2263.685547	8678.132813
2262.707031	8605.193359
2261.728516	8769.782227
2260.750000	8745.365234
2259.769531	8646.919922
2258.791016	8591.900391
2257.810547	8667.056641
2256.832031	8624.809570
2255.851563	8687.179688
2254.871094	8642.391602
2253.890625	8625.672852
2252.910156	8777.262695
2251.929688	8727.381836
2250.949219	8817.723633
2249.968750	8693.937500
2248.988281	8575.288086
2248.005859	8535.663086
2247.025391	8674.379883
2246.042969	8688.241211
2245.062500	8781.045898
2244.080078	8797.430664
2243.097656	8653.420898
2242.115234	8761.457031
2241.132813	8744.751953
2240.150391	8471.043945
2239.167969	8571.423828
2238.185547	8687.033203
2237.203125	8599.135742
2236.218750	8770.646484
2235.236328	8888.708984
2234.253906	8645.750000
2233.269531	8725.667969
2232.285156	8736.944336
2231.300781	8725.348633
2230.318359	8640.083984
2229.333984	8745.348633
2228.349609	8644.870117
2227.365234	8623.139648
2226.378906	8822.290039
2225.394531	8612.697266
2224.410156	8606.208984
2223.423828	8754.513672
2222.439453	8600.850586
2221.453125	8548.706055
2220.468750	8838.978516
2219.482422	8781.739258
2218.496094	8574.927734
2217.509766	8647.038086
2216.523438	8714.054688
2215.537109	8694.886719
2214.550781	8693.459961
2213.564453	8578.032227
2212.576172	8533.565430
2211.589844	8739.834961
2210.601563	8713.080078
2209.615234	8764.817383
2208.626953	8502.655273
2207.638672	8698.669922
2206.650391	8639.042969
2205.664063	8652.805664
2204.675781	8808.224609
2203.685547	8574.090820
2202.697266	8691.538086
2201.708984	8730.567383
2200.720703	8759.470703
2199.730469	8715.065430
2198.742188	8759.124023
2197.751953	8805.695313
2196.763672	8685.512695
2195.773438	8618.414063
2194.783203	8677.612305
2193.792969	8926.171875
2192.802734	8742.930664
2191.812500	8675.865234
2190.822266	8820.824219
2189.832031	8779.001953
2188.839844	8815.406250
2187.849609	8735.759766
2186.857422	8658.660156
2185.867188	8503.411133
2184.875000	8776.843750
2183.882813	8737.588867
2182.892578	8791.606445
2181.900391	8631.396484
2180.908203	8657.696289
2179.916016	8888.049805
2178.921875	8755.609375
2177.929688	8781.875000
2176.937500	8805.613281
2175.943359	8922.497070
2174.951172	8772.515625
2173.957031	8816.377930
2172.964844	8852.676758
2171.970703	8896.510742
2170.976563	8877.441406
2169.982422	8712.499023
2168.988281	8982.660156
2167.994141	8787.582031
2167.000000	8766.027344
2166.005859	8804.804688
2165.009766	8836.028320
2164.015625	8829.551758
2163.019531	8797.955078
2162.025391	8997.458008
2161.029297	8694.607422
2160.033203	9022.124023
2159.039063	8794.687500
2158.042969	8923.773438
2157.046875	8859.562500
2156.050781	8948.445313
2155.052734	8824.036133
2154.056641	9038.322266
2153.060547	8836.185547
2152.062500	8794.610352
2151.066406	9036.375977
2150.068359	8821.804688
2149.072266	8973.250977
2148.074219	8981.800781
2147.076172	8957.774414
2146.078125	8896.176758
2145.080078	8984.889648
2144.082031	8833.146484
2143.083984	8989.449219
2142.085938	9020.518555
2141.085938	8971.475586
2140.087891	8929.956055
2139.087891	9003.560547
2138.089844	8952.041016
2137.089844	9033.121094
2136.089844	8966.607422
2135.089844	9022.650391
2134.089844	8861.146484
2133.089844	8989.685547
2132.089844	8810.743164
2131.089844	9004.224609
2130.089844	8885.305664
2129.089844	8961.291992
2128.087891	8994.789063
2127.087891	9000.802734
2126.085938	9111.689453
2125.083984	8845.548828
2124.082031	8854.079102
2123.082031	8952.456055
2122.080078	8963.460938
2121.078125	9104.201172
2120.076172	9007.910156
2119.072266	8998.947266
2118.070313	9024.898438
2117.068359	9063.307617
2116.064453	8924.706055
2115.062500	8933.208008
2114.058594	8921.770508
2113.054688	9039.905273
2112.052734	9030.944336
2111.048828	9024.477539
2110.044922	9090.236328
2109.041016	9155.972656
2108.037109	8855.708008
2107.031250	9006.095703
2106.027344	9009.591797
2105.023438	8960.829102
2104.017578	9168.348633
2103.013672	8850.914063
2102.007813	9272.282227
2101.001953	8987.262695
2099.998047	9231.935547
2098.992188	9016.623047
2097.986328	8957.971680
2096.980469	8993.775391
2095.972656	9022.112305
2094.966797	8988.331055
2093.960938	8964.497070
2092.955078	9002.757813
2091.947266	9197.442383
2090.939453	9153.722656
2089.933594	9095.124023
2088.925781	8999.315430
2087.917969	9116.945313
2086.910156	8998.833984
2085.902344	9029.601563
2084.894531	9224.055664
2083.886719	9190.298828
2082.878906	8953.240234
2081.871094	9036.052734
2080.861328	8913.113281
2079.853516	9102.467773
2078.843750	9063.802734
2077.833984	9022.671875
2076.826172	9224.299805
2075.816406	8980.076172
2074.806641	9122.215820
2073.796875	9313.823242
2072.787109	8906.331055
2071.777344	9105.335938
2070.765625	9103.835938
2069.755859	8835.130859
2068.744141	9083.522461
2067.734375	9059.766602
2066.722656	9107.732422
2065.712891	9037.002930
2064.701172	9102.260742
2063.689453	9127.950195
2062.677734	9141.274414
2061.666016	9058.230469
2060.654297	9088.854492
2059.642578	8902.102539
2058.628906	9021.649414
2057.617188	9133.748047
2056.605469	9110.024414
2055.591797	9017.191406
2054.578125	9097.151367
2053.566406	9011.752930
2052.552734	9180.505859
2051.539063	9119.790039
2050.525391	9022.097656
2049.511719	9092.125000
2048.498047	9014.194336
2047.484375	9306.065430
2046.468750	9215.799805
2045.455078	9128.028320
2044.439453	9084.636719
2043.425781	9092.994141
2042.410156	8926.463867
2041.394531	9227.911133
2040.380859	9219.002930
2039.365234	9168.245117
2038.349609	9028.887695
2037.333984	9084.005859
2036.316406	9087.429688
2035.300781	9240.931641
2034.285156	9160.691406
2033.267578	9146.883789
2032.251953	9204.393555
2031.234375	9136.492188
2030.218750	9154.651367
2029.201172	9008.127930
2028.183594	9146.718750
2027.166016	9145.209961
2026.148438	9013.499023
2025.130859	9213.426758
2024.113281	9243.833008
2023.093750	9104.803711
2022.076172	9176.954102
2021.056641	9263.807617
2020.039063	9110.117188
2019.019531	9177.322266
2018.001953	9347.547852
2016.982422	9076.174805
2015.962891	9064.867188
2014.943359	9080.537109
2013.923828	9267.829102
2012.904297	9224.625977
2011.882813	9142.221680
2010.863281	8974.073242
2009.843750	8906.437500
2008.822266	8995.610352
2007.802734	9123.943359
2006.781250	9024.479492
2005.759766	9194.390625
2004.738281	9136.565430
2003.716797	9181.565430
2002.695313	9167.814453
2001.673828	8943.627930
2000.652344	9159.895508
1999.630859	9053.200195
1998.609375	8988.116211
1997.585938	9086.892578
1996.564453	8992.485352
1995.541016	8924.998047
1994.517578	9246.150391
1993.494141	8919.609375
1992.472656	8988.993164
1991.449219	9070.569336
1990.425781	9081.284180
1989.400391	8940.584961
1988.376953	8958.642578
1987.353516	9035.286133
1986.328125	8921.512695
1985.304688	9000.576172
1984.279297	9011.291016
1983.255859	9100.072266
1982.230469	9069.297852
1981.205078	8755.622070
1980.179688	8941.940430
1979.154297	8825.874023
1978.128906	9080.374023
1977.103516	9086.185547
1976.078125	8979.899414
1975.050781	8995.472656
1974.025391	8962.317383
1972.998047	8800.083008
1971.972656	8681.737305
1970.945313	8853.178711
1969.917969	8939.357422
1968.892578	8969.523438
1967.865234	8887.731445
1966.837891	8803.532227
1965.808594	8909.124023
1964.781250	8749.542969
1963.753906	8833.219727
1962.724609	8819.601563
1961.697266	8857.044922
1960.667969	8753.486328
1959.640625	8946.475586
1958.611328	8835.645508
1957.582031	9018.838867
1956.552734	8767.136719
1955.523438	8896.844727
1954.494141	8851.663086
1953.464844	8709.374023
1952.435547	8914.284180
1951.404297	8728.340820
1950.375000	8816.691406
1949.343750	8810.381836
1948.314453	8828.333984
1947.283203	8809.895508
1946.251953	8990.331055
1945.222656	9017.943359
1944.191406	8844.318359
1943.158203	8884.065430
1942.126953	8892.291016
1941.095703	8803.584961
1940.064453	8998.378906
1939.031250	8946.019531
1938.000000	8796.797852
1936.966797	8875.256836
1935.935547	9026.326172
1934.902344	8872.322266
1933.869141	8844.230469
1932.835938	8932.309570
1931.802734	8962.287109
1930.769531	8752.751953
1929.736328	9056.076172
1928.703125	8757.112305
1927.667969	8910.417969
1926.634766	8858.174805
1925.599609	9100.848633
1924.566406	9048.590820
1923.531250	9025.345703
1922.496094	8910.299805
1921.460938	8850.851563
1920.425781	8938.750977
1919.390625	9079.747070
1918.355469	8887.504883
1917.320313	8953.627930
1916.285156	9039.037109
1915.248047	9020.649414
1914.212891	9069.826172
1913.175781	9087.625000
1912.138672	9040.292969
1911.103516	9007.445313
1910.066406	9121.694336
1909.029297	8946.605469
1907.992188	8978.871094
1906.955078	9059.326172
1905.917969	9151.802734
1904.878906	9179.199219
1903.841797	9037.967773
1902.802734	9185.794922
1901.765625	9121.666016
1900.726563	9035.888672
1899.687500	9084.945313
1898.650391	9133.985352
1897.611328	9240.763672
1896.572266	9241.639648
1895.533203	9184.780273
1894.494141	9188.070313
1893.453125	9097.569336
1892.414063	9197.049805
1891.375000	9140.234375
1890.333984	9177.179688
1889.292969	9108.369141
1888.253906	9063.609375
1887.212891	9083.730469
1886.171875	9154.288086
1885.130859	8972.647461
1884.089844	9160.862305
1883.048828	8960.072266
1882.007813	9013.799805
1880.964844	8945.104492
1879.923828	9058.807617
1878.880859	9196.465820
1877.839844	9182.948242
1876.796875	8989.547852
1875.753906	9067.196289
1874.712891	8897.855469
1873.669922	9128.919922
1872.626953	8964.417969
1871.583984	9125.895508
1870.539063	9196.266602
1869.496094	9067.770508
1868.453125	9003.990234
1867.408203	9098.294922
1866.365234	9142.283203
1865.320313	8994.726563
1864.275391	8940.574219
1863.230469	9075.512695
1862.187500	9121.867188
1861.142578	9146.673828
1860.095703	8953.787109
1859.050781	9141.250977
1858.005859	9027.342773
1856.960938	8999.545898
1855.914063	9017.178711
1854.869141	9022.854492
1853.822266	8990.291992
1852.775391	8780.926758
1851.730469	9049.424805
1850.683594	8973.878906
1849.636719	8750.291016
1848.589844	8832.412109
1847.541016	9000.453125
1846.494141	8948.833984
1845.447266	8909.165039
1844.400391	8807.466797
1843.351563	8724.889648
1842.302734	8935.744141
1841.255859	8800.701172
1840.207031	8966.166016
1839.158203	8928.915039
1838.109375	8936.969727
1837.060547	8899.736328
1836.011719	8698.084961
1834.962891	8606.102539
1833.912109	8854.810547
1832.863281	8960.525391
1831.814453	9106.689453
1830.763672	8881.359375
1829.712891	8696.575195
1828.664063	9018.848633
1827.613281	8936.437500
1826.562500	8944.472656
1825.511719	8864.478516
1824.460938	8943.883789
1823.408203	9037.531250
1822.357422	8950.427734
1821.306641	8915.657227
1820.253906	8814.339844
1819.203125	8834.267578
1818.150391	8806.662109
1817.097656	8812.328125
1816.046875	8882.131836
1814.994141	8785.652344
1813.941406	8845.937500
1812.888672	8766.115234
1811.833984	8717.181641
1810.781250	8943.596680
1809.728516	8747.512695
1808.673828	9082.995117
1807.621094	8822.897461
1806.566406	8792.968750
1805.511719	8824.711914
1804.458984	8709.428711
1803.404297	8793.332031
1802.349609	9009.950195
1801.294922	8844.922852
1800.238281	8668.102539
1799.183594	8977.032227
1798.128906	8925.796875
1797.072266	8798.786133
1796.017578	8948.880859
1794.960938	8826.644531
1793.906250	8846.483398
1792.849609	8987.027344
1791.792969	8931.105469
1790.736328	8870.469727
1789.679688	8937.601563
1788.623047	8876.985352
1787.564453	8941.727539
1786.507813	8805.464844
1785.451172	9004.953125
1784.392578	9010.548828
1783.335938	8843.618164
1782.277344	8908.311523
1781.218750	8880.842773
1780.160156	8962.042969
1779.101563	9033.769531
1778.042969	8916.560547
1776.984375	8792.308594
1775.925781	8906.516602
1774.865234	8999.444336
1773.806641	9064.023438
1772.746094	8833.654297
1771.687500	8858.134766
1770.626953	8840.152344
1769.566406	8824.534180
1768.507813	9120.156250
1767.447266	9036.129883
1766.386719	8963.916016
1765.324219	8995.418945
1764.263672	8975.073242
1763.203125	8914.684570
1762.140625	9016.844727
1761.080078	8956.467773
1760.017578	9060.941406
1758.957031	9092.395508
1757.894531	9032.035156
1756.832031	8905.795898
1755.769531	9040.797852
1754.707031	9027.531250
1753.644531	9035.439453
1752.582031	9017.472656
1751.517578	9152.365234
1750.455078	9028.581055
1749.390625	9045.885742
1748.328125	9053.783203
1747.263672	9049.927734
1746.199219	9168.253906
1745.136719	9011.678711
1744.072266	8925.621094
1743.007813	8961.711914
1741.941406	9098.757813
1740.876953	8970.469727
1739.812500	9025.311523
1738.748047	9054.320313
1737.681641	9057.506836
1736.615234	9074.768555
1735.550781	8937.207031
1734.484375	8980.281250
1733.417969	9011.616211
1732.351563	8989.015625
1731.285156	9003.929688
1730.218750	8943.836914
1729.152344	8972.812500
1728.085938	9163.444336
1727.017578	9040.104492
1725.951172	9001.124023
1724.882813	9123.743164
1723.814453	9262.710938
1722.748047	9162.844727
1721.679688	9046.627930
1720.611328	9192.558594
1719.542969	9324.401367
1718.474609	9322.848633
1717.404297	8984.466797
1716.335938	9083.536133
1715.267578	8988.491211
1714.197266	9003.360352
1713.128906	9118.738281
1712.058594	9166.299805
1710.988281	9160.099609
1709.917969	9275.393555
1708.847656	9077.625977
1707.777344	9043.416016
1706.707031	9158.670898
1705.636719	9028.730469
1704.566406	9031.895508
1703.494141	9289.469727
1702.423828	9152.570313
1701.351563	9053.049805
1700.281250	9231.172852
1699.208984	9220.304688
1698.136719	9106.829102
1697.064453	9072.667969
1695.992188	9050.174805
1694.919922	9004.378906
1693.847656	9154.364258
1692.773438	9078.274414
1691.701172	9086.081055
1690.626953	9249.952148
1689.554688	9108.671875
1688.480469	9153.726563
1687.406250	9031.133789
1686.332031	9011.005859
1685.257813	9102.602539
1684.183594	9014.984375
1683.109375	9194.961914
1682.035156	9128.292969
1680.960938	9217.481445
1679.884766	9153.157227
1678.810547	9142.331055
1677.734375	9094.312500
1676.658203	9064.904297
1675.583984	9219.097656
1674.507813	9126.942383
1673.431641	9197.438477
1672.355469	9214.487305
1671.279297	8924.974609
1670.201172	9083.705078
1669.125000	9107.728516
1668.048828	9199.058594
1666.970703	9039.707031
1665.892578	9186.709961
1664.816406	9187.498047
1663.738281	9121.014648
1662.660156	8929.310547
1661.582031	8916.226563
1660.503906	9144.274414
1659.425781	8968.888672
1658.347656	9118.046875
1657.267578	9195.316406
1656.189453	9196.099609
1655.109375	8962.905273
1654.031250	9107.332031
1652.951172	9031.706055
1651.871094	8981.575195
1650.791016	8880.529297
1649.710938	9161.437500
1648.630859	8965.508789
1647.550781	9021.860352
1646.470703	9057.371094
1645.388672	8972.587891
1644.308594	8860.079102
1643.226563	8766.106445
1642.146484	8903.361328
1641.064453	8814.036133
1639.982422	8863.411133
1638.900391	8822.648438
1637.818359	8885.867188
1636.736328	8960.615234
1635.654297	8936.023438
1634.570313	8862.944336
1633.488281	8976.909180
1632.406250	8931.548828
1631.322266	8620.771484
1630.238281	8810.873047
1629.156250	8899.388672
1628.072266	8833.307617
1626.988281	8748.796875
1625.904297	8768.091797
1624.820313	8766.627930
1623.734375	8866.601563
1622.650391	8784.445313
1621.566406	8914.342773
1620.480469	8961.243164
1619.396484	8902.150391
1618.310547	8714.081055
1617.224609	8712.625977
1616.138672	8600.640625
1615.052734	8677.483398
1613.966797	8715.166992
1612.880859	8861.010742
1611.794922	8599.498047
1610.708984	8777.522461
1609.621094	8702.443359
1608.535156	8767.690430
1607.447266	8724.832031
1606.359375	8679.688477
1605.273438	8731.112305
1604.185547	8589.445313
1603.097656	8700.617188
1602.009766	8809.454102
1600.921875	8713.791016
1599.832031	8762.868164
1598.744141	8747.624023
1597.654297	8748.458008
1596.566406	8877.856445
1595.476563	8793.738281
1594.388672	8725.711914
1593.298828	8797.682617
1592.208984	8897.159180
1591.119141	8888.791016
1590.029297	8632.726563
1588.939453	8814.732422
1587.847656	8788.039063
1586.757813	8809.493164
1585.666016	8890.531250
1584.576172	8937.167969
1583.484375	8951.711914
1582.392578	8973.123047
1581.302734	8873.133789
1580.210938	8906.000977
1579.119141	8931.987305
1578.025391	9024.354492
1576.933594	8935.867188
1575.841797	8815.370117
1574.750000	8928.301758
1573.656250	8924.521484
1572.562500	9025.959961
1571.470703	9209.696289
1570.376953	9256.174805
1569.283203	9003.141602
1568.189453	9035.922852
1567.095703	9139.541992
1566.001953	9062.605469
1564.908203	9065.659180
1563.812500	9066.426758
1562.718750	9090.033203
1561.623047	9077.093750
1560.529297	9048.176758
1559.433594	9058.077148
1558.337891	9186.658203
1557.242188	9144.043945
1556.146484	9334.171875
1555.050781	9163.796875
1553.955078	9340.170898
1552.859375	9149.327148
1551.761719	9097.632813
1550.666016	9132.585938
1549.568359	9062.676758
1548.472656	9209.291992
1547.375000	9128.000000
1546.277344	9128.750000
1545.179688	9309.447266
1544.082031	9287.391602
1542.984375	9049.023438
1541.886719	9227.365234
1540.787109	9164.360352
1539.689453	9142.342773
1538.589844	9236.383789
1537.492188	9289.441406
1536.392578	9183.246094
1535.292969	9145.317383
1534.193359	9225.650391
1533.095703	9194.547852
1531.994141	9079.345703
1530.894531	9159.648438
1529.794922	9221.743164
1528.695313	9211.110352
1527.593750	9034.644531
1526.494141	9158.054688
1525.392578	9013.450195
1524.291016	9136.822266
1523.189453	8874.218750
1522.089844	9129.221680
1520.988281	9175.349609
1519.884766	9019.516602
1518.783203	8822.898438
1517.681641	8987.005859
1516.580078	9064.876953
1515.476563	9008.937500
1514.373047	9011.961914
1513.271484	9021.785156
1512.167969	9011.207031
1511.064453	9073.145508
1509.960938	9008.187500
1508.857422	9063.308594
1507.753906	8996.107422
1506.650391	9044.418945
1505.544922	8907.055664
1504.441406	8987.056641
1503.335938	8981.023438
1502.232422	9076.826172
1501.126953	9100.192383
1500.021484	8942.573242
1498.916016	8984.048828
1497.810547	8964.451172
1496.705078	8852.154297
1495.599609	8932.055664
1494.494141	9088.780273
1493.386719	8996.858398
1492.281250	9029.243164
1491.173828	8880.880859
1490.068359	8901.979492
1488.960938	8886.935547
1487.853516	8817.703125
1486.746094	8899.758789
1485.638672	8690.593750
1484.531250	8941.911133
1483.423828	8730.552734
1482.314453	8923.118164
1481.207031	8892.295898
1480.097656	8838.929688
1478.990234	8677.339844
1477.880859	8842.727539
1476.771484	8854.769531
1475.662109	8839.759766
1474.552734	8955.458984
1473.443359	8913.400391
1472.333984	8875.860352
1471.224609	8930.679688
1470.113281	8852.612305
1469.003906	8972.714844
1467.892578	8959.952148
1466.783203	8704.100586
1465.671875	8835.417969
1464.560547	9004.943359
1463.449219	9023.678711
1462.337891	8972.678711
1461.226563	8892.458008
1460.115234	9070.852539
1459.001953	9013.124023
1457.890625	9058.815430
1456.777344	8861.764648
1455.666016	9071.502930
1454.552734	8816.101563
1453.439453	9021.283203
1452.326172	8927.684570
1451.212891	8899.238281
1450.099609	8983.061523
1448.986328	8990.531250
1447.873047	9031.666016
1446.757813	8834.915039
1445.644531	8833.430664
1444.529297	8973.275391
1443.414063	8969.525391
1442.300781	9133.968750
1441.185547	8926.152344
1440.070313	9021.050781
1438.955078	8997.121094
1437.839844	8901.484375
1436.722656	9005.300781
1435.607422	9084.438477
1434.492188	9114.271484
1433.375000	8924.617188
1432.257813	9019.401367
1431.142578	8917.139648
1430.025391	8875.349609
1428.908203	9153.614258
1427.791016	8946.209961
1426.673828	8955.892578
1425.556641	8902.937500
1424.437500	8981.957031
1423.320313	8991.627930
1422.201172	9160.036133
1421.083984	8941.661133
1419.964844	8911.102539
1418.845703	8931.950195
1417.726563	8925.980469
1416.607422	9013.835938
1415.488281	9157.500000
1414.369141	8952.742188
1413.250000	8951.237305
1412.128906	8987.682617
1411.009766	8952.690430
1409.888672	9087.316406
1408.769531	8922.904297
1407.648438	8934.789063
1406.527344	8855.216797
1405.406250	8980.846680
1404.285156	9012.782227
1403.164063	9049.166016
1402.042969	8815.825195
1400.919922	8928.002930
1399.798828	8910.903320
1398.675781	9036.394531
1397.554688	8927.952148
1396.431641	8783.912109
1395.308594	8900.454102
1394.185547	8816.579102
1393.062500	8837.355469
1391.939453	8904.864258
1390.816406	8852.183594
1389.693359	8819.544922
1388.568359	8764.671875
1387.445313	8916.664063
1386.320313	8732.812500
1385.197266	8749.129883
1384.072266	8774.333984
1382.947266	8881.766602
1381.822266	8938.051758
1380.697266	8756.571289
1379.572266	8777.312500
1378.445313	8820.257813
1377.320313	8947.579102
1376.195313	8801.745117
1375.068359	8842.444336
1373.941406	8918.643555
1372.816406	9065.834961
1371.689453	8802.474609
1370.562500	8729.999023
1369.435547	8897.110352
1368.308594	8953.274414
1367.179688	9075.942383
1366.052734	8854.925781
1364.923828	8970.917969
1363.796875	8798.750977
1362.667969	8996.703125
1361.541016	8846.745117
1360.412109	8823.102539
1359.283203	8883.630859
1358.154297	8959.639648
1357.025391	9059.977539
1355.894531	9020.818359
1354.765625	9019.297852
1353.636719	8900.492188
1352.505859	8945.456055
1351.376953	8868.733398
1350.246094	8984.465820
1349.115234	9060.352539
1347.984375	8994.704102
1346.853516	8900.337891
1345.722656	9186.182617
1344.591797	9144.854492
1343.460938	8993.060547
1342.328125	9110.842773
1341.197266	9069.547852
1340.064453	9145.315430
1338.933594	9194.559570
1337.800781	9098.077148
1336.667969	9052.395508
1335.535156	9006.729492
1334.402344	8863.987305
1333.269531	9094.148438
1332.134766	9033.056641
1331.001953	8930.080078
1329.869141	8999.137695
1328.734375	9129.906250
1327.599609	9170.249023
1326.466797	9206.170898
1325.332031	9158.341797
1324.197266	9214.082031
1323.062500	9225.745117
1321.927734	8997.328125
1320.791016	9282.090820
1319.656250	9291.534180
1318.519531	9032.400391
1317.384766	8991.257813
1316.248047	9007.346680
1315.113281	9186.250977
1313.976563	9092.303711
1312.839844	9090.769531
1311.703125	9120.024414
1310.566406	9131.677734
1309.427734	9018.016602
1308.291016	9084.634766
1307.154297	8889.704102
1306.015625	8958.517578
1304.878906	9121.777344
1303.740234	9076.306641
1302.601563	8975.944336
1301.462891	9057.871094
1300.324219	9065.124023
1299.185547	8909.936523
1298.046875	9046.700195
1296.906250	8970.564453
1295.767578	8771.589844
1294.626953	8772.302734
1293.488281	8917.769531
1292.347656	8993.014648
1291.207031	8864.330078
1290.066406	8792.684570
1288.925781	8940.240234
1287.785156	8726.164063
1286.644531	8840.815430
1285.503906	8887.516602
1284.361328	8975.817383
1283.220703	9035.618164
1282.078125	8900.529297
1280.937500	8986.593750
1279.794922	8836.236328
1278.652344	9001.064453
1277.509766	8866.071289
1276.367188	8873.324219
1275.224609	8769.020508
1274.080078	8848.456055
1272.937500	8818.535156
1271.794922	8893.563477
1270.650391	8913.918945
1269.505859	8855.589844
1268.363281	8858.462891
1267.218750	8830.749023
1266.074219	8746.250000
1264.929688	8864.892578
1263.783203	8837.190430
1262.638672	8802.947266
1261.494141	8770.898438
1260.347656	8808.701172
1259.203125	8938.141602
1258.056641	9019.539063
1256.910156	8917.667969
1255.763672	8863.815430
1254.617188	8940.821289
1253.470703	8828.113281
1252.324219	8852.779297
1251.177734	8916.669922
1250.031250	8749.541992
1248.882813	8937.622070
1247.734375	8892.540039
1246.587891	8897.570313
1245.439453	8867.754883
1244.291016	8894.561523
1243.142578	8988.844727
1241.994141	9000.383789
1240.845703	9011.918945
1239.697266	9027.801758
1238.546875	9152.455078
1237.398438	8979.068359
1236.248047	8881.858398
1235.099609	9165.205078
1233.949219	9098.432617
1232.798828	9196.882813
1231.648438	8934.528320
1230.498047	9150.311523
1229.347656	9024.925781
1228.197266	9132.008789
1227.044922	9212.993164
1225.894531	9148.460938
1224.742188	9083.950195
1223.591797	9145.364258
1222.439453	9159.008789
1221.287109	9109.717773
1220.134766	9099.497070
1218.982422	9195.574219
1217.830078	9200.524414
1216.677734	9012.471680
1215.523438	9175.727539
1214.371094	9126.481445
1213.216797	9170.452148
1212.064453	8993.366211
1210.910156	9169.513672
1209.755859	9146.296875
1208.601563	9194.565430
1207.447266	9223.327148
1206.292969	9137.320313
1205.136719	9250.510742
1203.982422	9188.337891
1202.828125	9191.109375
1201.671875	9198.208008
1200.515625	9179.342773
1199.361328	9205.907227
1198.205078	9284.366211
1197.048828	9254.682617
1195.892578	9261.762695
1194.736328	9147.791016
1193.578125	9208.916016
1192.421875	9267.859375
1191.265625	9266.289063
1190.107422	9240.957031
1188.949219	9384.093750
1187.792969	9319.881836
1186.634766	9201.715820
1185.476563	9215.266602
1184.318359	9328.092773
1183.160156	9259.616211
1182.000000	9178.217773
1180.841797	9383.750977
1179.681641	9552.548828
1178.523438	9199.427734
1177.363281	9376.823242
1176.203125	9310.561523
1175.044922	9160.263672
1173.884766	9509.973633
1172.724609	9409.248047
1171.562500	9364.567383
1170.402344	9425.442383
1169.242188	9477.681641
1168.080078	9379.181641
1166.919922	9440.022461
1165.757813	9481.469727
1164.595703	9501.381836
1163.433594	9364.212891
1162.271484	9685.325195
1161.109375	9597.643555
1159.947266	9352.996094
1158.785156	9738.453125
1157.621094	9812.046875
1156.458984	9795.335938
1155.294922	9626.040039
1154.132813	9785.565430
1152.968750	9773.163086
1151.804688	9709.210938
1150.640625	9933.070313
1149.476563	9944.268555
1148.312500	9792.292969
1147.146484	10018.170898
1145.982422	10007.885742
1144.818359	9933.227539
1143.652344	10021.652344
1142.486328	10030.676758
1141.320313	10061.145508
1140.156250	9990.816406
1138.990234	10094.178711
1137.822266	10118.188477
1136.656250	10401.532227
1135.490234	10251.902344
1134.324219	10181.598633
1133.156250	10229.140625
1131.988281	10428.739258
1130.822266	10510.486328
1129.654297	10517.265625
1128.486328	10436.270508
1127.318359	10592.888672
1126.150391	10565.409180
1124.982422	10570.033203
1123.812500	10643.114258
1122.644531	10739.698242
1121.474609	10718.625977
1120.306641	10733.911133
1119.136719	11012.147461
1117.966797	10973.939453
1116.796875	11089.617188
1115.626953	11162.520508
1114.457031	11032.438477
1113.287109	11216.400391
1112.115234	11342.634766
1110.945313	11451.744141
1109.773438	11236.301758
1108.603516	11294.161133
1107.431641	11411.758789
1106.259766	11522.914063
1105.087891	11614.830078
1103.916016	11760.042969
1102.744141	11726.051758
1101.572266	11930.903320
1100.398438	11971.515625
1099.226563	11937.504883
1098.052734	11980.233398
1096.880859	12212.603516
1095.707031	12110.388672
1094.533203	12255.316406
1093.359375	12180.815430
1092.185547	12378.919922
1091.011719	12447.077148
1089.837891	12093.708008
1088.662109	12251.284180
1087.488281	12479.032227
1086.312500	12738.618164
1085.138672	12666.249023
1083.962891	13042.698242
1082.787109	12681.079102
1081.611328	12923.442383
1080.435547	12882.977539
1079.259766	13072.083984
1078.082031	13108.113281
1076.906250	13025.139648
1075.728516	13294.854492
1074.552734	13243.737305
1073.375000	13436.867188
1072.197266	13479.171875
1071.019531	13351.620117
1069.841797	13523.405273
1068.664063	13954.049805
1067.486328	13811.627930
1066.308594	14012.947266
1065.128906	14002.077148
1063.951172	13978.485352
1062.771484	14166.949219
1061.591797	14175.137695
1060.412109	14115.490234
1059.232422	14365.295898
1058.052734	14246.302734
1056.873047	14540.492188
1055.693359	14605.801758
1054.513672	14673.208008
1053.332031	14700.355469
1052.152344	14843.941406
1050.970703	14638.192383
1049.789063	14951.060547
1048.607422	15020.462891
1047.425781	15121.578125
1046.244141	15212.082031
1045.062500	15050.860352
1043.880859	15562.170898
1042.697266	15197.965820
1041.515625	15556.869141
1040.332031	15435.855469
1039.150391	15517.755859
1037.966797	15570.047852
1036.783203	15880.052734
1035.599609	15577.415039
1034.416016	15830.291992
1033.232422	15736.800781
1032.046875	15987.452148
1030.863281	16041.717773
1029.677734	15967.230469
1028.494141	16179.732422
1027.308594	16162.207031
1026.123047	16414.677734
1024.937500	16369.701172
1023.751953	16280.458008
1022.566406	16288.223633
1021.380859	16479.371094
1020.193359	16727.355469
1019.007813	16783.503906
1017.820313	16995.535156
1016.634766	16718.800781
1015.447266	16661.191406
1014.259766	16723.626953
1013.072266	16924.996094
1011.884766	16993.679688
1010.697266	17171.779297
1009.509766	16975.257813
1008.320313	17113.324219
1007.132813	16990.501953
1005.943359	17122.208984
1004.753906	17251.767578
1003.566406	17112.162109
1002.376953	17119.753906
1001.187500	17434.201172
999.998047	17176.955078
998.806641	17335.804688
997.617188	17105.970703
996.427734	17229.072266
995.236328	17335.332031
994.046875	17227.392578
992.855469	17096.396484
991.664063	17318.062500
990.472656	17031.802734
989.281250	17125.412109
988.089844	17271.433594
986.898438	17146.832031
985.705078	17278.121094
984.513672	17002.593750
983.320313	17064.677734
982.126953	17128.837891
980.935547	17042.085938
979.742188	16993.080078
978.548828	17258.333984
977.355469	16976.802734
976.162109	17160.292969
974.966797	16839.089844
973.773438	16886.458984
972.578125	17009.166016
971.384766	17043.931641
970.189453	16808.755859
968.994141	16889.570313
967.798828	16736.078125
966.603516	16938.175781
965.408203	17004.287109
964.212891	16740.046875
963.015625	16870.966797
961.820313	17064.541016
960.623047	16792.066406
959.427734	17037.818359
958.230469	16828.105469
957.033203	16779.283203
955.835938	16609.361328
954.638672	16940.574219
953.441406	16900.103516
952.244141	16855.472656
951.044922	16779.556641
949.847656	16712.009766
948.648438	16709.152344
947.449219	16748.009766
946.251953	16501.164063
945.052734	16587.996094
943.853516	16720.660156
942.654297	16624.009766
941.453125	16637.837891
940.253906	16730.835938
939.054688	16588.402344
937.853516	16741.777344
936.652344	16436.955078
935.453125	16438.308594
934.251953	16614.529297
933.050781	16570.058594
931.849609	16542.251953
930.646484	16529.019531
929.445313	16601.083984
928.244141	16496.324219
927.041016	16464.388672
925.839844	16451.175781
924.636719	16433.808594
923.433594	16495.431641
922.230469	16338.822266
921.027344	16441.996094
919.824219	16277.138672
918.621094	16268.122070
917.417969	16292.335938
916.212891	16214.796875
915.009766	16311.672852
913.804688	16140.748047
912.599609	16212.698242
911.394531	16149.748047
910.189453	15835.786133
908.984375	16100.659180
907.779297	16236.856445
906.574219	15985.247070
905.367188	16119.343750
904.162109	15863.693359
902.955078	15821.598633
901.750000	15762.941406
900.542969	15544.774414
899.335938	15653.970703
898.128906	15582.943359
896.921875	15627.902344
895.712891	15699.759766
894.505859	15506.626953
893.298828	15257.679688
892.089844	15306.798828
890.880859	15376.590820
889.673828	15206.398438
888.464844	15056.947266
887.255859	15058.502930
886.046875	14960.816406
884.835938	15076.083008
883.626953	14664.264648
882.417969	14628.687500
881.207031	14803.869141
879.998047	14582.359375
878.787109	14555.075195
877.576172	14804.519531
876.365234	14506.726563
875.154297	14498.047852
873.943359	14241.688477
872.732422	14216.547852
871.519531	14156.337891
870.308594	14059.015625
869.095703	14064.855469
867.884766	14175.867188
866.671875	13981.681641
865.458984	14006.083984
864.246094	13791.380859
863.033203	13630.332031
861.820313	13685.687500
860.605469	13594.755859
859.392578	13547.109375
858.177734	13450.052734
856.964844	13536.285156
855.750000	13470.143555
854.535156	13321.689453
853.320313	13453.174805
852.105469	13327.408203
850.890625	13246.944336
849.675781	13244.671875
848.458984	13195.097656
847.244141	13151.708984
846.027344	13073.384766
844.810547	13021.808594
843.595703	12945.587891
842.378906	13048.162109
841.162109	12807.604492
839.943359	12867.030273
838.726563	12809.370117
837.509766	12803.064453
836.291016	12784.442383
835.074219	12880.778320
833.855469	12622.021484
832.636719	12527.514648
831.417969	12632.049805
830.199219	12863.730469
828.980469	12707.700195
827.761719	12525.065430
826.542969	12502.412109
825.322266	12537.164063
824.103516	12635.438477
822.882813	12563.596680
821.664063	12645.441406
820.443359	12528.553711
819.222656	12446.525391
818.001953	12464.865234
816.779297	12638.803711
815.558594	12704.186523
814.337891	12661.069336
813.115234	12683.450195
811.894531	12554.417969
810.671875	12675.001953
809.449219	12660.551758
808.226563	12590.892578
807.003906	12545.791992
805.781250	12410.758789
804.558594	12566.007813
803.333984	12594.501953
802.111328	12731.276367
800.886719	12769.945313
799.664063	12536.946289
798.439453	12618.520508
797.214844	12522.427734
795.990234	12569.270508
794.765625	12787.549805
793.541016	12638.416992
792.314453	12532.183594
791.089844	12466.787109
789.863281	12497.278320
788.638672	12623.609375
787.412109	12702.999023
786.185547	12733.432617
784.958984	12814.813477
783.732422	12881.900391
782.505859	12627.022461
781.279297	12673.744141
780.050781	12643.047852
778.824219	12836.382813
777.595703	12636.663086
776.367188	12754.604492
775.140625	12878.611328
773.912109	12709.513672
772.683594	12876.214844
771.453125	12894.344727
770.224609	12841.273438
768.996094	12627.553711
767.765625	12881.588867
766.537109	12871.240234
765.306641	12718.605469
764.076172	12913.554688
762.845703	12787.379883
761.615234	12968.028320
760.384766	12738.290039
759.154297	12866.078125
757.921875	12975.546875
756.691406	12955.041016
755.458984	12954.840820
754.228516	13177.890625
752.996094	13009.227539
751.763672	13023.217773
750.531250	12732.927734
749.298828	12919.353516
748.066406	13048.936523
746.832031	12991.948242
745.599609	13190.394531
744.365234	13354.317383
743.132813	13236.511719
741.898438	13128.876953
740.664063	13063.818359
739.429688	13081.821289
738.195313	13227.394531
736.960938	13164.375000
735.724609	13204.618164
734.490234	13226.630859
733.255859	13113.052734
732.019531	13248.375977
730.783203	13428.156250
729.546875	13340.894531
728.310547	13379.040039
727.074219	13415.149414
725.837891	13206.641602
724.601563	13262.979492
723.363281	13446.610352
722.126953	13389.739258
720.888672	13448.036133
719.650391	13494.192383
718.414063	13162.698242
717.175781	13380.509766
715.937500	13531.626953
714.697266	13442.502930
713.458984	13595.575195
712.220703	13403.567383
710.980469	13415.376953
709.742188	13338.434570
708.501953	13354.284180
707.261719	13432.633789
706.021484	13623.848633
704.781250	13486.453125
703.541016	13671.546875
702.300781	13548.292969
701.058594	13838.068359
699.818359	13537.577148
698.576172	13553.366211
697.335938	13589.285156
696.093750	13752.021484
694.851563	13683.224609
693.609375	13350.816406
692.367188	13773.073242
691.123047	13527.270508
689.880859	13740.160156
688.638672	13824.266602
687.394531	13731.396484
686.150391	13696.860352
684.908203	13981.933594
683.664063	13738.355469
682.419922	13886.686523
681.175781	13868.216797
679.929688	13795.519531
678.685547	13883.511719
677.439453	13658.230469
676.195313	13639.810547
674.949219	13908.438477
673.703125	13863.891602
672.458984	13875.542969
671.212891	14103.865234
669.964844	13640.073242
668.718750	13884.400391
667.472656	14066.480469
666.224609	13831.488281
664.978516	13768.963867
663.730469	13979.026367
662.482422	14016.687500
661.234375	14004.249023
659.986328	14095.976563
658.738281	13891.260742
657.490234	13920.899414
656.242188	13848.420898
654.992188	14076.228516
653.744141	14003.747070
652.494141	13861.253906
651.244141	13798.836914
649.994141	14052.498047
648.744141	14002.069336
647.494141	13947.657227
646.244141	13935.250000
644.994141	13812.903320
643.742188	13778.537109
642.492188	13957.999023
641.240234	14055.482422
639.988281	14017.095703
638.738281	13924.795898
637.486328	14038.208984
636.232422	14065.729492
634.980469	13701.983398
633.728516	14026.935547
632.474609	14028.500977
631.222656	13998.142578
629.968750	13794.243164
628.714844	14001.278320
627.462891	13863.254883
626.208984	14080.174805
624.953125	13918.262695
623.699219	14288.565430
622.445313	14218.339844
621.191406	14229.827148
619.935547	14161.626953
618.679688	14133.284180
617.425781	14318.028320
616.169922	14419.083984
614.914063	14376.775391
613.658203	14565.360352
612.400391	14328.019531
611.144531	14604.091797
609.888672	14595.595703
608.630859	14821.800781
607.373047	14779.462891
606.117188	14753.044922
604.859375	14883.682617
603.601563	15010.299805
602.343750	14997.764648
601.083984	15132.264648
599.826172	15133.617188
598.568359	15168.735352
597.308594	15148.235352
596.048828	15425.571289
594.791016	15359.374023
593.531250	15606.803711
592.271484	15586.240234
591.011719	15607.350586
589.750000	15632.420898
588.490234	15750.704102
587.230469	15837.216797
585.968750	15828.524414
584.707031	16033.937500
583.447266	15961.787109
582.185547	16224.575195
580.923828	16239.596680
579.662109	16211.029297
578.398438	16204.258789
577.136719	16371.762695
575.875000	16333.284180
574.611328	16391.824219
573.347656	16442.425781
572.085938	16285.212891
570.822266	16557.423828
569.558594	16457.617188
568.292969	16577.398438
567.029297	16544.859375
565.765625	16524.195313
564.500000	16517.376953
563.236328	16704.267578
561.970703	16476.076172
560.705078	16465.814453
559.439453	16455.550781
558.173828	16445.289063
556.908203	16435.027344
555.642578	16698.740234
554.376953	16865.626953
553.109375	16848.884766
551.843750	16739.390625
550.576172	16896.314453
549.308594	16749.367188
548.041016	16620.220703
546.773438	16607.476563
545.505859	16918.113281
544.238281	16761.404297
542.968750	16709.216797
541.701172	16875.804688
540.431641	16801.939453
539.164063	16982.244141
537.894531	17042.328125
536.625000	17104.361328
535.355469	16835.568359
534.085938	16996.050781
532.814453	17044.277344
531.544922	16858.291016
530.273438	17097.392578
529.003906	17082.619141
527.732422	16930.160156
526.460938	17259.589844
525.189453	17087.488281
523.917969	17273.255859
522.646484	17364.607422
521.375000	17440.205078
520.101563	17447.001953
518.830078	17467.546875
517.556641	17429.156250
516.283203	17496.830078
515.011719	17674.443359
513.738281	17563.394531
512.462891	17583.898438
511.189453	17649.533203
509.916016	17660.203125
508.642578	17782.697266
507.367188	17803.144531
506.091797	17862.810547
504.818359	17945.986328
503.542969	17621.337891
502.267578	17988.753906
500.992188	18067.941406
499.714844	17755.197266
498.439453	18008.763672
497.164063	18001.716797
495.886719	18145.474609
494.609375	17938.671875
493.333984	17970.794922
492.056641	18380.697266
490.779297	18250.287109
489.501953	17935.984375
488.222656	18163.726563
486.945313	17890.625000
485.666016	18032.242188
484.388672	18179.673828
483.109375	17851.966797
481.830078	17981.785156
480.550781	17677.677734
479.271484	17811.388672
477.992188	17931.375000
476.712891	17768.078125
475.433594	17835.296875
474.152344	17732.605469
472.871094	17948.187500
471.591797	17909.927734
470.310547	17580.878906
469.029297	17692.949219
467.748047	17775.714844
466.466797	17757.015625
465.183594	17660.310547
463.902344	17514.886719
462.619141	17759.445313
461.337891	17512.689453
460.054688	17603.191406
458.771484	17668.330078
457.488281	17441.199219
456.205078	17512.185547
454.921875	17598.728516
453.638672	17858.546875
452.353516	17534.191406
451.070313	17616.789063
449.785156	17658.486328
448.500000	17803.302734
447.214844	17638.716797
445.929688	17692.058594
444.644531	17980.712891
443.359375	18137.037109
442.072266	17793.636719
440.787109	17866.349609
439.500000	17764.115234
438.214844	18124.402344
436.927734	18107.646484
435.640625	18209.388672
434.353516	18204.273438
433.066406	18222.462891
431.777344	18483.333984
430.490234	18388.876953
429.203125	18393.437500
427.914063	18504.720703
426.625000	18582.984375
425.335938	18783.427734
424.046875	18877.128906
422.757813	18996.005859
421.468750	18872.486328
420.179688	18933.167969
418.888672	19013.207031
417.599609	19102.906250
416.308594	19252.636719
415.017578	19071.064453
413.728516	19009.634766
412.437500	19145.744141
411.144531	19248.892578
409.853516	19348.132813
408.562500	19174.439453
407.269531	19258.173828
405.978516	19202.576172
404.685547	19305.621094
403.392578	19133.988281
402.099609	19159.656250
400.806641	19179.513672
399.513672	19104.644531
398.220703	19199.880859
396.927734	18970.439453
395.632813	19003.839844
394.337891	18938.707031
393.044922	18989.482422
391.750000	18860.648438
390.455078	18756.960938
389.160156	18960.238281
387.865234	18567.058594
386.568359	18785.734375
385.273438	18734.220703
383.976563	18734.808594
382.681641	18577.242188
381.384766	18348.380859
380.087891	18611.246094
378.791016	18476.912109
377.494141	18302.152344
376.197266	18370.255859
374.898438	18145.480469
373.601563	18171.207031
372.302734	18216.183594
371.005859	18134.048828
369.707031	18153.986328
368.408203	18114.240234
367.109375	18091.830078
365.810547	18084.820313
364.509766	17818.074219
363.210938	18170.837891
361.910156	17981.101563
360.611328	18252.947266
359.310547	17970.974609
358.009766	18058.181641
356.708984	18055.027344
355.408203	18042.263672
354.107422	18042.953125
352.804688	18024.431641
351.503906	18232.550781
350.201172	17852.986328
348.900391	18022.662109
347.597656	17944.646484
346.294922	17816.755859
344.992188	17844.343750
343.689453	18102.156250
342.386719	17755.619141
341.082031	17873.345703
339.779297	17726.400391
338.474609	17546.910156
337.169922	17505.503906
335.867188	17717.101563
334.562500	17549.203125
333.257813	17682.166016
331.951172	17499.007813
330.646484	17545.742188
329.341797	17552.248047
328.035156	17620.017578
326.728516	17814.103516
325.423828	17449.255859
324.117188	17201.263672
322.810547	17370.447266
321.503906	17346.365234
320.195313	17523.113281
318.888672	17351.769531
317.580078	17182.394531
316.273438	17357.166016
314.964844	17357.949219
313.656250	17150.443359
312.347656	17231.507813
311.039063	17306.810547
309.730469	17426.015625
308.421875	17459.248047
307.111328	17303.451172
305.802734	17409.230469
304.492188	17354.650391
303.181641	17380.234375
301.871094	17505.021484
300.560547	17522.939453
299.250000	17252.857422
297.939453	17390.947266
296.628906	17344.048828
295.316406	17419.167969
294.005859	17627.671875
292.693359	17302.542969
291.380859	17404.298828
290.068359	17513.640625
288.755859	17584.849609
287.443359	17336.123047
286.130859	17504.435547
284.816406	17305.302734
283.503906	17500.205078
282.189453	17299.238281
280.875000	17551.148438
279.560547	17365.458984
278.246094	17200.753906
276.931641	17313.734375
275.617188	17373.441406
274.300781	17233.531250
272.986328	17395.859375
271.669922	17172.382813
270.355469	17454.357422
269.039063	17494.986328
267.722656	17224.126953
266.406250	17298.962891
265.089844	17332.001953
263.771484	17363.130859
262.455078	17227.232422
261.136719	17248.878906
259.820313	17462.138672
258.501953	17299.736328
257.183594	17490.152344
255.865234	17251.951172
254.546875	17476.433594
253.228516	17499.904297
251.908203	17360.376953
250.589844	17277.746094
249.269531	17344.814453
247.949219	17339.875000
246.628906	17369.029297
245.310547	17470.128906
243.988281	17461.382813
242.667969	17702.503906
241.347656	17593.412109
240.025391	17355.685547
238.705078	17469.937500
237.382813	17608.740234
236.060547	17722.906250
234.738281	17742.486328
233.416016	17614.591797
232.093750	17728.695313
230.771484	17818.189453
229.449219	17779.158203
228.125000	17844.048828
226.800781	17959.917969
225.478516	18015.310547
224.154297	17813.878906
222.830078	18024.087891
221.505859	17964.292969
220.181641	17861.113281
218.855469	17688.150391
217.531250	18041.611328
216.205078	17851.701172
214.878906	18061.675781
213.554688	17753.033203
212.228516	17704.667969
210.902344	17888.166016
209.574219	18022.601563
208.248047	17631.269531
206.921875	17765.701172
205.593750	17883.130859
204.265625	17859.271484
202.939453	18117.863281
201.611328	18135.388672
200.283203	18077.613281
198.955078	18270.160156
197.625000	18428.769531
196.296875	18239.279297
194.968750	18420.408203
193.638672	18420.931641
192.308594	18522.990234
190.978516	18739.691406
189.648438	18717.597656
188.318359	18757.531250
186.988281	19028.564453
185.658203	18780.992188
184.326172	19125.179688
182.996094	19178.156250
181.664063	19071.509766
180.332031	19242.748047
179.000000	19184.929688
177.667969	19324.181641
176.335938	19455.878906
175.003906	19491.851563
173.669922	19462.162109
172.337891	19439.984375
171.003906	19363.437500
169.669922	19581.244141
168.335938	19474.707031
167.001953	19377.578125
165.667969	19688.951172
164.333984	19440.072266
163.000000	19490.968750
161.664063	19496.900391
160.328125	19766.835938
158.994141	19540.582031
157.658203	19589.548828
156.322266	19859.324219
154.986328	19636.912109
153.650391	19582.943359
152.312500	19931.132813
150.976563	20137.072266
149.638672	19875.500000
148.302734	20096.330078
146.964844	20270.353516
145.626953	20459.265625
144.289063	20478.083984
142.949219	20467.003906
141.611328	20627.761719
140.273438	20837.017578
138.933594	21038.728516
137.595703	20964.083984
136.255859	20962.255859
134.916016	21305.664063
133.576172	21419.455078
132.236328	21460.451172
130.894531	21370.871094
129.554688	21624.449219
128.212891	21626.230469
126.873047	21840.525391
125.531250	21765.849609
124.189453	22015.449219
122.847656	21897.914063
121.505859	21797.185547
120.164063	21933.031250
118.820313	21724.322266
117.478516	21966.257813
116.134766	22113.167969
114.792969	22096.238281
113.449219	21928.583984
112.105469	22101.468750
110.761719	22380.324219
109.417969	22324.298828
108.072266	22536.070313
106.728516	22589.732422
105.382813	22524.402344
104.039063	22158.003906
102.693359	22451.416016
101.347656	22562.644531
100.001953	22958.046875
98.654297	22976.283203
97.308594	23148.638672
95.962891	22875.343750
94.615234	23378.072266
93.269531	23555.830078
91.921875	23410.644531
90.574219	23716.347656
89.226563	23521.097656
87.878906	23316.642578
86.529297	23414.513672
85.181641	23660.667969
83.832031	23908.589844
82.484375	23885.833984
81.134766	23737.082031
79.785156	23215.990234
78.435547	23450.843750
77.085938	23578.197266
75.736328	23725.871094
74.384766	23705.019531
73.035156	23432.429688
71.683594	23396.828125
70.332031	22891.236328
68.982422	22968.595703
67.630859	22572.392578
66.279297	22450.041016
64.925781	21978.255859
63.574219	21528.820313
62.220703	21569.378906
60.869141	21670.908203
59.515625	21654.144531
58.162109	20800.488281
56.808594	19815.986328
55.455078	19134.707031
54.101563	18468.441406
52.748047	17859.638672
51.392578	17391.333984
