#Wave		#Intensity
4002.114258	5952.689941
4001.416016	6027.858887
4000.717773	5765.629395
4000.018555	6015.186523
3999.320313	5989.175293
3998.621094	6077.642578
3997.921875	5872.798828
3997.223633	5975.560059
3996.524414	6046.109375
3995.824219	5880.692871
3995.125000	5947.659668
3994.425781	5982.441406
3993.725586	5942.174805
3993.026367	6180.583984
3992.326172	5972.413574
3991.625977	5878.596191
3990.925781	5995.490234
3990.225586	5890.988281
3989.525391	5922.169434
3988.825195	6088.967773
3988.125000	5966.657715
3987.423828	5990.674805
3986.723633	5900.526367
3986.022461	6056.520020
3985.321289	5877.232910
3984.620117	5976.128418
3983.918945	5800.476563
3983.217773	5920.739746
3982.516602	6069.476074
3981.814453	5819.061523
3981.113281	5939.263184
3980.411133	5806.504883
3979.708984	5905.299805
3979.006836	6178.558105
3978.304688	6013.779785
3977.602539	5995.013672
3976.900391	6118.629883
3976.198242	6035.793457
3975.495117	6077.523438
3974.792969	5998.277344
3974.089844	5951.071289
3973.386719	5939.445801
3972.683594	5974.051270
3971.980469	6008.645508
3971.277344	6014.790039
3970.574219	5917.858887
3969.870117	5931.123047
3969.166992	6118.485840
3968.462891	5858.166504
3967.759766	6066.792480
3967.055664	5927.312988
3966.351563	6047.089355
3965.647461	5904.107422
3964.943359	6073.544434
3964.238281	5948.349609
3963.534180	5915.457031
3962.829102	6074.166504
3962.125000	5839.061035
3961.419922	6121.871582
3960.714844	5897.472168
3960.009766	5981.622070
3959.304688	5916.848633
3958.599609	6064.770508
3957.893555	5964.564453
3957.188477	6034.475098
3956.482422	5948.477051
3955.777344	6188.398438
3955.071289	6028.026367
3954.365234	6019.976074
3953.659180	6040.252930
3952.953125	6049.902832
3952.246094	5960.444824
3951.540039	5963.026855
3950.833008	6008.067383
3950.126953	6038.942383
3949.419922	6002.600586
3948.712891	6068.832520
3948.005859	6219.907715
3947.298828	5957.283691
3946.591797	5991.675781
3945.884766	5997.782715
3945.176758	5954.414063
3944.469727	5988.790039
3943.761719	5835.924805
3943.053711	5951.546387
3942.345703	5985.905762
3941.637695	5854.299805
3940.929688	6022.817871
3940.221680	5891.247559
3939.513672	5907.948242
3938.804688	6154.006348
3938.095703	6184.771484
3937.387695	5898.047852
3936.678711	5897.100586
3935.969727	6132.423340
3935.260742	6180.800293
3934.551758	6109.302734
3933.841797	6101.272461
3933.132813	6029.810059
3932.422852	6064.077637
3931.713867	6182.886230
3931.003906	5974.069336
3930.293945	5888.584961
3929.583984	5750.308594
3928.874023	5925.422852
3928.164063	5850.547852
3927.453125	6032.628906
3926.743164	5929.607910
3926.032227	6030.691895
3925.322266	5962.883301
3924.611328	5983.030273
3923.900391	5876.565918
3923.189453	6072.531738
3922.478516	5857.101074
3921.766602	6014.340332
3921.055664	5964.171387
3920.344727	5808.599121
3919.632813	5958.743652
3918.920898	5989.402344
3918.208984	6065.711426
3917.497070	6029.620605
3916.785156	6070.786621
3916.073242	6157.577148
3915.361328	6037.247559
3914.648438	5983.636719
3913.936523	5930.042480
3913.223633	5995.749512
3912.510742	5857.983887
3911.797852	5979.795898
3911.084961	5817.530273
3910.372070	6062.022461
3909.659180	6166.215332
3908.945313	6032.037109
3908.232422	6094.148438
3907.518555	6044.116699
3906.804688	6078.179199
3906.091797	5905.570801
3905.377930	5946.648926
3904.663086	6029.732422
3903.949219	6088.282227
3903.235352	5999.793457
3902.520508	5869.334473
3901.806641	5899.886719
3901.091797	6049.387207
3900.376953	5971.455566
3899.662109	5963.501953
3898.947266	5815.666992
3898.232422	6090.959961
3897.517578	5960.631348
3896.802734	6054.050781
3896.086914	6039.100098
3895.372070	6083.556641
3894.656250	5984.756348
3893.940430	5994.275391
3893.224609	5825.668457
3892.508789	6009.812012
3891.792969	5932.034668
3891.076172	6105.629395
3890.360352	6059.274902
3889.643555	6075.751465
3888.927734	5949.164063
3888.210938	5951.697754
3887.494141	6205.375977
3886.777344	6030.001953
3886.060547	5931.398438
3885.342773	6157.065918
3884.625977	5915.551758
3883.909180	5862.322754
3883.191406	5983.349121
3882.473633	5992.841309
3881.755859	6009.298340
3881.038086	6043.165039
3880.320313	6073.538086
3879.602539	6048.189941
3878.884766	6075.070801
3878.166016	6014.921875
3877.448242	5993.074707
3876.729492	5985.153809
3876.010742	5893.734863
3875.291992	5899.746582
3874.573242	5937.059082
3873.854492	5859.601074
3873.135742	5962.969727
3872.416016	6003.729492
3871.697266	6134.848145
3870.977539	6099.111328
3870.257813	6014.739746
3869.539063	6149.267090
3868.819336	6064.914063
3868.099609	6095.198730
3867.378906	6021.298340
3866.659180	6110.603027
3865.938477	6137.393555
3865.218750	6191.942383
3864.498047	6034.787109
3863.777344	5905.439941
3863.056641	6244.469238
3862.335938	5972.917480
3861.615234	6138.424805
3860.894531	6026.480957
3860.173828	5949.241699
3859.452148	6059.211426
3858.730469	6075.568359
3858.009766	6136.968750
3857.288086	6125.589844
3856.566406	6197.354492
3855.844727	5988.545410
3855.122070	6257.701172
3854.400391	6135.510742
3853.678711	6051.440430
3852.956055	6140.465332
3852.233398	6091.029297
3851.510742	6031.228027
3850.788086	6272.439453
3850.065430	6257.597168
3849.342773	6118.249512
3848.620117	6217.551270
3847.896484	5988.360352
3847.173828	6122.220215
3846.450195	6197.278320
3845.727539	6217.019531
3845.003906	6070.901367
3844.280273	6128.657715
3843.555664	6227.845215
3842.832031	6102.516602
3842.108398	6139.521484
3841.383789	6162.704590
3840.660156	6382.640137
3839.935547	6122.762695
3839.210938	6101.075684
3838.486328	6041.442383
3837.761719	5999.076660
3837.037109	6125.734375
3836.312500	6321.323242
3835.586914	6199.626953
3834.862305	6081.417480
3834.136719	6149.381348
3833.411133	6024.324707
3832.685547	6133.625977
3831.959961	6187.767090
3831.234375	6045.540039
3830.508789	6175.450195
3829.782227	6122.805176
3829.056641	6059.847656
3828.330078	6010.680176
3827.603516	6075.114258
3826.876953	6194.590332
3826.150391	6141.983887
3825.423828	6048.109863
3824.697266	6181.291504
3823.970703	6156.225586
3823.243164	6289.347168
3822.516602	6106.117676
3821.789063	6005.448730
3821.061523	6166.026367
3820.333984	6110.053711
3819.606445	6212.151855
3818.878906	6053.128418
3818.151367	6093.375977
3817.422852	6013.410645
3816.695313	6256.240723
3815.966797	6001.183105
3815.238281	6182.149414
3814.509766	6170.862305
3813.781250	6211.050781
3813.052734	6278.674316
3812.324219	6058.121094
3811.595703	6170.335449
3810.866211	6265.366699
3810.136719	6096.352539
3809.408203	6030.239258
3808.678711	6313.769043
3807.949219	6199.661621
3807.219727	6195.241211
3806.489258	6046.928711
3805.759766	6200.105469
3805.030273	6243.635742
3804.299805	6300.849121
3803.569336	6180.004883
3802.839844	6182.437500
3802.109375	6212.250488
3801.378906	6242.054199
3800.647461	6104.188477
3799.916992	6257.158691
3799.186523	6235.632324
3798.455078	6227.792480
3797.723633	6206.277344
3796.993164	6112.972656
3796.261719	6159.849121
3795.530273	6196.457520
3794.798828	6291.146973
3794.066406	6194.470703
3793.334961	6316.458984
3792.602539	6260.796875
3791.871094	6133.436523
3791.138672	6053.919434
3790.406250	6145.125977
3789.673828	6342.118652
3788.941406	6122.678711
3788.208984	6367.383789
3787.476563	6055.892090
3786.743164	6085.622559
3786.010742	6094.878906
3785.277344	6230.307129
3784.543945	6246.356445
3783.810547	6064.675781
3783.077148	6220.494141
3782.343750	6188.825684
3781.610352	6221.907715
3780.875977	6166.400879
3780.142578	6240.351074
3779.408203	6334.711914
3778.673828	6207.703613
3777.939453	6230.541016
3777.205078	6263.583496
3776.470703	6170.683105
3775.736328	6084.618164
3775.000977	6308.207031
3774.266602	6205.137695
3773.531250	6156.523438
3772.795898	6318.777344
3772.061523	6164.750977
3771.326172	6102.567383
3770.589844	6223.960938
3769.854492	6226.361816
3769.119141	6187.984375
3768.382813	6360.269043
3767.647461	6253.941406
3766.911133	6256.335938
3766.174805	6190.810059
3765.438477	6233.958008
3764.702148	6039.451660
3763.965820	6327.000488
3763.229492	6292.048828
3762.492188	6352.118164
3761.755859	6334.136719
3761.018555	6282.239746
3760.281250	6257.491699
3759.543945	6348.046875
3758.806641	6119.865723
3758.069336	6074.814941
3757.332031	6355.163574
3756.593750	6218.589844
3755.856445	6254.864746
3755.118164	6382.598145
3754.379883	6232.536621
3753.641602	6350.072266
3752.903320	6284.717285
3752.165039	6175.370605
3751.426758	6506.118164
3750.688477	6315.541504
3749.949219	6429.584961
3749.210938	6330.434570
3748.471680	6339.568848
3747.732422	6277.670410
3746.993164	6280.045898
3746.253906	6444.722168
3745.514648	6470.735352
3744.774414	6270.266602
3744.035156	6326.715820
3743.294922	6339.218750
3742.554688	6361.852539
3741.815430	6273.004395
3741.075195	6356.436035
3740.334961	6314.894043
3739.593750	6391.539551
3738.853516	6431.025879
3738.113281	6301.732910
3737.372070	6385.092285
3736.630859	6441.431152
3735.890625	6372.924805
3735.149414	6334.798828
3734.408203	6407.981445
3733.666016	6521.605469
3732.924805	6389.070313
3732.183594	6388.046387
3731.441406	6454.431641
3730.699219	6385.999023
3729.958008	6459.102051
3729.215820	6326.682129
3728.473633	6288.617188
3727.731445	6398.745605
3726.988281	6357.313477
3726.246094	6450.561523
3725.502930	6399.036133
3724.760742	6398.010742
3724.017578	6238.827148
3723.274414	6278.201660
3722.531250	6253.647949
3721.788086	6484.723633
3721.044922	6416.426270
3720.300781	6361.600098
3719.557617	6414.370117
3718.813477	6373.006836
3718.070313	6492.972656
3717.326172	6391.125977
3716.582031	6514.409668
3715.837891	6321.895020
3715.092773	6482.094727
3714.348633	6417.252930
3713.604492	6308.783691
3712.859375	6428.624512
3712.114258	6635.693848
3711.369141	6584.291992
3710.624023	6308.096680
3709.878906	6441.279297
3709.133789	6453.664063
3708.388672	6539.827637
3707.642578	6545.486328
3706.897461	6467.325684
3706.151367	6519.923828
3705.405273	6388.166504
3704.659180	6584.855957
3703.913086	6392.820313
3703.166992	6539.196289
3702.420898	6374.024902
3701.673828	6289.280273
3700.927734	6569.537109
3700.180664	6488.136230
3699.433594	6490.443848
3698.687500	6616.581543
3697.940430	6588.751465
3697.192383	6540.855957
3696.445313	6569.914063
3695.698242	6555.482910
3694.950195	6544.400391
3694.202148	6546.695313
3693.455078	6468.756836
3692.707031	6541.255371
3691.958984	6503.445801
3691.210938	6418.868164
3690.461914	6568.179199
3689.713867	6486.958496
3688.964844	6582.773926
3688.216797	6518.272949
3687.467773	6547.277344
3686.718750	6696.447754
3685.969727	6588.569336
3685.220703	6527.444824
3684.471680	6546.418945
3683.721680	6795.575195
3682.972656	6587.683105
3682.222656	6670.002930
3681.473633	6458.862793
3680.723633	6561.179688
3679.973633	6626.796387
3679.223633	6812.375000
3678.472656	6528.035645
3677.722656	6846.842285
3676.972656	6649.200684
3676.221680	6721.411621
3675.470703	6543.833984
3674.719727	6572.752441
3673.968750	6828.042480
3673.217773	6577.303711
3672.466797	6602.874512
3671.715820	6685.004883
3670.963867	6634.028809
3670.212891	6815.921387
3669.460938	6658.510742
3668.708984	6640.816895
3667.957031	6576.580566
3667.205078	6615.418945
3666.453125	6667.540039
3665.701172	6819.341797
3664.948242	6864.767578
3664.196289	6770.645996
3663.443359	6816.064941
3662.690430	6685.448242
3661.937500	6933.422852
3661.184570	6593.664551
3660.431641	6848.212891
3659.678711	6794.011230
3658.924805	6773.012207
3658.171875	6602.711914
3657.417969	6903.538574
3656.664063	6869.263672
3655.910156	6801.836426
3655.156250	6920.116211
3654.402344	6779.765137
3653.648438	6861.547852
3652.893555	6939.990234
3652.139648	6852.722168
3651.384766	6755.542480
3650.629883	6959.843750
3649.875000	6918.983398
3649.120117	6934.432617
3648.365234	6920.077637
3647.610352	7001.731934
3646.854492	6861.590820
3646.099609	6900.205078
3645.343750	6935.497559
3644.587891	6954.236816
3643.832031	7049.050781
3643.076172	7064.458008
3642.320313	7017.031250
3641.564453	6956.394043
3640.808594	7084.203613
3640.051758	7155.783203
3639.294922	7065.410156
3638.539063	6856.116699
3637.782227	7023.503418
3637.025391	7071.924316
3636.267578	6941.991211
3635.510742	7188.532227
3634.753906	7203.887695
3633.996094	7130.112305
3633.239258	7102.566406
3632.481445	7296.124023
3631.723633	7080.494629
3630.965820	7224.510254
3630.208008	7216.755859
3629.449219	7100.176758
3628.691406	7128.714844
3627.933594	7140.759766
3627.174805	7284.649414
3626.416016	7151.654785
3625.657227	7246.068848
3624.898438	7337.157715
3624.139648	7158.100586
3623.380859	7255.761230
3622.621094	7277.649902
3621.862305	7098.687988
3621.102539	7360.910645
3620.342773	7359.731445
3619.583984	7345.388672
3618.824219	7258.660645
3618.063477	7320.005859
3617.303711	7246.467285
3616.543945	7495.257813
3615.783203	7365.812988
3615.023438	7436.964355
3614.262695	7360.166016
3613.501953	7391.854004
3612.741211	7407.101074
3611.980469	7146.345703
3611.219727	7286.462402
3610.458008	7446.241699
3609.697266	7540.287598
3608.935547	7325.647461
3608.173828	7524.739746
3607.412109	7661.399902
3606.650391	7174.437500
3605.888672	7340.643066
3605.126953	7657.718750
3604.365234	7528.555664
3603.602539	7383.034180
3602.839844	7434.321289
3602.078125	7465.918457
3601.315430	7723.709473
3600.552734	7493.026855
3599.790039	7531.153809
3599.026367	7402.154297
3598.263672	7456.664063
3597.500000	7317.890625
3596.737305	7408.422852
3595.973633	7603.714355
3595.209961	7586.125488
3594.446289	7575.089844
3593.682617	7564.056641
3592.918945	7598.843262
3592.154297	7427.480957
3591.390625	7566.965332
3590.625977	7506.875488
3589.861328	7646.301758
3589.096680	7569.868652
3588.332031	7614.427734
3587.567383	7606.669922
3586.802734	7657.745117
3586.038086	7571.554688
3585.272461	7462.520508
3584.506836	7588.729492
3583.742188	7659.371582
3582.976563	7367.494141
3582.210938	7509.983398
3581.445313	7371.663086
3580.678711	7638.143555
3579.913086	7525.956055
3579.146484	7498.645508
3578.380859	7640.998535
3577.614258	7561.484375
3576.847656	7579.842773
3576.081055	7454.708984
3575.314453	7590.456055
3574.547852	7739.199219
3573.780273	7630.397461
3573.013672	7505.334961
3572.246094	7575.817871
3571.478516	7678.856934
3570.710938	7544.074219
3569.943359	7572.177246
3569.175781	7554.682617
3568.408203	7673.937500
3567.639648	7581.560059
3566.872070	7635.676270
3566.103516	7533.571289
3565.334961	7519.349609
3564.567383	7514.891602
3563.798828	7422.612793
3563.029297	7613.300781
3562.260742	7478.764160
3561.492188	7539.337402
3560.722656	7573.885742
3559.953125	7497.920898
3559.184570	7639.699707
3558.415039	7391.549316
3557.645508	7533.299805
3556.875000	7363.197266
3556.105469	7553.618652
3555.335938	7455.000000
3554.565430	7366.151855
3553.794922	7644.120117
3553.025391	7412.472656
3552.254883	7508.631348
3551.484375	7471.740234
3550.712891	7464.055664
3549.942383	7495.292969
3549.171875	7545.977051
3548.400391	7447.500000
3547.628906	7472.240723
3546.858398	7603.934082
3546.086914	7499.013184
3545.315430	7420.046875
3544.542969	7567.883301
3543.771484	7433.865234
3543.000000	7442.390137
3542.227539	7541.579590
3541.455078	7598.647949
3540.682617	7361.123535
3539.911133	7473.224121
3539.137695	7268.155762
3538.365234	7461.123047
3537.592773	7330.527344
3536.819336	7568.705078
3536.046875	7434.899902
3535.273438	7404.607422
3534.500000	7500.409180
3533.726563	7505.672363
3532.953125	7404.280762
3532.179688	7367.549316
3531.406250	7337.291016
3530.631836	7255.356934
3529.857422	7393.077148
3529.083984	7340.223633
3528.309570	7303.530762
3527.535156	7386.295898
3526.760742	7488.400879
3525.985352	7532.382324
3525.210938	7292.397949
3524.436523	7423.503906
3523.661133	7415.863281
3522.885742	7424.350586
3522.110352	7216.783203
3521.334961	7280.109863
3520.559570	7394.993652
3519.784180	7442.155273
3519.008789	7247.607422
3518.232422	7397.883789
3517.456055	7287.165527
3516.680664	7331.092773
3515.904297	7461.959473
3515.127930	7335.183594
3514.351563	7453.129395
3513.574219	7287.767578
3512.797852	7537.640137
3512.020508	7449.547852
3511.244141	7329.309082
3510.466797	7376.388672
3509.689453	7381.639160
3508.912109	7480.148926
3508.134766	7478.950684
3507.356445	7233.423340
3506.579102	7325.479980
3505.800781	7436.790039
3505.023438	7239.586914
3504.245117	7090.638184
3503.466797	7323.998535
3502.688477	7326.036621
3501.910156	7453.312988
3501.130859	7211.313477
3500.352539	7370.668945
3499.573242	7549.231445
3498.794922	7326.587891
3498.015625	7309.370117
3497.236328	7446.150391
3496.457031	7297.405273
3495.677734	7331.514160
3494.897461	7237.347656
3494.118164	7216.951172
3493.337891	7520.326172
3492.557617	7515.916016
3491.777344	7223.096191
3490.998047	7398.161621
3490.216797	7227.188477
3489.436523	7463.054688
3488.656250	7279.315430
3487.875000	7345.391113
3487.094727	7507.489746
3486.313477	7451.870117
3485.532227	7297.054199
3484.750977	7494.281738
3483.969727	7310.712891
3483.188477	7530.267090
3482.406250	7353.147949
3481.625000	7355.167480
3480.842773	7424.331543
3480.060547	7522.244629
3479.278320	7214.188477
3478.496094	7340.866699
3477.713867	7394.010742
3476.931641	7405.605469
3476.148438	7474.693359
3475.366211	7444.751465
3474.583008	7392.465820
3473.799805	7340.196777
3473.016602	7278.367676
3472.233398	7424.021973
3471.450195	7397.302246
3470.666992	7434.405762
3469.882813	7458.735840
3469.099609	7425.643555
3468.315430	7504.183594
3467.531250	7458.339355
3466.747070	7358.310547
3465.962891	7494.201172
3465.178711	7355.952637
3464.394531	7421.693359
3463.609375	7627.602539
3462.825195	7498.955078
3462.040039	7539.159668
3461.254883	7620.751465
3460.469727	7425.300293
3459.684570	7427.293945
3458.899414	7410.188477
3458.113281	7428.096191
3457.328125	7519.185059
3456.541992	7422.534180
3455.755859	7430.887695
3454.969727	7483.765625
3454.183594	7383.985840
3453.397461	7503.623535
3452.611328	7190.879883
3451.824219	7405.864258
3451.038086	7318.872070
3450.250977	7489.281738
3449.463867	7440.427246
3448.676758	7401.117676
3447.889648	7479.329590
3447.102539	7287.605469
3446.315430	7381.685059
3445.527344	7463.036621
3444.740234	7480.883789
3443.952148	7466.991211
3443.164063	7383.299805
3442.375977	7531.217773
3441.587891	7412.651855
3440.799805	7309.980469
3440.011719	7489.547363
3439.222656	7472.495117
3438.434570	7290.616699
3437.645508	7321.141602
3436.856445	7342.149902
3436.067383	7458.200684
3435.278320	7222.587891
3434.489258	7471.646484
3433.699219	7473.615723
3432.910156	7285.607422
3432.120117	7360.417969
3431.330078	7451.031250
3430.540039	7310.587402
3429.750000	7562.555664
3428.959961	7403.156250
3428.169922	7240.645020
3427.378906	7574.733398
3426.588867	7440.706055
3425.797852	7382.602539
3425.006836	7362.451660
3424.215820	7449.771484
3423.424805	7574.984863
3422.633789	7431.584961
3421.842773	7544.124023
3421.050781	7334.442383
3420.259766	7418.537109
3419.467773	7249.992188
3418.675781	7435.102051
3417.883789	7295.017578
3417.091797	7322.253418
3416.299805	7592.464844
3415.506836	7458.731934
3414.714844	7391.289551
3413.921875	7364.871582
3413.128906	7392.073730
3412.336914	7353.051270
3411.543945	7414.924805
3410.750000	7442.104980
3409.957031	7409.395996
3409.164063	7468.079102
3408.370117	7457.430176
3407.576172	7386.932617
3406.783203	7303.859863
3405.989258	7293.241699
3405.195313	7329.855469
3404.400391	7259.422852
3403.606445	7472.292969
3402.812500	7499.418457
3402.017578	7293.690918
3401.222656	7430.947266
3400.427734	7209.568359
3399.633789	7447.435059
3398.837891	7452.530273
3398.042969	7108.636719
3397.248047	7299.251953
3396.452148	7320.083008
3395.657227	7246.631348
3394.861328	7157.493652
3394.065430	7470.496582
3393.269531	7309.107910
3392.473633	7229.423828
3391.677734	7454.344238
3390.880859	7340.127441
3390.084961	7386.035156
3389.288086	7391.127930
3388.491211	7374.253418
3387.694336	7300.909180
3386.897461	7246.409668
3386.100586	7452.255371
3385.302734	7303.669922
3384.505859	7211.570313
3383.708008	7508.235352
3382.911133	7494.494141
3382.113281	7211.236328
3381.315430	7210.080078
3380.517578	7421.964844
3379.718750	7326.801270
3378.920898	7410.188965
3378.123047	7377.686523
3377.324219	7216.825195
3376.525391	7428.538086
3375.726563	7399.177734
3374.927734	7357.308594
3374.128906	7415.578613
3373.330078	7292.380859
3372.530273	7241.164551
3371.731445	7412.012207
3370.931641	7226.334961
3370.131836	7343.980469
3369.332031	7380.313965
3368.532227	7501.021973
3367.732422	7312.323730
3366.932617	7364.266602
3366.131836	7309.979004
3365.332031	7386.892090
3364.531250	7160.857422
3363.730469	7334.564941
3362.929688	7320.900879
3362.128906	7432.098145
3361.327148	7365.367188
3360.526367	7279.934570
3359.725586	7316.206055
3358.923828	7327.510742
3358.122070	7242.125000
3357.320313	7328.279297
3356.518555	7358.283203
3355.716797	7428.803711
3354.915039	7296.701660
3354.112305	7295.531738
3353.310547	7266.318359
3352.507813	7626.541504
3351.705078	7432.193848
3350.902344	7293.967285
3350.099609	7221.177246
3349.296875	7269.833984
3348.493164	7483.459473
3347.690430	7264.390137
3346.886719	7207.210449
3346.083008	7336.734375
3345.279297	7494.214844
3344.475586	7415.252441
3343.671875	7292.775879
3342.868164	7506.156738
3342.063477	7169.188477
3341.259766	7509.966309
3340.455078	7480.790039
3339.650391	7377.044922
3338.845703	7531.208496
3338.041016	7132.376953
3337.236328	7246.152832
3336.431641	7540.007324
3335.625977	7389.760742
3334.821289	7487.917480
3334.015625	7340.831055
3333.209961	7417.239746
3332.404297	7332.270508
3331.598633	7337.299316
3330.791992	7478.812500
3329.986328	7632.685547
3329.180664	7395.788574
3328.374023	7304.688965
3327.567383	7303.517090
3326.760742	7373.633301
3325.954102	7431.331055
3325.147461	7389.858887
3324.339844	7509.494629
3323.533203	7365.806152
3322.725586	7315.072754
3321.918945	7499.688477
3321.111328	7297.246094
3320.303711	7342.507813
3319.496094	7118.490234
3318.687500	7268.979004
3317.879883	7215.214844
3317.071289	7303.769043
3316.263672	7379.922852
3315.455078	7236.483398
3314.646484	7170.390137
3313.837891	7317.632813
3313.029297	7378.279297
3312.219727	7349.280762
3311.411133	7280.121094
3310.601563	7402.534668
3309.792969	7262.340332
3308.983398	7403.248535
3308.173828	7405.148926
3307.364258	7298.983887
3306.553711	7353.379883
3305.744141	7247.256836
3304.933594	7406.569824
3304.124023	7522.633301
3303.313477	7249.939453
3302.502930	7279.622070
3301.692383	7355.556641
3300.881836	7434.549805
3300.070313	7393.276855
3299.259766	7561.633789
3298.448242	7270.702148
3297.637695	7408.208496
3296.826172	7323.829590
3296.014648	7233.315918
3295.203125	7312.239258
3294.390625	7326.463867
3293.579102	7362.238281
3292.766602	7518.068359
3291.955078	7390.657227
3291.142578	7337.151367
3290.330078	7259.044922
3289.517578	7150.196289
3288.705078	7259.791504
3287.891602	7215.566895
3287.079102	7334.341797
3286.265625	7240.923828
3285.453125	7252.058594
3284.639648	7226.305176
3283.826172	7326.562012
3283.012695	7454.440918
3282.198242	7364.149902
3281.384766	7203.237793
3280.570313	7352.572754
3279.756836	7271.553223
3278.942383	7267.316406
3278.127930	7278.429199
3277.313477	7209.736816
3276.499023	7245.405273
3275.683594	7124.579102
3274.869141	7335.114258
3274.053711	7287.927246
3273.238281	7194.752930
3272.423828	7478.766602
3271.608398	7330.406738
3270.791992	7280.184570
3269.976563	7202.395020
3269.161133	7421.873047
3268.344727	7325.701660
3267.528320	7211.181152
3266.712891	7384.608398
3265.896484	7502.856445
3265.080078	7219.957520
3264.262695	7240.228516
3263.446289	7483.939453
3262.629883	7393.986328
3261.812500	7209.203613
3260.995117	7440.563965
3260.177734	7310.893555
3259.360352	7377.006348
3258.542969	7446.155762
3257.725586	7432.730469
3256.907227	7486.563477
3256.089844	7412.005859
3255.271484	7309.967773
3254.453125	7168.240723
3253.634766	7316.786133
3252.816406	7294.229980
3251.998047	7409.112793
3251.179688	7450.673340
3250.360352	7247.975098
3249.541992	7445.229004
3248.722656	7386.044434
3247.903320	7412.322754
3247.083984	7237.220215
3246.264648	7144.540039
3245.444336	7161.693848
3244.625000	7346.571777
3243.804688	7400.276855
3242.985352	7380.796875
3242.165039	7336.937988
3241.344727	7445.476563
3240.524414	7298.016113
3239.703125	7351.685059
3238.882813	7414.475098
3238.061523	7422.421875
3237.241211	7342.054199
3236.419922	7371.323242
3235.598633	7443.201660
3234.777344	7527.231934
3233.956055	7361.686523
3233.134766	7366.590332
3232.312500	7353.238281
3231.490234	7412.894043
3230.668945	7448.199707
3229.846680	7428.758789
3229.024414	7327.234863
3228.202148	7253.101563
3227.378906	7373.511719
3226.556641	7393.600098
3225.733398	7532.179199
3224.911133	7330.467773
3224.087891	7344.478027
3223.264648	7437.443359
3222.441406	7457.504395
3221.618164	7322.724609
3220.793945	7597.776367
3219.970703	7368.933105
3219.146484	7461.818848
3218.322266	7293.750488
3217.498047	7383.584961
3216.673828	7415.762695
3215.849609	7414.571777
3215.025391	7443.701660
3214.201172	7506.168945
3213.375977	7592.865234
3212.550781	7488.605469
3211.725586	7320.747070
3210.900391	7374.104492
3210.075195	7539.522949
3209.250000	7350.535645
3208.424805	7515.904297
3207.598633	7593.416992
3206.772461	7552.843750
3205.947266	7400.295410
3205.121094	7453.579102
3204.294922	7458.433105
3203.467773	7345.301270
3202.641602	7380.418457
3201.815430	7397.378906
3200.988281	7462.714355
3200.161133	7543.145020
3199.333984	7460.317383
3198.506836	7519.565430
3197.679688	7436.768066
3196.852539	7650.090332
3196.024414	7630.736328
3195.197266	7705.020508
3194.369141	7643.384766
3193.541016	7424.758301
3192.712891	7653.004883
3191.884766	7615.554199
3191.056641	7578.115234
3190.227539	7640.265137
3189.399414	7539.477051
3188.570313	7791.653320
3187.741211	7573.247559
3186.913086	7740.901367
3186.083008	7543.679199
3185.253906	7705.254395
3184.424805	7520.156738
3183.594727	7546.071289
3182.765625	7605.121582
3181.935547	7643.063965
3181.105469	7421.948730
3180.275391	7589.410156
3179.445313	7678.526367
3178.615234	7641.164551
3177.784180	7817.539551
3176.954102	7662.787109
3176.123047	7610.398926
3175.291992	7506.877930
3174.460938	7797.475586
3173.629883	7537.551758
3172.798828	7560.399414
3171.966797	7724.560547
3171.135742	7756.389160
3170.303711	7376.403809
3169.471680	7624.665527
3168.639648	7872.847168
3167.807617	7634.232910
3166.975586	7657.038086
3166.143555	7646.797363
3165.310547	7579.503418
3164.478516	7590.295410
3163.645508	7655.119629
3162.812500	7620.873047
3161.979492	7604.643066
3161.146484	7690.437500
3160.312500	7674.201172
3159.479492	7663.969238
3158.645508	7656.739258
3157.812500	7682.496582
3156.978516	7627.295410
3156.144531	7742.979004
3155.310547	7777.700684
3154.475586	7491.763672
3153.641602	7484.567383
3152.807617	7474.377441
3151.972656	7613.953125
3151.137695	7516.896973
3150.302734	7578.568848
3149.467773	7724.047852
3148.632813	7519.259766
3147.796875	7649.736816
3146.961914	7606.614258
3146.125977	7587.440430
3145.290039	7601.177734
3144.455078	7638.838379
3143.618164	7649.572266
3142.782227	7747.011719
3141.946289	7638.145020
3141.109375	7660.829590
3140.273438	7617.758789
3139.436523	7733.067871
3138.599609	7486.844238
3137.762695	7587.202148
3136.925781	7585.982422
3136.088867	7707.194336
3135.250977	7717.897949
3134.414063	7630.087402
3133.576172	7596.029297
3132.738281	7752.971191
3131.900391	7742.773926
3131.062500	7580.433594
3130.224609	7731.336426
3129.385742	7595.890625
3128.547852	7702.014648
3127.708984	7697.794922
3126.870117	7595.208496
3126.031250	7588.026855
3125.192383	7554.027832
3124.353516	7657.092773
3123.514648	7706.503906
3122.674805	7526.557617
3121.835938	7590.862793
3120.996094	7687.899902
3120.156250	7597.353516
3119.316406	7646.732910
3118.476563	7651.455566
3117.635742	7584.762695
3116.795898	7527.016113
3115.955078	7570.425293
3115.114258	7578.130371
3114.274414	7686.937500
3113.433594	7754.084961
3112.591797	7630.957031
3111.750977	7543.535156
3110.910156	7652.277344
3110.068359	7763.955566
3109.226563	7444.831055
3108.384766	7547.595215
3107.542969	7558.260742
3106.701172	7533.290527
3105.859375	7594.425781
3105.017578	7759.435547
3104.174805	7722.572754
3103.332031	7475.031738
3102.490234	7684.485352
3101.647461	7763.345215
3100.803711	7477.357910
3099.960938	7609.604980
3099.118164	7795.181152
3098.274414	7740.564453
3097.431641	7715.606445
3096.587891	7844.766113
3095.744141	7624.229980
3094.900391	7623.003906
3094.056641	7701.757324
3093.211914	7795.294434
3092.368164	7536.410645
3091.523438	7709.884766
3090.678711	7841.858887
3089.833984	7728.123535
3088.989258	7552.278809
3088.144531	7799.609863
3087.299805	7691.852539
3086.454102	7672.867676
3085.609375	7760.356934
3084.763672	7673.356445
3083.917969	7793.338867
3083.072266	7688.624023
3082.226563	7492.320801
3081.380859	7656.600098
3080.534180	7746.960938
3079.688477	7565.512695
3078.841797	7776.958496
3077.995117	7607.376465
3077.148438	7677.017578
3076.301758	7841.106934
3075.455078	7875.266602
3074.607422	7587.725586
3073.760742	7728.143555
3072.913086	7499.725098
3072.065430	7790.553711
3071.217773	7886.629395
3070.370117	7661.244141
3069.522461	7695.392578
3068.673828	7953.574219
3067.826172	7651.651855
3066.977539	7673.996582
3066.128906	7584.366211
3065.280273	7807.045898
3064.431641	7599.599121
3063.583008	7766.247070
3062.734375	7756.163574
3061.884766	7537.047852
3061.035156	7685.962891
3060.186523	7664.123535
3059.336914	7674.661133
3058.487305	7855.846680
3057.636719	7751.619629
3056.787109	7656.250000
3055.937500	7546.206543
3055.086914	7759.639648
3054.236328	7708.412598
3053.385742	7442.623535
3052.535156	7720.626465
3051.684570	7666.491211
3050.833984	7486.039063
3049.982422	7849.087891
3049.130859	7777.335449
3048.280273	7823.068848
3047.428711	7842.362793
3046.577148	7700.189453
3045.725586	7613.830566
3044.873047	7794.556152
3044.021484	7693.538086
3043.168945	7695.233398
3042.316406	7861.191406
3041.464844	7780.740234
3040.612305	7618.209473
3039.758789	7769.439941
3038.906250	7642.139648
3038.053711	7834.350098
3037.200195	7780.340820
3036.346680	7805.458496
3035.493164	7774.906738
3034.639648	7668.209961
3033.786133	7871.974609
3032.932617	7642.316406
3032.079102	7638.158691
3031.224609	7768.650391
3030.370117	7574.239258
3029.515625	7602.281738
3028.661133	7624.463867
3027.806641	7722.695313
3026.952148	7405.574219
3026.097656	7693.889648
3025.242188	7736.508789
3024.386719	7963.286621
3023.532227	7821.705078
3022.676758	7592.495117
3021.820313	7614.648438
3020.964844	7809.163086
3020.109375	7831.273438
3019.252930	7800.807129
3018.397461	7636.026367
3017.541016	7722.385254
3016.684570	7948.834961
3015.828125	7772.434570
3014.970703	7742.000488
3014.114258	7848.709961
3013.256836	7643.237793
3012.400391	7735.344238
3011.542969	7553.286133
3010.685547	7648.292969
3009.828125	7819.069336
3008.970703	7881.938477
3008.112305	7615.454102
3007.254883	7783.238281
3006.396484	7878.130859
3005.538086	7737.036133
3004.679688	7846.467285
3003.821289	7845.203613
3002.962891	7724.562988
3002.104492	7627.250488
3001.245117	7730.807129
3000.385742	7857.611816
2999.527344	7844.707520
2998.667969	7793.985840
2997.808594	7586.204102
2996.948242	7721.674805
2996.088867	7714.615234
2995.229492	7727.909668
2994.369141	7694.687988
2993.508789	7774.830078
2992.648438	7828.791992
2991.788086	7836.247070
2990.927734	7739.117676
2990.067383	7871.482422
2989.206055	7783.090332
2988.344727	7741.185059
2987.484375	7716.712402
2986.623047	7834.481445
2985.761719	7780.978027
2984.899414	7823.251465
2984.038086	7827.793945
2983.176758	7794.623047
2982.314453	7831.072266
2981.452148	7853.010254
2980.589844	7729.967285
2979.727539	7612.762207
2978.865234	7814.432617
2978.002930	7761.008301
2977.139648	7933.613281
2976.276367	7660.004883
2975.414063	7884.710449
2974.550781	7700.979492
2973.687500	7702.634277
2972.824219	7898.270508
2971.959961	7925.945801
2971.096680	7730.748535
2970.232422	7801.849609
2969.368164	7777.444824
2968.503906	7779.084473
2967.639648	7824.110352
2966.775391	7718.737305
2965.911133	7830.263184
2965.045898	7990.900879
2964.181641	7795.942871
2963.316406	7970.984375
2962.451172	7946.582520
2961.585938	8043.534668
2960.720703	7915.133789
2959.854492	8020.723633
2958.989258	7901.031250
2958.123047	8052.786621
2957.256836	7710.837402
2956.391602	7729.799316
2955.524414	7921.911621
2954.658203	7718.651367
2953.791992	7685.671875
2952.924805	7869.043945
2952.058594	7902.384277
2951.191406	7906.877930
2950.324219	8156.437500
2949.457031	7976.395996
2948.589844	7802.176758
2947.722656	7743.283691
2946.854492	7802.542480
2945.986328	7769.595703
2945.119141	7906.600586
2944.250977	7769.970215
2943.382813	7918.448242
2942.513672	7966.114258
2941.645508	7852.567871
2940.777344	7923.252930
2939.908203	7913.342773
2939.039063	7981.117676
2938.169922	8008.597168
2937.300781	8007.305664
2936.431641	8112.416504
2935.562500	7912.715332
2934.692383	7977.560059
2933.822266	7855.551270
2932.953125	7995.104492
2932.083008	7936.346680
2931.212891	7955.177734
2930.341797	7953.895020
2929.471680	8024.412598
2928.601563	7891.026855
2927.730469	8039.051270
2926.859375	8126.744141
2925.988281	7918.781738
2925.117188	8218.823242
2924.246094	7950.658203
2923.375000	8001.014160
2922.502930	8100.114746
2921.630859	8007.037109
2920.759766	7991.408691
2919.887695	8162.135254
2919.015625	8037.560547
2918.142578	8013.336426
2917.270508	8098.009766
2916.397461	8102.433594
2915.525391	7937.843750
2914.652344	8039.672852
2913.779297	8072.740234
2912.906250	8074.301270
2912.033203	8101.626465
2911.159180	7968.653320
2910.286133	8233.519531
2909.412109	8100.567383
2908.538086	8099.260742
2907.664063	8075.070313
2906.790039	8033.727539
2905.916016	8018.133789
2905.041992	8031.135742
2904.166992	8041.274414
2903.291992	8168.593750
2902.417969	8035.822266
2901.542969	8023.096680
2900.666992	8130.359375
2899.791992	8071.921387
2898.916992	8184.852539
2898.041016	8154.978027
2897.165039	8085.144043
2896.290039	8115.238281
2895.414063	7988.353027
2894.538086	8129.740723
2893.661133	7991.480957
2892.785156	8055.801758
2891.908203	8057.354004
2891.032227	7999.019531
2890.155273	8080.414551
2889.278320	8101.916992
2888.401367	7926.739746
2887.523438	7891.262207
2886.646484	8095.145508
2885.768555	8073.896484
2884.891602	8024.168945
2884.013672	8045.658203
2883.135742	8181.042480
2882.256836	8344.854492
2881.378906	7953.517090
2880.500977	8097.388672
2879.622070	8110.310547
2878.743164	8009.416992
2877.865234	8028.037598
2876.985352	8001.142578
2876.106445	7994.163574
2875.227539	8024.150879
2874.348633	8008.640625
2873.468750	8047.142578
2872.588867	8142.473633
2871.708984	8016.128906
2870.829102	8000.628906
2869.949219	8098.761230
2869.069336	7918.520020
2868.188477	7956.998047
2867.308594	8097.678711
2866.427734	7974.300781
2865.546875	8004.235840
2864.666016	8042.674316
2863.785156	7910.852539
2862.903320	8051.425293
2862.022461	8109.692871
2861.140625	8114.055664
2860.258789	7919.922363
2859.376953	8051.896484
2858.495117	8095.952148
2857.613281	8315.716797
2856.731445	7920.475586
2855.848633	8191.197754
2854.965820	8121.885742
2854.083984	8188.552246
2853.201172	8003.151855
2852.318359	8194.402344
2851.434570	8159.105957
2850.551758	7996.444336
2849.667969	8060.246094
2848.785156	8155.153809
2847.901367	8001.058105
2847.017578	8093.115234
2846.133789	8100.292969
2845.249023	8203.615234
2844.365234	8012.854492
2843.480469	8079.407227
2842.596680	8061.143066
2841.711914	7873.322754
2840.827148	8129.178223
2839.942383	8020.510742
2839.056641	8109.604492
2838.171875	7972.732422
2837.286133	8010.977051
2836.401367	8023.799316
2835.515625	8124.125488
2834.629883	8026.852051
2833.743164	8144.076172
2832.857422	8148.403320
2831.971680	8113.234375
2831.084961	8165.514160
2830.198242	8104.973145
2829.311523	7940.124023
2828.424805	8110.811523
2827.538086	8008.026855
2826.651367	7944.730469
2825.763672	8008.256836
2824.876953	8099.936035
2823.989258	8149.331543
2823.101563	8224.059570
2822.213867	8155.146484
2821.325195	8007.419922
2820.437500	8245.409180
2819.549805	8021.720215
2818.661133	8116.105957
2817.772461	8111.980469
2816.883789	8186.627930
2815.995117	8148.738281
2815.106445	8088.361816
2814.216797	8258.581055
2813.328125	8099.804688
2812.438477	8247.478516
2811.548828	8229.282227
2810.659180	8261.673828
2809.769531	8285.625000
2808.879883	8250.575195
2807.989258	8198.684570
2807.099609	8329.348633
2806.208984	8181.995605
2805.318359	8102.066406
2804.427734	8198.999023
2803.537109	8447.448242
2802.646484	8252.468750
2801.754883	8338.106445
2800.863281	8246.995117
2799.972656	8133.476563
2799.081055	8331.258789
2798.189453	8259.819336
2797.296875	8404.254883
2796.405273	8268.359375
2795.513672	8317.465820
2794.621094	8248.875000
2793.728516	8292.364258
2792.835938	8335.839844
2791.943359	8236.472656
2791.050781	8246.340820
2790.157227	8418.586914
2789.264648	8397.630859
2788.371094	8357.090820
2787.477539	8364.133789
2786.583984	8340.398438
2785.690430	8308.278320
2784.796875	8200.651367
2783.903320	8246.865234
2783.008789	8458.031250
2782.114258	8462.254883
2781.219727	8326.718750
2780.325195	8532.179688
2779.430664	8474.915039
2778.536133	8333.854492
2777.640625	8466.586914
2776.746094	8398.188477
2775.850586	8366.113281
2774.955078	8417.807617
2774.059570	8145.668457
2773.164063	8364.845703
2772.267578	8360.702148
2771.372070	8487.697266
2770.475586	8357.997070
2769.579102	8501.687500
2768.683594	8466.846680
2767.786133	8532.397461
2766.889648	8391.621094
2765.993164	8515.699219
2765.095703	8519.896484
2764.199219	8404.268555
2763.301758	8558.931641
2762.404297	8465.620117
2761.506836	8439.183594
2760.608398	8387.692383
2759.710938	8486.570313
2758.812500	8490.764648
2757.914063	8433.722656
2757.016602	8465.753906
2756.118164	8522.816406
2755.218750	8529.783203
2754.320313	8355.943359
2753.421875	8613.239258
2752.522461	8400.511719
2751.623047	8585.429688
2750.723633	8292.160156
2749.824219	8468.697266
2748.924805	8559.030273
2748.025391	8413.166016
2747.125000	8392.358398
2746.224609	8446.550781
2745.325195	8439.629883
2744.424805	8402.166992
2743.523438	8439.674805
2742.623047	8377.242188
2741.722656	8500.774414
2740.821289	8457.776367
2739.919922	8475.828125
2739.019531	8518.839844
2738.118164	8392.652344
2737.215820	8294.236328
2736.314453	8647.789063
2735.413086	8516.096680
2734.510742	8550.750977
2733.608398	8585.392578
2732.706055	8378.962891
2731.803711	8574.302734
2730.901367	8542.445313
2729.999023	8524.445313
2729.095703	8492.605469
2728.193359	8366.644531
2727.290039	8509.233398
2726.386719	8488.481445
2725.483398	8478.805664
2724.579102	8535.535156
2723.675781	8589.479492
2722.771484	8466.389648
2721.868164	8481.611328
2720.963867	8322.633789
2720.059570	8520.333008
2719.155273	8507.897461
2718.250000	8445.718750
2717.345703	8527.247070
2716.440430	8357.337891
2715.536133	8361.509766
2714.630859	8594.914063
2713.725586	8648.750000
2712.819336	8459.603516
2711.914063	8372.657227
2711.007813	8520.344727
2710.102539	8408.580078
2709.196289	8354.793945
2708.290039	8524.481445
2707.383789	8545.166992
2706.477539	8689.949219
2705.570313	8710.600586
2704.664063	8342.515625
2703.756836	8644.378906
2702.849609	8483.127930
2701.942383	8545.132813
2701.035156	8532.727539
2700.127930	8517.571289
2699.219727	8513.437500
2698.312500	8456.981445
2697.404297	8477.638672
2696.496094	8616.665039
2695.587891	8395.070313
2694.679688	8366.189453
2693.770508	8480.400391
2692.862305	8583.570313
2691.953125	8529.916016
2691.043945	8484.530273
2690.134766	8474.905273
2689.225586	8473.532227
2688.316406	8351.207031
2687.406250	8748.381836
2686.497070	8513.381836
2685.586914	8701.585938
2684.676758	8576.554688
2683.766602	8599.884766
2682.856445	8612.222656
2681.946289	8739.878906
2681.035156	8562.759766
2680.124023	8558.626953
2679.213867	8463.928711
2678.302734	8495.484375
2677.391602	8702.619141
2676.479492	8575.025391
2675.568359	8461.184570
2674.657227	8610.636719
2673.745117	8518.761719
2672.833008	8679.121094
2671.920898	8576.299805
2671.008789	8563.948242
2670.096680	8707.781250
2669.183594	8577.609375
2668.270508	8570.740234
2667.358398	8577.567383
2666.445313	8609.035156
2665.532227	8848.565430
2664.619141	8589.820313
2663.705078	8692.429688
2662.791992	8715.648438
2661.877930	8550.074219
2660.963867	8597.928711
2660.049805	8522.685547
2659.135742	8633.425781
2658.221680	8552.732422
2657.306641	8641.561523
2656.392578	8724.894531
2655.477539	8463.852539
2654.562500	8623.696289
2653.647461	8630.493164
2652.732422	8686.457031
2651.817383	8630.425781
2650.901367	8585.334961
2649.986328	8545.718750
2649.070313	8560.711914
2648.154297	8638.475586
2647.238281	8746.231445
2646.321289	8742.083984
2645.405273	8871.612305
2644.489258	8654.693359
2643.572266	8645.107422
2642.655273	8608.257813
2641.738281	8685.923828
2640.821289	8733.580078
2639.903320	8683.105469
2638.986328	8834.294922
2638.068359	8791.994141
2637.151367	8689.777344
2636.233398	8448.688477
2635.315430	8774.099609
2634.396484	8753.617188
2633.478516	8583.414063
2632.559570	8538.471680
2631.641602	8662.271484
2630.722656	8758.821289
2629.803711	8741.077148
2628.884766	8584.613281
2627.965820	8934.055664
2627.045898	8712.349609
2626.125977	8661.998047
2625.207031	8831.847656
2624.287109	8841.285156
2623.367188	8807.241211
2622.447266	8805.812500
2621.526367	8875.013672
2620.606445	8990.367188
2619.685547	8896.574219
2618.764648	8724.070313
2617.843750	8774.235352
2616.922852	8810.812500
2616.001953	8771.387695
2615.080078	8805.239258
2614.159180	8950.314453
2613.237305	8962.424805
2612.315430	8811.800781
2611.393555	8604.280273
2610.471680	8659.820313
2609.548828	8709.920898
2608.626953	8708.506836
2607.704102	8777.551758
2606.781250	8873.668945
2605.858398	8801.792969
2604.935547	8648.679688
2604.012695	8828.725586
2603.089844	8840.831055
2602.166016	8850.224609
2601.242188	8643.064453
2600.318359	8904.186523
2599.394531	8645.669922
2598.470703	8787.661133
2597.546875	8705.081055
2596.622070	8806.445313
2595.698242	8832.057617
2594.773438	8941.479492
2593.848633	8731.868164
2592.923828	8992.633789
2591.998047	8910.098633
2591.073242	8776.251953
2590.147461	8674.867188
2589.222656	8832.827148
2588.296875	8790.881836
2587.371094	8951.471680
2586.445313	8879.821289
2585.518555	9051.141602
2584.592773	8785.171875
2583.666016	8813.428711
2582.739258	8763.431641
2581.812500	8929.262695
2580.885742	8884.657227
2579.958984	8805.006836
2579.031250	8865.592773
2578.104492	8707.789063
2577.176758	9083.741211
2576.249023	9025.669922
2575.321289	8946.059570
2574.393555	8844.922852
2573.465820	8986.252930
2572.537109	8882.448242
2571.608398	8875.619141
2570.680664	8984.566406
2569.751953	8843.124023
2568.823242	9161.979492
2567.893555	8829.485352
2566.964844	8830.741211
2566.035156	9057.975586
2565.105469	9069.952148
2564.176758	8960.905273
2563.246094	9056.249023
2562.316406	8955.303711
2561.386719	8926.968750
2560.456055	8890.579102
2559.526367	9023.492188
2558.595703	8874.255859
2557.665039	9176.364258
2556.734375	8943.889648
2555.802734	8826.962891
2554.872070	8967.832031
2553.940430	8789.194336
2553.009766	8739.452148
2552.078125	9043.969727
2551.146484	9238.375977
2550.213867	8963.228516
2549.282227	9251.466797
2548.349609	8920.085938
2547.417969	8923.998047
2546.485352	9019.065430
2545.552734	9156.991211
2544.620117	9042.935547
2543.686523	8936.955078
2542.753906	9131.091797
2541.820313	8971.552734
2540.887695	8948.666992
2539.954102	8965.958008
2539.020508	8956.467773
2538.085938	8925.562500
2537.152344	8945.524414
2536.217773	9040.416016
2535.284180	9025.566406
2534.349609	9115.061523
2533.415039	9185.803711
2532.480469	8935.579102
2531.544922	9153.401367
2530.610352	9026.250977
2529.674805	8973.991211
2528.739258	9042.024414
2527.803711	9110.035156
2526.868164	8905.487305
2525.932617	9117.757813
2524.997070	9012.103516
2524.060547	8999.955078
2523.124023	9254.828125
2522.187500	9055.761719
2521.250977	9072.973633
2520.314453	9199.603516
2519.377930	9043.337891
2518.440430	9105.898438
2517.503906	9192.447266
2516.566406	9076.264648
2515.628906	9253.457031
2514.691406	9179.962891
2513.752930	9154.476563
2512.815430	9147.656250
2511.876953	8999.594727
2510.938477	9171.325195
2510.000000	9212.458008
2509.061523	9258.905273
2508.123047	9302.673828
2507.184570	9301.160156
2506.245117	9001.460938
2505.306641	9274.175781
2504.367188	9043.777344
2503.427734	8879.980469
2502.487305	9157.901367
2501.547852	9081.925781
2500.608398	9237.374023
2499.667969	9177.365234
2498.727539	9167.894531
2497.787109	9153.110352
2496.846680	9212.754883
2495.906250	9102.293945
2494.964844	9204.441406
2494.024414	9279.989258
2493.083008	9249.258789
2492.141602	8995.445313
2491.200195	9108.165039
2490.258789	9111.992188
2489.317383	9251.201172
2488.375000	9172.724609
2487.432617	9134.080078
2486.490234	9347.507813
2485.547852	9218.649414
2484.605469	9363.031250
2483.663086	9186.475586
2482.720703	9145.207031
2481.777344	9260.367188
2480.833984	8961.982422
2479.890625	9206.997070
2478.947266	9197.547852
2478.003906	9137.763672
2477.059570	9030.317383
2476.116211	9185.109375
2475.171875	9167.725586
2474.227539	9118.574219
2473.283203	9267.981445
2472.338867	9097.076172
2471.394531	9328.475586
2470.449219	8869.208008
2469.503906	9074.113281
2468.559570	9326.563477
2467.614258	9108.182617
2466.667969	9170.161133
2465.722656	9255.912109
2464.777344	9225.327148
2463.831055	9207.966797
2462.884766	9092.839844
2461.938477	9120.420898
2460.992188	9079.310547
2460.045898	9186.121094
2459.099609	9181.983398
2458.152344	8995.663086
2457.205078	9070.754883
2456.257813	9169.578125
2455.310547	9376.569336
2454.363281	9211.446289
2453.416016	9112.332031
2452.467773	9118.760742
2451.520508	9159.471680
2450.572266	9134.247070
2449.624023	9306.766602
2448.675781	9112.818359
2447.726563	9121.875977
2446.778320	9065.049805
2445.829102	9195.310547
2444.879883	9162.200195
2443.930664	9194.947266
2442.981445	9161.846680
2442.032227	9010.270508
2441.083008	9137.799805
2440.132813	9044.183594
2439.182617	9176.928711
2438.232422	9285.949219
2437.282227	9171.306641
2436.332031	9353.944336
2435.381836	8952.653320
2434.430664	9158.933594
2433.480469	9107.485352
2432.529297	9106.000977
2431.578125	9070.347656
2430.626953	9013.683594
2429.674805	9056.880859
2428.723633	9081.674805
2427.771484	9085.447266
2426.819336	9094.470703
2425.867188	9142.876953
2424.915039	9038.998047
2423.962891	9213.392578
2423.010742	9232.885742
2422.057617	8989.967773
2421.104492	8747.129883
2420.151367	9189.021484
2419.198242	9048.516602
2418.245117	9052.285156
2417.291992	8827.947266
2416.337891	9025.740234
2415.383789	9176.288086
2414.430664	9109.276367
2413.475586	9044.906250
2412.521484	9009.373047
2411.567383	9010.523438
2410.612305	9074.526367
2409.658203	8944.740234
2408.703125	9150.107422
2407.748047	9041.291992
2406.792969	9011.027344
2405.837891	8839.467773
2404.881836	8976.691406
2403.925781	8888.901367
2402.970703	9141.154297
2402.013672	8990.604492
2401.058594	8983.908203
2400.101563	9026.883789
2399.144531	9030.638672
2398.189453	8741.695313
2397.232422	8946.690430
2396.275391	8885.142578
2395.318359	9079.598633
2394.361328	8989.321289
2393.404297	9058.357422
2392.445313	8895.008789
2391.488281	8987.531250
2390.529297	8975.624023
2389.572266	9088.978516
2388.613281	8834.412109
2387.656250	8960.795898
2386.697266	8797.621094
2385.738281	8947.439453
2384.779297	9042.452148
2383.820313	8910.627930
2382.861328	8956.090820
2381.902344	8879.051758
2380.943359	8906.264648
2379.982422	9029.863281
2379.023438	9059.647461
2378.064453	8842.001953
2377.103516	8598.386719
2376.142578	9003.139648
2375.183594	8913.163086
2374.222656	8942.940430
2373.261719	8920.661133
2372.300781	8768.296875
2371.339844	8688.821289
2370.378906	9022.933594
2369.417969	8790.007813
2368.455078	8835.375000
2367.494141	8844.331055
2366.533203	8897.472656
2365.570313	8994.777344
2364.609375	8707.476563
2363.646484	8895.711914
2362.683594	8925.430664
2361.720703	8908.389648
2360.757813	8774.499023
2359.794922	8728.927734
2358.832031	8844.319336
2357.869141	8946.694336
2356.906250	8592.302734
2355.943359	8889.284180
2354.978516	8667.322266
2354.015625	8785.221680
2353.050781	8817.500000
2352.085938	8714.934570
2351.123047	8824.989258
2350.158203	8735.416016
2349.193359	8811.739258
2348.228516	8719.605469
2347.263672	8751.861328
2346.298828	8830.734375
2345.333984	8681.662109
2344.367188	8680.243164
2343.402344	8766.855469
2342.437500	8695.527344
2341.470703	8828.698242
2340.503906	8785.849609
2339.539063	8748.189453
2338.572266	8648.452148
2337.605469	8709.117188
2336.638672	8715.452148
2335.671875	8615.768555
2334.705078	8774.652344
2333.738281	8739.613281
2332.771484	8758.861328
2331.802734	8871.128906
2330.835938	9143.545898
2329.867188	9299.627930
2328.900391	9249.034180
2327.931641	9146.809570
2326.962891	8871.625977
2325.994141	8790.147461
2325.027344	8850.657227
2324.058594	8753.724609
2323.089844	8646.501953
2322.119141	8670.886719
2321.150391	8659.151367
2320.181641	8536.522461
2319.210938	8597.012695
2318.242188	8567.247070
2317.271484	8622.556641
2316.302734	8680.424805
2315.332031	8699.620117
2314.361328	8785.797852
2313.390625	8616.916992
2312.419922	8697.928711
2311.449219	8541.993164
2310.478516	8744.004883
2309.507813	8675.640625
2308.537109	8566.116211
2307.564453	8662.508789
2306.593750	8689.396484
2305.621094	8497.595703
2304.650391	8748.288086
2303.677734	8687.705078
2302.705078	8531.998047
2301.732422	8628.299805
2300.759766	8662.876953
2299.787109	8658.889648
2298.814453	8636.915039
2297.841797	8766.537109
2296.869141	8605.831055
2295.896484	8779.080078
2294.921875	8664.648438
2293.949219	8737.692383
2292.974609	8631.006836
2292.000000	8716.865234
2291.027344	8784.731445
2290.052734	8672.957031
2289.078125	8674.103516
2288.103516	8490.560547
2287.128906	8696.912109
2286.154297	8692.923828
2285.177734	8560.744141
2284.203125	8584.977539
2283.228516	8721.975586
2282.251953	8730.798828
2281.277344	8703.748047
2280.300781	8604.975586
2279.324219	8665.040039
2278.347656	8527.891602
2277.371094	8521.375000
2276.394531	8732.467773
2275.417969	8638.889648
2274.441406	8796.149414
2273.464844	8661.649414
2272.488281	8642.322266
2271.509766	8722.763672
2270.533203	8493.710938
2269.554688	8696.892578
2268.578125	8833.533203
2267.599609	8798.854492
2266.621094	8638.947266
2265.642578	8785.750977
2264.664063	8735.765625
2263.685547	8563.173828
2262.707031	8743.122070
2261.728516	8854.057617
2260.750000	8676.423828
2259.769531	8687.767578
2258.791016	8765.473633
2257.810547	8610.910156
2256.832031	8619.706055
2255.851563	8557.063477
2254.871094	8509.745117
2253.890625	8827.160156
2252.910156	8647.210938
2251.929688	8701.885742
2250.949219	8774.387695
2249.968750	8714.328125
2248.988281	8623.707031
2248.005859	8708.924805
2247.025391	8684.570313
2246.042969	8820.691406
2245.062500	8610.416992
2244.080078	8634.468750
2243.097656	8683.971680
2242.115234	8626.547852
2241.132813	8721.845703
2240.150391	8669.524414
2239.167969	8752.062500
2238.185547	8788.785156
2237.203125	8652.545898
2236.218750	8785.904297
2235.236328	8591.231445
2234.253906	8706.761719
2233.269531	8748.542969
2232.285156	8731.861328
2231.300781	8715.185547
2230.318359	8744.242188
2229.333984	8641.207031
2228.349609	8611.854492
2227.365234	8567.276367
2226.378906	8553.178711
2225.394531	8721.846680
2224.410156	8758.486328
2223.423828	8554.047852
2222.439453	8806.357422
2221.453125	8746.569336
2220.468750	8608.175781
2219.482422	8644.802734
2218.496094	8615.495117
2217.509766	8781.394531
2216.523438	8759.677734
2215.537109	8530.162109
2214.550781	8521.162109
2213.564453	8795.903320
2212.576172	8758.999023
2211.589844	8668.923828
2210.601563	8900.458008
2209.615234	8716.714844
2208.626953	8636.814453
2207.638672	8587.311523
2206.650391	8649.165039
2205.664063	8617.384766
2204.675781	8841.110352
2203.685547	8617.087891
2202.697266	8683.952148
2201.708984	8743.208984
2200.720703	8731.663086
2199.730469	8669.568359
2198.742188	8743.960938
2197.751953	8570.708008
2196.763672	8736.039063
2195.773438	8691.666016
2194.783203	8672.561523
2193.792969	8751.940430
2192.802734	8795.948242
2191.812500	8728.875000
2190.822266	8707.251953
2189.832031	8789.095703
2188.839844	8626.180664
2187.849609	8750.895508
2186.857422	8721.714844
2185.867188	8599.238281
2184.875000	8822.227539
2183.882813	8823.300781
2182.892578	8635.333984
2181.900391	8961.531250
2180.908203	8924.784180
2179.916016	8852.779297
2178.921875	8710.269531
2177.929688	8693.728516
2176.937500	8626.832031
2175.943359	8698.427734
2174.951172	8744.826172
2173.957031	8647.751953
2172.964844	8913.070313
2171.970703	8861.287109
2170.976563	8794.427734
2169.982422	8790.468750
2168.988281	8786.510742
2167.994141	8754.895508
2167.000000	8889.209961
2166.005859	8845.020508
2165.009766	8848.593750
2164.015625	8877.292969
2163.019531	8905.982422
2162.025391	8703.571289
2161.029297	9018.583984
2160.033203	8974.415039
2159.039063	8907.665039
2158.042969	8810.814453
2157.046875	8985.052734
2156.050781	9111.554688
2155.052734	8914.358398
2154.056641	9023.270508
2153.060547	8946.543945
2152.062500	8909.966797
2151.066406	8768.092773
2150.068359	9012.329102
2149.072266	8955.706055
2148.074219	8914.136719
2147.076172	9025.427734
2146.078125	8788.450195
2145.080078	8827.083984
2144.082031	8900.766602
2143.083984	8921.839844
2142.085938	8882.820313
2141.085938	8838.805664
2140.087891	9027.565430
2139.087891	9048.603516
2138.089844	8766.895508
2137.089844	8797.975586
2136.089844	9101.668945
2135.089844	8982.638672
2134.089844	9066.172852
2133.089844	9029.684570
2132.089844	9080.689453
2131.089844	8969.237305
2130.089844	8900.297852
2129.089844	9041.236328
2128.087891	9069.724609
2127.087891	9018.284180
2126.085938	8911.926758
2125.083984	8967.883789
2124.082031	8913.988281
2123.082031	8934.985352
2122.080078	8983.423828
2121.078125	9019.372070
2120.076172	8985.458984
2119.072266	8996.453125
2118.070313	8975.023438
2117.068359	9242.829102
2116.064453	9014.452148
2115.062500	9160.028320
2114.058594	9058.836914
2113.054688	9079.772461
2112.052734	8821.675781
2111.048828	8979.641602
2110.044922	8958.241211
2109.041016	8926.886719
2108.037109	8967.742188
2107.031250	8836.827148
2106.027344	9022.036133
2105.023438	8948.387695
2104.017578	8894.666992
2103.013672	8980.270508
2102.007813	8938.997070
2101.001953	9017.104492
2099.998047	8908.706055
2098.992188	9135.950195
2097.986328	9069.822266
2096.980469	9140.399414
2095.972656	9081.746094
2094.966797	9033.049805
2093.960938	8996.788086
2092.955078	8987.857422
2091.947266	9055.905273
2090.939453	9071.793945
2089.933594	8886.611328
2088.925781	8907.485352
2087.917969	8955.648438
2086.910156	9214.687500
2085.902344	9203.248047
2084.894531	9216.614258
2083.886719	8972.073242
2082.878906	8764.802734
2081.871094	9162.483398
2080.861328	8952.771484
2079.853516	9095.033203
2078.843750	9081.147461
2077.833984	9027.626953
2076.826172	9045.957031
2075.816406	8955.310547
2074.806641	9057.834961
2073.796875	9051.392578
2072.787109	8886.528320
2071.777344	9127.610352
2070.765625	9158.276367
2069.755859	9050.380859
2068.744141	9132.997070
2067.734375	9232.898438
2066.722656	9090.421875
2065.712891	9007.333008
2064.701172	9117.093750
2063.689453	8878.309570
2062.677734	9133.861328
2061.666016	9016.225586
2060.654297	9108.618164
2059.642578	9198.509766
2058.628906	9014.240234
2057.617188	9086.833008
2056.605469	9100.149414
2055.591797	9029.533203
2054.578125	9193.404297
2053.566406	9117.860352
2052.552734	9168.169922
2051.539063	8971.781250
2050.525391	9214.477539
2049.511719	8956.495117
2048.498047	9201.579102
2047.484375	9330.716797
2046.468750	9062.983398
2045.455078	9088.598633
2044.439453	9141.307617
2043.425781	9213.708008
2042.410156	9222.041992
2041.394531	9407.691406
2040.380859	9255.937500
2039.365234	9096.848633
2038.349609	9206.118164
2037.333984	9303.045898
2036.316406	9161.250977
2035.300781	9204.026367
2034.285156	9204.969727
2033.267578	9176.397461
2032.251953	9165.047852
2031.234375	9210.252930
2030.218750	9208.734375
2029.201172	9190.010742
2028.183594	9203.240234
2027.166016	9331.947266
2026.148438	9234.598633
2025.130859	9120.088867
2024.113281	9206.995117
2023.093750	9112.169922
2022.076172	9282.520508
2021.056641	9229.442383
2020.039063	9232.829102
2019.019531	9307.375000
2018.001953	9234.690430
2016.982422	9007.490234
2015.962891	9224.287109
2014.943359	9220.313477
2013.923828	9167.304688
2012.904297	9310.424805
2011.882813	9237.810547
2010.863281	9140.713867
2009.843750	9124.504883
2008.822266	9326.331055
2007.802734	9221.918945
2006.781250	9110.193359
2005.759766	9071.961914
2004.738281	9219.803711
2003.716797	9095.893555
2002.695313	9133.550781
2001.673828	9173.642578
2000.652344	9086.499023
1999.630859	9173.061523
1998.609375	9186.221680
1997.585938	9128.462891
1996.564453	8994.929688
1995.541016	8910.331055
1994.517578	9175.271484
1993.494141	9264.174805
1992.472656	9128.262695
1991.449219	9038.810547
1990.425781	9015.335938
1989.400391	9060.248047
1988.376953	8819.464844
1987.353516	9027.961914
1986.328125	8958.125977
1985.304688	9034.743164
1984.279297	8996.650391
1983.255859	9022.001953
1982.230469	8805.854492
1981.205078	9028.778320
1980.179688	8959.009766
1979.154297	8916.083008
1978.128906	8897.546875
1977.103516	8966.758789
1976.078125	8923.851563
1975.050781	9071.002930
1974.025391	9142.586914
1972.998047	8919.431641
1971.972656	8844.900391
1970.945313	8899.441406
1969.917969	8912.578125
1968.892578	8981.694336
1967.865234	8902.333008
1966.837891	9020.092773
1965.808594	8843.436523
1964.781250	8715.488281
1963.753906	9059.400391
1962.724609	8768.537109
1961.697266	9046.682617
1960.667969	8772.932617
1959.640625	8919.740234
1958.611328	8915.836914
1957.582031	8778.303711
1956.552734	8898.315430
1955.523438	9030.431641
1954.494141	8953.657227
1953.464844	8828.347656
1952.435547	9086.646484
1951.404297	8939.510742
1950.375000	8804.557617
1949.343750	8790.969727
1948.314453	8833.185547
1947.283203	8894.791992
1946.251953	8762.359375
1945.222656	8736.663086
1944.191406	8795.830078
1943.158203	8867.096680
1942.126953	8933.493164
1941.095703	8898.090820
1940.064453	8693.102539
1939.031250	9122.857422
1938.000000	8954.229492
1936.966797	9052.035156
1935.935547	8786.625000
1934.902344	8809.380859
1933.869141	8902.320313
1932.835938	8922.628906
1931.802734	8756.619141
1930.769531	8946.290039
1929.736328	8823.869141
1928.703125	8950.586914
1927.667969	9004.720703
1926.634766	8959.714844
1925.599609	9013.829102
1924.566406	8937.416992
1923.531250	9080.923828
1922.496094	9028.685547
1921.460938	9073.088867
1920.425781	8815.574219
1919.390625	8985.568359
1918.355469	8964.766602
1917.320313	8782.231445
1916.285156	9125.927734
1915.248047	9146.136719
1914.212891	9115.669922
1913.175781	9036.963867
1912.138672	9112.653320
1911.103516	8997.798828
1910.066406	8962.552734
1909.029297	9144.293945
1907.992188	9046.363281
1906.955078	9078.606445
1905.917969	9183.127930
1904.878906	9239.430664
1903.841797	9105.415039
1902.802734	9079.823242
1901.765625	8984.407227
1900.726563	9254.984375
1899.687500	8979.026367
1898.650391	9184.528320
1897.611328	8990.492188
1896.572266	9152.616211
1895.533203	9216.053711
1894.494141	9058.186523
1893.453125	9037.448242
1892.414063	9057.591797
1891.375000	9106.577148
1890.333984	8919.987305
1889.292969	9065.110352
1888.253906	9142.903320
1887.212891	9054.900391
1886.171875	9255.175781
1885.130859	9296.873047
1884.089844	9122.441406
1883.048828	9190.556641
1882.007813	9169.830078
1880.964844	9050.708008
1879.923828	8948.421875
1878.880859	9086.098633
1877.839844	9115.779297
1876.796875	9150.247070
1875.753906	9095.973633
1874.712891	9046.512695
1873.669922	9148.097656
1872.626953	8952.433594
1871.583984	9049.207031
1870.539063	9239.396484
1869.496094	9115.684570
1868.453125	9054.291016
1867.408203	8913.885742
1866.365234	9106.365234
1865.320313	9028.244141
1864.275391	9029.142578
1863.230469	8994.139648
1862.187500	9028.542969
1861.142578	9156.244141
1860.095703	9018.375000
1859.050781	8818.365234
1858.005859	9206.693359
1856.960938	9097.575195
1855.914063	9055.427734
1854.869141	8967.880859
1853.822266	9009.410156
1852.775391	8914.731445
1851.730469	9051.814453
1850.683594	9062.256836
1849.636719	8864.923828
1848.589844	8713.023438
1847.541016	8957.479492
1846.494141	9010.895508
1845.447266	8975.989258
1844.400391	8876.666992
1843.351563	8925.296875
1842.302734	8775.921875
1841.255859	8867.482422
1840.207031	8770.626953
1839.158203	8981.368164
1838.109375	9025.171875
1837.060547	8897.352539
1836.011719	9022.178711
1834.962891	9051.656250
1833.912109	9021.568359
1832.863281	8936.707031
1831.814453	8844.729492
1830.763672	8921.836914
1829.712891	8827.511719
1828.664063	8828.427734
1827.613281	8829.342773
1826.562500	8787.426758
1825.511719	8997.708008
1824.460938	8965.291992
1823.408203	8923.373047
1822.357422	9036.032227
1821.306641	8789.649414
1820.253906	8873.767578
1819.203125	8853.281250
1818.150391	8918.348633
1817.097656	8885.982422
1816.046875	8967.651367
1814.994141	8757.150391
1813.941406	8777.069336
1812.888672	8870.586914
1811.833984	8983.065430
1810.781250	8960.211914
1809.728516	8920.753906
1808.673828	8817.244141
1807.621094	8882.207031
1806.566406	9046.771484
1805.511719	8822.339844
1804.458984	8941.806641
1803.404297	8731.691406
1802.349609	8609.350586
1801.294922	8825.962891
1800.238281	8639.666992
1799.183594	8872.786133
1798.128906	8892.632813
1797.072266	8962.208984
1796.017578	8998.610352
1794.960938	8904.777344
1793.906250	8948.276367
1792.849609	8863.949219
1791.792969	9018.665039
1790.736328	9085.784180
1789.679688	9115.029297
1788.623047	9025.999023
1787.564453	9031.594727
1786.507813	8814.922852
1785.451172	8983.675781
1784.392578	9029.458008
1783.335938	9016.141602
1782.277344	9031.184570
1781.218750	8916.281250
1780.160156	8891.178711
1779.101563	9033.769531
1778.042969	9039.352539
1776.984375	9122.845703
1775.925781	8878.189453
1774.865234	8990.003906
1773.806641	9014.467773
1772.746094	8864.326172
1771.687500	9169.526367
1770.626953	8856.663086
1769.566406	9022.625977
1768.507813	9124.872070
1767.447266	9083.278320
1766.386719	8968.629883
1765.324219	9113.252930
1764.263672	8984.499023
1763.203125	9084.308594
1762.140625	9160.530273
1761.080078	9029.476563
1760.017578	9068.004883
1758.957031	8871.088867
1757.894531	9112.069336
1756.832031	9136.442383
1755.769531	8979.616211
1754.707031	8884.012695
1753.644531	9004.858398
1752.582031	9186.815430
1751.517578	8980.699219
1750.455078	9028.581055
1749.390625	8961.257813
1748.328125	9025.578125
1747.263672	9134.528320
1746.199219	9081.317383
1745.136719	8962.344727
1744.072266	8909.179688
1743.007813	9081.483398
1741.941406	9087.017578
1740.876953	9057.333008
1739.812500	9203.706055
1738.748047	9073.095703
1737.681641	9057.506836
1736.615234	9074.768555
1735.550781	9169.433594
1734.484375	9160.872070
1733.417969	9154.658203
1732.351563	9108.587891
1731.285156	9168.020508
1730.218750	9131.338867
1729.152344	9118.102539
1728.085938	8957.261719
1727.017578	9180.660156
1725.951172	9247.056641
1724.882813	9095.641602
1723.814453	9119.882813
1722.748047	9123.046875
1721.679688	9287.714844
1720.611328	9150.433594
1719.542969	9050.635742
1718.474609	9053.808594
1717.404297	9199.664063
1716.335938	9184.100586
1715.267578	9142.820313
1714.197266	9314.304688
1713.128906	9289.377930
1712.058594	9121.893555
1710.988281	9125.048828
1709.917969	9193.620117
1708.847656	9283.192383
1707.777344	9127.498047
1706.707031	9097.955078
1705.636719	9180.493164
1704.566406	9157.955078
1703.494141	9042.061523
1702.423828	9124.567383
1701.351563	9172.045898
1700.281250	9322.154297
1699.208984	9017.378906
1698.136719	8985.559570
1697.064453	9221.896484
1695.992188	9106.125977
1694.919922	9174.537109
1693.847656	9051.820313
1692.773438	9220.413086
1691.701172	9153.643555
1690.626953	9159.106445
1689.554688	9190.186523
1688.480469	9104.825195
1687.406250	9336.129883
1686.332031	8875.992188
1685.257813	9228.283203
1684.183594	9194.166992
1683.109375	9229.861328
1682.035156	9235.301758
1680.960938	9103.512695
1679.884766	9206.643555
1678.810547	9228.359375
1677.734375	9154.754883
1676.658203	9304.310547
1675.583984	9016.914063
1674.507813	9275.649414
1673.431641	9229.962891
1672.355469	9051.892578
1671.279297	9219.918945
1670.201172	9195.161133
1669.125000	9237.739258
1668.048828	9240.840820
1666.970703	9255.546875
1665.892578	9107.813477
1664.816406	9062.213867
1663.738281	9155.809570
1662.660156	9131.089844
1661.582031	9076.231445
1660.503906	8991.250977
1659.425781	9126.521484
1658.347656	9229.298828
1657.267578	9186.046875
1656.189453	9043.178711
1655.109375	9164.449219
1654.031250	9169.869141
1652.951172	9054.864258
1651.871094	9173.756836
1650.791016	9077.308594
1649.710938	9027.186523
1648.630859	9108.994141
1647.550781	9079.708008
1646.470703	9073.565430
1645.388672	9146.071289
1644.308594	9028.909180
1643.226563	8872.474609
1642.146484	8933.416992
1641.064453	9172.330078
1639.982422	8928.124023
1638.900391	8958.985352
1637.818359	9061.458984
1636.736328	8976.785156
1635.654297	9076.912109
1634.570313	8821.377930
1633.488281	8997.688477
1632.406250	9044.665039
1631.322266	8953.138672
1630.238281	8767.026367
1629.156250	8966.300781
1628.072266	8787.168945
1626.988281	8986.373047
1625.904297	8938.749023
1624.820313	9066.380859
1623.734375	8912.709961
1622.650391	8786.750000
1621.566406	8796.806641
1620.480469	8924.375000
1619.396484	8860.680664
1618.310547	9006.624023
1617.224609	8906.085938
1616.138672	8865.452148
1615.052734	8919.227539
1613.966797	8722.072266
1612.880859	8757.440430
1611.794922	8732.965820
1610.708984	8835.042969
1609.621094	8794.459961
1608.535156	8953.992188
1607.447266	8855.911133
1606.359375	8909.614258
1605.273438	8813.871094
1604.185547	8890.547852
1603.097656	8833.907227
1602.009766	8848.515625
1600.921875	8732.169922
1599.832031	8744.492188
1598.744141	8869.341797
1597.654297	8718.608398
1596.566406	8774.545898
1595.476563	8926.872070
1594.388672	8833.579102
1593.298828	8907.825195
1592.208984	8922.396484
1591.119141	8792.447266
1590.029297	8868.957031
1588.939453	8913.336914
1587.847656	8875.163086
1586.757813	9013.511719
1585.666016	8787.392578
1584.576172	8996.749023
1583.484375	8853.190430
1582.392578	8945.633789
1581.302734	8934.975586
1580.210938	8883.100586
1579.119141	8929.698242
1578.025391	8873.261719
1576.933594	8832.867188
1575.841797	8835.966797
1574.750000	9022.116211
1573.656250	9180.749023
1572.562500	9087.718750
1571.470703	9111.355469
1570.376953	8993.214844
1569.283203	9106.021484
1568.189453	9248.505859
1567.095703	8963.562500
1566.001953	9069.460938
1564.908203	9154.761719
1563.812500	9123.534180
1562.718750	9030.650391
1561.623047	9175.286133
1560.529297	9221.697266
1559.433594	9398.211914
1558.337891	9273.389648
1557.242188	9310.631836
1556.146484	9338.734375
1555.050781	9389.640625
1553.955078	9312.800781
1552.859375	9299.838867
1551.761719	9394.046875
1550.666016	9285.327148
1549.568359	9349.874023
1548.472656	9238.918945
1547.375000	9310.287109
1546.277344	9153.810547
1545.179688	9202.389648
1544.082031	9237.288086
1542.984375	9322.269531
1541.886719	9102.148438
1540.787109	9178.018555
1539.689453	9092.272461
1538.589844	9300.098633
1537.492188	9218.911133
1536.392578	9169.597656
1535.292969	9149.866211
1534.193359	9257.486328
1533.095703	9267.304688
1531.994141	9083.892578
1530.894531	9159.648438
1529.794922	9149.024414
1528.695313	9258.824219
1527.593750	9100.524414
1526.494141	9135.341797
1525.392578	9199.668945
1524.291016	9454.704102
1523.189453	9135.291016
1522.089844	9163.268555
1520.988281	9227.546875
1519.884766	9353.068359
1518.783203	9133.708008
1517.681641	9075.469727
1516.580078	9101.164063
1515.476563	9176.735352
1514.373047	9111.716797
1513.271484	9137.390625
1512.167969	9126.793945
1511.064453	9107.135742
1509.960938	9003.655273
1508.857422	9108.614258
1507.753906	9041.405273
1506.650391	9026.302734
1505.544922	8970.451172
1504.441406	9152.309570
1503.335938	8976.497070
1502.232422	9101.718750
1501.126953	9109.243164
1500.021484	9132.600586
1498.916016	9031.547852
1497.810547	8869.469727
1496.705078	9116.701172
1495.599609	9088.043945
1494.494141	8959.941406
1493.386719	9046.577148
1492.281250	9124.144531
1491.173828	8910.250977
1490.068359	8906.497070
1488.960938	8744.654297
1487.853516	8982.541992
1486.746094	8899.758789
1485.638672	8898.265625
1484.531250	8919.341797
1483.423828	8899.792969
1482.314453	8936.655273
1481.207031	9009.596680
1480.097656	9030.638672
1478.990234	8905.096680
1477.880859	9079.465820
1476.771484	8895.345703
1475.662109	8851.029297
1474.552734	8786.445313
1473.443359	8956.208984
1472.333984	8891.628906
1471.224609	8748.237305
1470.113281	8845.856445
1469.003906	8810.597656
1467.892578	8962.203125
1466.783203	8881.918945
1465.671875	9055.965820
1464.560547	8962.191406
1463.449219	8841.451172
1462.337891	9004.168945
1461.226563	9130.849609
1460.115234	9138.310547
1459.001953	8911.954102
1457.890625	9070.054688
1456.777344	8998.860352
1455.666016	8995.102539
1454.552734	9094.693359
1453.439453	9147.078125
1452.326172	8792.926758
1451.212891	9099.094727
1450.099609	9160.432617
1448.986328	9037.672852
1447.873047	9175.310547
1446.757813	8971.802734
1445.644531	9051.069336
1444.529297	9020.385742
1443.414063	9133.259766
1442.300781	9059.963867
1441.185547	9132.433594
1440.070313	9135.382813
1438.955078	9066.605469
1437.839844	9018.019531
1436.722656	9072.521484
1435.607422	9102.361328
1434.492188	9156.830078
1433.375000	9200.082031
1432.257813	8871.616211
1431.142578	9223.855469
1430.025391	9184.251953
1428.908203	9158.089844
1427.791016	9234.869141
1426.673828	9125.926758
1425.556641	9294.398438
1424.437500	9082.601563
1423.320313	9128.034180
1422.201172	9115.320313
1421.083984	9004.252930
1419.964844	9013.914063
1418.845703	9072.734375
1417.726563	9080.146484
1416.607422	8926.712891
1415.488281	9175.368164
1414.369141	9048.768555
1413.250000	8797.174805
1412.128906	9237.712891
1411.009766	9158.038086
1409.888672	9006.976563
1408.769531	9000.999023
1407.648438	9231.499023
1406.527344	8823.989258
1405.406250	8965.235352
1404.285156	8932.510742
1403.164063	8864.125977
1402.042969	8980.773438
1400.919922	8821.027344
1399.798828	8982.208008
1398.675781	8896.036133
1397.554688	8941.317383
1396.431641	8790.593750
1395.308594	8733.445313
1394.185547	8918.994141
1393.062500	8901.910156
1391.939453	9009.469727
1390.816406	8896.689453
1389.693359	8830.669922
1388.568359	8907.041992
1387.445313	8916.664063
1386.320313	8790.630859
1385.197266	8784.704102
1384.072266	8889.931641
1382.947266	8897.326172
1381.822266	8973.608398
1380.697266	8641.032227
1379.572266	9010.574219
1378.445313	8855.796875
1377.320313	8834.318359
1376.195313	8919.427734
1375.068359	9000.067383
1373.941406	8936.401367
1372.816406	8928.238281
1371.689453	8818.007813
1370.562500	8883.079102
1369.435547	8874.928711
1368.308594	9046.422852
1367.179688	8914.070313
1366.052734	9078.847656
1364.923828	9032.985352
1363.796875	9007.083984
1362.667969	8899.202148
1361.541016	8842.313477
1360.412109	8812.026367
1359.283203	8961.149414
1358.154297	9099.149414
1357.025391	9022.337891
1355.894531	8985.398438
1354.765625	9034.791016
1353.636719	9035.481445
1352.505859	9177.776367
1351.376953	9005.890625
1350.246094	8968.983398
1349.115234	9113.427734
1347.984375	8988.071289
1346.853516	9035.192383
1345.722656	8881.155273
1344.591797	9131.594727
1343.460938	9077.025391
1342.328125	9011.427734
1341.197266	9224.166992
1340.064453	9114.396484
1338.933594	9161.438477
1337.800781	9111.323242
1336.667969	9123.031250
1335.535156	9130.321289
1334.402344	9073.616211
1333.269531	9261.823242
1332.134766	9324.231445
1331.001953	9155.041016
1329.869141	9210.831055
1328.734375	9140.929688
1327.599609	9137.183594
1326.466797	9104.786133
1325.332031	9140.712891
1324.197266	9269.164063
1323.062500	9234.556641
1321.927734	9204.366211
1320.791016	9097.109375
1319.656250	9099.978516
1318.519531	9232.729492
1317.384766	9167.341797
1316.248047	9326.443359
1315.113281	9210.454102
1313.976563	9241.899414
1312.839844	9326.122070
1311.703125	9262.971680
1310.566406	9129.479492
1309.427734	8987.238281
1308.291016	9111.011719
1307.154297	9210.568359
1306.015625	9145.291016
1304.878906	9108.595703
1303.740234	9102.665039
1302.601563	8962.766602
1301.462891	9086.416992
1300.324219	9027.800781
1299.185547	9204.080078
1298.046875	9173.995117
1296.906250	9049.561523
1295.767578	9089.719727
1294.626953	8989.471680
1293.488281	9161.220703
1292.347656	9050.029297
1291.207031	9123.046875
1290.066406	9198.230469
1288.925781	9176.951172
1287.785156	9041.725586
1286.644531	9055.536133
1285.503906	8957.617188
1284.361328	9004.291016
1283.220703	8921.743164
1282.078125	9218.014648
1280.937500	9010.674805
1279.794922	8936.920898
1278.652344	8861.003906
1277.509766	9049.869141
1276.367188	8847.072266
1275.224609	8828.078125
1274.080078	8938.122070
1272.937500	8770.430664
1271.794922	8887.003906
1270.650391	8837.414063
1269.505859	8901.484375
1268.363281	8856.278320
1267.218750	8813.270508
1266.074219	8905.709961
1264.929688	8895.468750
1263.783203	8865.577148
1262.638672	8844.429688
1261.494141	8877.860352
1260.347656	8850.168945
1259.203125	9023.246094
1258.056641	8984.629883
1256.910156	8904.580078
1255.763672	8994.678711
1254.617188	8925.556641
1253.470703	9024.341797
1252.324219	8900.738281
1251.177734	8897.053711
1250.031250	8947.850586
1248.882813	9077.067383
1247.734375	8979.679688
1246.587891	8980.338867
1245.439453	8869.932617
1244.291016	9216.811523
1243.142578	8917.003906
1241.994141	9163.631836
1240.845703	9020.624023
1239.697266	9047.384766
1238.546875	8930.550781
1237.398438	9146.555664
1236.248047	9134.134766
1235.099609	9058.658203
1233.949219	9172.350586
1232.798828	9201.230469
1231.648438	9056.234375
1230.498047	9022.107422
1229.347656	9292.153320
1228.197266	9153.731445
1227.044922	9204.306641
1225.894531	9085.488281
1224.742188	9049.212891
1223.591797	9190.950195
1222.439453	9302.253906
1221.287109	9257.279297
1220.134766	9362.024414
1218.982422	9271.499023
1217.830078	9241.733398
1216.677734	9181.618164
1215.523438	9292.808594
1214.371094	9176.341797
1213.216797	9354.685547
1212.064453	9255.583008
1210.910156	9262.682617
1209.755859	9269.779297
1208.601563	9411.163086
1207.447266	9359.760742
1206.292969	9148.146484
1205.136719	9218.038086
1203.982422	9272.753906
1202.828125	9312.301758
1201.671875	9243.647461
1200.515625	9250.734375
1199.361328	9318.384766
1198.205078	9375.198242
1197.048828	9317.389648
1195.892578	9387.155273
1194.736328	9288.293945
1193.578125	9193.788086
1192.421875	9388.867188
1191.265625	9220.918945
1190.107422	9381.364258
1188.949219	9364.656250
1187.792969	9367.387695
1186.634766	9387.390625
1185.476563	9450.558594
1184.318359	9513.705078
1183.160156	9291.985352
1182.000000	9469.486328
1180.841797	9595.155273
1179.681641	9336.867188
1178.523438	9410.759766
1177.363281	9340.169922
1176.203125	9454.995117
1175.044922	9505.120117
1173.884766	9505.663086
1172.724609	9499.742188
1171.562500	9472.280273
1170.402344	9438.365234
1169.242188	9434.611328
1168.080078	9424.398438
1166.919922	9549.815430
1165.757813	9365.238281
1164.595703	9525.054688
1163.433594	9484.708984
1162.271484	9511.067383
1161.109375	9690.135742
1159.947266	9675.587891
1158.785156	9738.453125
1157.621094	9543.312500
1156.458984	9672.813477
1155.294922	9782.927734
1154.132813	9596.472656
1152.968750	9766.717773
1151.804688	9844.538086
1150.640625	9864.344727
1149.476563	9980.773438
1148.312500	10099.308594
1147.146484	9977.385742
1145.982422	10125.928711
1144.818359	10072.708984
1143.652344	10124.636719
1142.486328	10195.852539
1141.320313	10151.225586
1140.156250	10168.802734
1138.990234	10244.261719
1137.822266	10319.695313
1136.656250	10219.349609
1135.490234	10410.480469
1134.324219	10425.853516
1133.156250	10471.212891
1131.988281	10471.576172
1130.822266	10555.458008
1129.654297	10438.043945
1128.486328	10539.028320
1127.318359	10736.295898
1126.150391	10905.675781
1124.982422	10721.951172
1123.812500	11002.519531
1122.644531	11086.208984
1121.474609	11035.137695
1120.306641	10962.701172
1119.136719	10868.910156
1117.966797	11085.088867
1116.796875	11068.246094
1115.626953	11226.623047
1114.457031	11258.898438
1113.287109	11103.189453
1112.115234	11607.459961
1110.945313	11323.625000
1109.773438	11656.889648
1108.603516	11667.715820
1107.431641	11497.127930
1106.259766	11695.757813
1105.087891	11685.235352
1103.916016	11796.306641
1102.744141	11790.035156
1101.572266	12046.053711
1100.398438	12012.025391
1099.226563	11869.291016
1098.052734	12042.041992
1096.880859	12167.853516
1095.707031	12412.934570
1094.533203	12136.022461
1093.359375	12355.466797
1092.185547	12383.178711
1091.011719	12496.047852
1089.837891	12674.870117
1088.662109	12457.742188
1087.488281	12676.943359
1086.312500	12655.637695
1085.138672	12802.399414
1083.962891	12764.062500
1082.787109	12908.628906
1081.611328	13044.639648
1080.435547	13091.316406
1079.259766	13142.227539
1078.082031	13154.867188
1076.906250	13282.243164
1075.728516	13322.472656
1074.552734	13439.154297
1073.375000	13443.238281
1072.197266	13485.541992
1071.019531	13740.130859
1069.841797	13648.641602
1068.664063	13822.467773
1067.486328	13851.944336
1066.308594	13749.873047
1065.128906	14144.198242
1063.951172	13959.397461
1062.771484	14145.744141
1061.591797	14181.498047
1060.412109	14382.580078
1059.232422	14339.863281
1058.052734	14428.540039
1056.873047	14468.457031
1055.693359	14646.049805
1054.513672	14510.125000
1053.332031	14774.470703
1052.152344	14947.685547
1050.970703	15017.113281
1049.789063	14904.497070
1048.607422	15189.755859
1047.425781	15075.031250
1046.244141	15021.692383
1045.062500	15376.581055
1043.880859	15426.829102
1042.697266	15515.118164
1041.515625	15651.999023
1040.332031	15600.718750
1039.150391	15686.817383
1037.966797	15709.500000
1036.783203	15681.472656
1035.599609	15864.672852
1034.416016	16066.817383
1033.232422	16323.790039
1032.046875	15991.674805
1030.863281	16362.552734
1029.677734	16277.458008
1028.494141	16283.124023
1027.308594	16647.431641
1026.123047	16627.718750
1024.937500	16411.880859
1023.751953	16516.621094
1022.566406	16486.398438
1021.380859	16616.382813
1020.193359	16761.076172
1019.007813	16713.968750
1017.820313	17067.166016
1016.634766	16927.337891
1015.447266	16863.375000
1014.259766	17083.705078
1013.072266	17108.162109
1011.884766	17012.625000
1010.697266	17039.187500
1009.509766	17040.490234
1008.320313	17073.349609
1007.132813	17125.130859
1005.943359	17250.503906
1004.753906	17220.224609
1003.566406	17345.539063
1002.376953	17401.439453
1001.187500	17305.992188
999.998047	17414.414063
998.806641	17316.894531
997.617188	17410.572266
996.427734	17233.273438
995.236328	17528.529297
994.046875	17420.556641
992.855469	17375.599609
991.664063	17332.753906
990.472656	17480.890625
989.281250	17379.292969
988.089844	17388.912109
986.898438	17337.703125
985.705078	17271.830078
984.513672	17245.816406
983.320313	17184.173828
982.126953	17187.527344
980.935547	17134.296875
979.742188	17259.185547
978.548828	17149.394531
977.355469	17299.373047
976.162109	17288.041016
974.966797	17132.234375
973.773438	17202.582031
972.578125	17019.630859
971.384766	17121.365234
970.189453	16825.496094
968.994141	17075.767578
967.798828	17198.355469
966.603516	17199.599609
965.408203	17127.658203
964.212891	16878.031250
963.015625	17094.630859
961.820313	16811.656250
960.623047	17201.628906
959.427734	17050.353516
958.230469	17082.951172
957.033203	17023.640625
955.835938	16715.857422
954.638672	17053.316406
953.441406	16772.767578
952.244141	16976.525391
951.044922	16986.144531
949.847656	16951.945313
948.648438	17080.466797
947.449219	16902.349609
946.251953	16920.314453
945.052734	16998.734375
943.853516	16914.529297
942.654297	16905.384766
941.453125	16823.304688
940.253906	16645.412109
939.054688	16619.650391
937.853516	16768.853516
936.652344	16834.708984
935.453125	16761.037109
934.251953	16666.572266
933.050781	16532.593750
931.849609	16850.248047
930.646484	16635.134766
929.445313	16742.546875
928.244141	16685.603516
927.041016	16657.792969
925.839844	16569.693359
924.636719	16710.302734
923.433594	16773.958984
922.230469	16467.669922
921.027344	16572.900391
919.824219	16736.263672
918.621094	16627.466797
917.417969	16568.548828
916.212891	16532.490234
915.009766	16446.617188
913.804688	16240.382813
912.599609	16221.000000
911.394531	16305.373047
910.189453	16267.313477
908.984375	16069.544922
907.779297	16245.152344
906.574219	16028.791992
905.367188	16030.194336
904.162109	15996.356445
902.955078	15707.610352
901.750000	15841.683594
900.542969	15983.997070
899.335938	15830.043945
898.128906	15709.280273
896.921875	15551.284180
895.712891	15542.410156
894.505859	15494.207031
893.298828	15483.274414
892.089844	15505.454102
890.880859	15339.349609
889.673828	15427.741211
888.464844	15247.227539
887.255859	15116.404297
886.046875	15202.719727
884.835938	15189.779297
883.626953	14997.026367
882.417969	14816.738281
881.207031	14952.630859
879.998047	14867.436523
878.787109	14724.439453
877.576172	14606.272461
876.365234	14696.681641
875.154297	14586.815430
873.943359	14464.602539
872.732422	14654.042969
871.519531	14441.074219
870.308594	14143.596680
869.095703	14330.930664
867.884766	14124.311523
866.671875	14014.671875
865.458984	13999.899414
864.246094	13871.766602
863.033203	13747.798828
861.820313	13817.558594
860.605469	13728.663086
859.392578	13734.547852
858.177734	13563.320313
856.964844	13703.069336
855.750000	13437.204102
854.535156	13432.840820
853.320313	13346.159180
852.105469	13510.539063
850.890625	13378.611328
849.675781	13259.070313
848.458984	13316.436523
847.244141	13192.833984
846.027344	13229.631836
844.810547	13184.196289
843.595703	12916.815430
842.378906	12968.024414
841.162109	12910.328125
839.943359	12967.681641
838.726563	13076.360352
837.509766	12944.750000
836.291016	12790.601563
835.074219	12788.406250
833.855469	12837.519531
832.636719	12790.171875
831.417969	12712.064453
830.199219	12822.704102
828.980469	12701.547852
827.761719	12744.479492
826.542969	12643.879883
825.322266	12553.563477
824.103516	12666.181641
822.882813	12926.303711
821.664063	12848.276367
820.443359	12821.488281
819.222656	12788.563477
818.001953	12655.309570
816.779297	12542.574219
815.558594	12646.868164
814.337891	12476.863281
813.115234	12622.059570
811.894531	12666.949219
810.671875	12632.042969
809.449219	12666.688477
808.226563	12654.287109
807.003906	12621.443359
805.781250	12741.930664
804.558594	12702.950195
803.333984	12727.333984
802.111328	12896.776367
800.886719	12592.215820
799.664063	12769.792969
798.439453	12663.448242
797.214844	12775.612305
795.990234	12787.707031
794.765625	12887.564453
793.541016	12756.781250
792.314453	12726.022461
791.089844	12905.399414
789.863281	12709.408203
788.638672	12854.056641
787.412109	12564.346680
786.185547	13039.231445
784.958984	12869.847656
783.732422	12967.494141
782.505859	12779.842773
781.279297	12865.246094
780.050781	12934.325195
778.824219	12858.784180
777.595703	12990.961914
776.367188	13005.013672
775.140625	12921.356445
773.912109	12805.165039
772.683594	12951.502930
771.453125	13028.618164
770.224609	12989.762695
768.996094	12743.477539
767.765625	12889.722656
766.537109	13035.916992
765.306641	13039.772461
764.076172	12988.751953
762.845703	12795.507813
761.615234	12888.793945
760.384766	13215.645508
759.154297	13233.680664
757.921875	13077.077148
756.691406	13046.402344
755.458984	12985.289063
754.228516	12987.112305
752.996094	13204.030273
751.763672	13134.804688
750.531250	13100.086914
749.298828	13302.675781
748.066406	13213.189453
746.832031	13133.870117
745.599609	13222.828125
744.365234	13175.961914
743.132813	13410.783203
741.898438	13325.404297
740.664063	13306.903320
739.429688	13300.560547
738.195313	13278.019531
736.960938	13249.411133
735.724609	13524.459961
734.490234	13354.140625
733.255859	13363.981445
732.019531	13264.562500
730.783203	13365.445313
729.546875	13217.517578
728.310547	13435.662109
727.074219	13348.427734
725.837891	13313.783203
724.601563	13521.691406
723.363281	13448.630859
722.126953	13492.784180
720.888672	13413.693359
719.650391	13455.816406
718.414063	13330.311523
717.175781	13505.693359
715.937500	13574.020508
714.697266	13553.514648
713.458984	13639.971680
712.220703	13391.460938
710.980469	13689.736328
709.742188	13495.760742
708.501953	13436.966797
707.261719	13577.807617
706.021484	13631.913086
704.781250	13552.968750
703.541016	13689.683594
702.300781	13649.039063
701.058594	13596.320313
699.818359	13684.615234
698.576172	13581.560547
697.335938	13750.367188
696.093750	13725.849609
694.851563	13769.776367
693.609375	13648.664063
692.367188	13744.903320
691.123047	13702.295898
689.880859	13808.549805
688.638672	13780.022461
687.394531	13725.364258
686.150391	13887.848633
684.908203	13975.903320
683.664063	13949.375000
682.419922	13858.554688
681.175781	13978.712891
679.929688	13928.091797
678.685547	14078.319336
677.439453	14005.609375
676.195313	13856.634766
674.949219	14095.115234
673.703125	14148.875977
672.458984	14038.077148
671.212891	14017.596680
669.964844	13961.016602
668.718750	14042.838867
667.472656	13741.638672
666.224609	14021.949219
664.978516	14075.653320
663.730469	14111.300781
662.482422	14104.855469
661.234375	13980.207031
659.986328	14107.995117
658.738281	14013.429688
657.490234	13948.933594
656.242188	14008.587891
654.992188	14012.172852
653.744141	13981.731445
652.494141	14099.377930
651.244141	14228.988281
649.994141	14248.533203
648.744141	14100.069336
647.494141	14029.643555
646.244141	14051.210938
644.994141	14248.678711
643.742188	14150.282227
642.492188	13934.019531
641.240234	14097.439453
639.988281	14017.095703
638.738281	14140.499023
637.486328	14010.251953
636.232422	14087.691406
634.980469	14091.244141
633.728516	14036.915039
632.474609	14162.201172
631.222656	14091.916016
629.968750	14067.535156
628.714844	14226.655273
627.462891	14052.698242
626.208984	13966.528320
624.953125	14095.679688
623.699219	14170.972656
622.445313	14387.724609
621.191406	14435.045898
619.935547	14237.325195
618.679688	14360.340820
617.425781	14433.528320
616.169922	14437.003906
614.914063	14571.863281
613.658203	14577.302734
612.400391	14542.939453
611.144531	14727.450195
609.888672	14716.944336
608.630859	14557.268555
607.373047	14866.962891
606.117188	14995.615234
604.859375	14863.803711
603.601563	15059.989258
602.343750	15206.425781
601.083984	15203.792969
599.826172	15308.434570
598.568359	15321.673828
597.308594	15418.314453
596.048828	15352.107422
594.791016	15581.714844
593.531250	15610.773438
592.271484	15602.116211
591.011719	15887.116211
589.750000	15860.558594
588.490234	16101.777344
587.230469	15930.422852
585.968750	16084.302734
584.707031	16031.955078
583.447266	16165.942383
582.185547	15923.349609
580.923828	16243.559570
579.662109	16282.347656
578.398438	16235.950195
577.136719	16431.173828
575.875000	16671.871094
574.611328	16573.955078
573.347656	16640.359375
572.085938	16619.664063
570.822266	16614.804688
569.558594	16534.771484
568.292969	16603.111328
567.029297	16653.628906
565.765625	16795.083984
564.500000	16594.478516
563.236328	16591.599609
561.970703	16559.080078
560.705078	16777.511719
559.439453	16699.529297
558.173828	16724.287109
556.908203	16806.306641
555.642578	16840.908203
554.376953	16780.736328
553.109375	16789.667969
551.843750	16847.935547
550.576172	16923.939453
549.308594	16909.166016
548.041016	16858.892578
546.773438	16763.277344
545.505859	16998.957031
544.238281	16905.320313
542.968750	16853.109375
541.701172	17003.906250
540.431641	17008.835938
539.164063	17131.970703
537.894531	16985.205078
536.625000	16915.296875
535.355469	17117.144531
534.085938	17039.361328
532.814453	17105.298828
531.544922	17293.228516
530.273438	17252.841797
529.003906	17145.576172
527.732422	17347.167969
526.460938	17371.691406
525.189453	17372.607422
523.917969	17583.884766
522.646484	17313.501953
521.375000	17469.685547
520.101563	17468.617188
518.830078	17768.136719
517.556641	17664.871094
516.283203	17575.388672
515.011719	17725.498047
513.738281	17645.851563
512.462891	17689.896484
511.189453	17686.822266
509.916016	17901.558594
508.642578	18192.734375
507.367188	18013.033203
506.091797	17839.277344
504.818359	17989.125000
503.542969	17929.144531
502.267578	18173.013672
500.992188	18079.701172
499.714844	18152.980469
498.439453	18157.662109
497.164063	18183.888672
495.886719	18067.134766
494.609375	18038.537109
493.333984	18115.671875
492.056641	18233.886719
490.779297	18060.445313
489.501953	18237.330078
488.222656	18241.986328
486.945313	18119.490234
485.666016	18225.863281
484.388672	18134.699219
483.109375	18110.039063
481.830078	18296.500000
480.550781	17927.843750
479.271484	17969.667969
477.992188	18072.044922
476.712891	18102.109375
475.433594	17958.339844
474.152344	17857.580078
472.871094	17913.044922
471.591797	17740.099609
470.310547	17762.386719
469.029297	17831.496094
467.748047	17467.455078
466.466797	17887.710938
465.183594	17709.068359
463.902344	17881.486328
462.619141	17765.294922
461.337891	17771.949219
460.054688	17994.937500
458.771484	17489.054688
457.488281	17663.306641
456.205078	17790.744141
454.921875	17775.960938
453.638672	17763.130859
452.353516	17779.507813
451.070313	17793.931641
449.785156	17796.671875
448.500000	17538.656250
447.214844	17872.189453
445.929688	17911.871094
444.644531	17856.240234
443.359375	18222.597656
442.072266	17713.923828
440.787109	18115.167969
439.500000	18009.003906
438.214844	18132.175781
436.927734	18251.417969
435.640625	18384.216797
434.353516	18410.146484
433.066406	18337.031250
431.777344	18462.396484
430.490234	18587.761719
429.203125	18713.125000
427.914063	18838.490234
426.625000	18957.437500
425.335938	18975.470703
424.046875	19022.591797
422.757813	19009.580078
421.468750	19287.394531
420.179688	19254.955078
418.888672	19112.052734
417.599609	19226.925781
416.308594	19248.761719
415.017578	19154.359375
413.728516	19352.447266
412.437500	19418.785156
411.144531	19465.738281
409.853516	19210.691406
408.562500	19484.109375
407.269531	19364.605469
405.978516	19233.533203
404.685547	19487.457031
403.392578	19335.132813
402.099609	19250.542969
400.806641	19309.052734
399.513672	19209.031250
398.220703	19609.623047
396.927734	19385.908203
395.632813	19088.849609
394.337891	18807.349609
393.044922	19267.603516
391.750000	19065.341797
390.455078	19002.162109
389.160156	18780.712891
387.865234	18960.789063
386.568359	18938.181641
385.273438	18630.035156
383.976563	18649.931641
382.681641	18725.751953
381.384766	18772.621094
380.087891	18705.718750
378.791016	18611.851563
377.494141	18625.947266
376.197266	18424.212891
374.898438	18550.083984
373.601563	18221.291016
372.302734	18299.001953
371.005859	18326.617188
369.707031	18259.878906
368.408203	18146.964844
367.109375	18172.666016
365.810547	18221.447266
364.509766	17921.970703
363.210938	18353.585938
361.910156	18452.314453
360.611328	18252.947266
359.310547	18070.951172
358.009766	18113.929688
356.708984	18241.458984
355.408203	18245.957031
354.107422	18163.994141
352.804688	18237.660156
351.503906	18044.330078
350.201172	18094.943359
348.900391	18066.822266
347.597656	18105.894531
346.294922	18025.958984
344.992188	17965.238281
343.689453	17910.294922
342.386719	17891.818359
341.082031	17852.248047
339.779297	17818.445313
338.474609	17654.277344
337.169922	17839.050781
335.867188	17757.349609
334.562500	17499.380859
333.257813	17703.242188
331.951172	17857.224609
330.646484	17691.302734
329.341797	17720.761719
328.035156	17583.640625
326.728516	17484.851563
325.423828	17357.386719
324.117188	17782.994141
322.810547	17552.207031
321.503906	17392.275391
320.195313	17352.892578
318.888672	17575.501953
317.580078	17511.244141
316.273438	17303.640625
314.964844	17369.417969
313.656250	17561.291016
312.347656	17311.751953
311.039063	17451.990234
309.730469	17471.853516
308.421875	17424.875000
307.111328	17431.371094
305.802734	17487.494141
304.492188	17249.677734
303.181641	17378.326172
301.871094	17598.507813
300.560547	17547.738281
299.250000	17483.632813
297.939453	17640.750000
296.628906	17544.240234
295.316406	17501.134766
294.005859	17782.048828
292.693359	17641.734375
291.380859	17650.074219
290.068359	17283.146484
288.755859	17645.794922
287.443359	17749.341797
286.130859	17630.093750
284.816406	17619.390625
283.503906	17374.591797
282.189453	17653.175781
280.875000	17518.806641
279.560547	17546.171875
278.246094	17699.050781
276.931641	17465.859375
275.617188	17396.255859
274.300781	17454.035156
272.986328	17401.560547
271.669922	17324.400391
270.355469	17469.556641
269.039063	17400.007813
267.722656	17528.003906
266.406250	17384.412109
265.089844	17578.814453
263.771484	17634.578125
262.455078	17348.697266
261.136719	17501.255859
259.820313	17612.021484
258.501953	17479.941406
257.183594	17382.046875
255.865234	17595.169922
254.546875	17482.121094
253.228516	17374.796875
251.908203	17631.396484
250.589844	17410.388672
249.269531	17721.833984
247.949219	17703.570313
246.628906	17469.406250
245.310547	17487.169922
243.988281	17525.753906
242.667969	17446.960938
241.347656	17756.173828
240.025391	17681.152344
238.705078	17942.916016
237.382813	17739.259766
236.060547	17983.898438
234.738281	17651.722656
233.416016	17966.242188
232.093750	17912.050781
230.771484	18041.199219
229.449219	18134.402344
228.125000	18029.197266
226.800781	17837.138672
225.478516	17871.777344
224.154297	17953.611328
222.830078	18122.259766
221.505859	18032.246094
220.181641	18189.498047
218.855469	18010.816406
217.531250	17975.580078
216.205078	17827.179688
214.878906	17852.335938
213.554688	17941.595703
212.228516	17789.505859
210.902344	18229.341797
209.574219	18013.177734
208.248047	17976.095703
206.921875	18168.867188
205.593750	17917.035156
204.265625	17970.384766
202.939453	18323.107422
201.611328	18285.998047
200.283203	18320.429688
198.955078	18110.193359
197.625000	18080.666016
196.296875	18613.660156
194.968750	18403.480469
193.638672	18800.822266
192.308594	18632.048828
190.978516	18715.250000
189.648438	18946.916016
188.318359	18736.859375
186.988281	19047.355469
185.658203	18948.193359
184.326172	19187.166016
182.996094	19347.175781
181.664063	18932.562500
180.332031	19434.236328
179.000000	19391.400391
177.667969	19478.070313
176.335938	19596.605469
175.003906	19685.082031
173.669922	19567.201172
172.337891	19588.138672
171.003906	19661.566406
169.669922	19809.957031
168.335938	19619.033203
167.001953	19394.443359
165.667969	19825.730469
164.333984	19666.750000
163.000000	19717.607422
161.664063	19779.681641
160.328125	19927.863281
158.994141	19774.589844
157.658203	19817.900391
156.322266	19838.738281
154.986328	19838.988281
153.650391	19945.869141
152.312500	20013.431641
150.976563	20239.927734
149.638672	20221.404297
148.302734	20324.400391
146.964844	20160.078125
145.626953	20631.193359
144.289063	20739.664063
142.949219	20954.580078
141.611328	20708.076172
140.273438	20930.390625
138.933594	21036.861328
137.595703	21484.919922
136.255859	21699.509766
134.916016	21412.033203
133.576172	21314.968750
132.236328	21583.572266
130.894531	21844.619141
129.554688	21751.257813
128.212891	22176.255859
126.873047	21790.193359
125.531250	21916.820313
124.189453	22106.761719
122.847656	22346.939453
121.505859	22408.199219
120.164063	22240.345703
118.820313	22081.863281
117.478516	22321.873047
116.134766	22074.076172
114.792969	22129.740234
113.449219	22194.689453
112.105469	22196.357422
110.761719	22318.937500
109.417969	22426.593750
108.072266	22463.548828
106.728516	22745.908203
105.382813	22784.650391
104.039063	22544.589844
102.693359	22629.808594
101.347656	22752.154297
100.001953	22906.035156
98.654297	22885.277344
97.308594	22760.537109
95.962891	23137.125000
94.615234	23407.773438
93.269531	23555.830078
91.921875	23657.443359
90.574219	23948.259766
89.226563	23498.837891
87.878906	23364.863281
86.529297	23662.992188
85.181641	23673.646484
83.832031	24032.785156
82.484375	24169.394531
81.134766	24000.208984
79.785156	23619.875000
78.435547	23543.462891
77.085938	23474.482422
75.736328	23705.503906
74.384766	23975.320313
73.035156	23710.085938
71.683594	23570.794922
70.332031	23342.734375
68.982422	22842.791016
67.630859	22838.755859
66.279297	22836.570313
64.925781	22346.224609
63.574219	22333.031250
62.220703	21713.556641
60.869141	21816.908203
59.515625	21552.515625
58.162109	20709.962891
56.808594	19804.904297
55.455078	19336.009766
54.101563	18571.843750
52.748047	17903.947266
51.392578	17398.718750
