#Wave		#Intensity
4002.114258	6113.766602
4001.416016	5920.474121
4000.717773	5951.732910
4000.018555	5940.041504
3999.320313	5824.598145
3998.621094	5852.279785
3997.921875	5972.944336
3997.223633	5943.375977
3996.524414	5903.090820
3995.824219	5909.291992
3995.125000	5961.957031
3994.425781	5782.311523
3993.725586	5960.041016
3993.026367	6012.671875
3992.326172	5993.845703
3991.625977	5875.024902
3990.925781	5927.643555
3990.225586	5926.691406
3989.525391	5979.284668
3988.825195	5939.063477
3988.125000	6070.146484
3987.423828	5790.866699
3986.723633	5896.958984
3986.022461	5970.915527
3985.321289	5845.136230
3984.620117	6036.745605
3983.918945	6050.036133
3983.217773	5981.337402
3982.516602	5912.660645
3981.814453	6054.247070
3981.113281	5928.574707
3980.411133	5998.867676
3979.708984	5791.325195
3979.006836	6004.062500
3978.304688	5889.160156
3977.602539	5859.734375
3976.900391	6033.204102
3976.198242	6057.146484
3975.495117	6109.547852
3974.792969	5895.104492
3974.089844	5883.485840
3973.386719	5985.680664
3972.683594	5906.487793
3971.980469	6097.531250
3971.277344	5986.351563
3970.574219	5889.424316
3969.870117	5696.578613
3969.166992	6008.338867
3968.462891	5911.454590
3967.759766	5910.505371
3967.055664	5916.658691
3966.351563	6150.063965
3965.647461	5911.207520
3964.943359	5910.258301
3964.238281	6086.765625
3963.534180	6011.268066
3962.829102	6031.590332
3962.125000	5920.651855
3961.419922	5944.528809
3960.714844	5897.472168
3960.009766	5953.256348
3959.304688	5977.116211
3958.599609	5926.532227
3957.893555	5872.420410
3957.188477	5899.824707
3956.482422	5849.276855
3955.777344	5819.999023
3955.071289	5964.275391
3954.365234	5931.447266
3953.659180	5919.872559
3952.953125	5904.761719
3952.246094	6002.918457
3951.540039	5931.176758
3950.833008	5997.452148
3950.126953	5897.432129
3949.419922	5811.592773
3948.712891	5867.245117
3948.005859	6223.443848
3947.298828	5911.322266
3946.591797	5786.650879
3945.884766	5951.835938
3945.176758	5788.326660
3944.469727	6101.853027
3943.761719	6111.470703
3943.053711	6170.534668
3942.345703	5943.527344
3941.637695	6006.130371
3940.929688	5705.083984
3940.221680	5901.837402
3939.513672	6024.413086
3938.804688	5959.929688
3938.095703	6040.119141
3937.387695	6067.369629
3936.678711	5971.166992
3935.969727	5882.048340
3935.260742	6092.654297
3934.551758	6014.120117
3933.841797	5896.838867
3933.132813	5924.085449
3932.422852	5940.752441
3931.713867	5978.551758
3931.003906	6044.518555
3930.293945	5987.197754
3929.583984	6039.056152
3928.874023	5939.505859
3928.164063	5864.628418
3927.453125	6000.952148
3926.743164	6038.698242
3926.032227	5777.360840
3925.322266	5751.807617
3924.611328	5870.474609
3923.900391	5922.284180
3923.189453	5995.174316
3922.478516	5909.835938
3921.766602	5979.189453
3921.055664	5967.686035
3920.344727	6001.867676
3919.632813	5863.881348
3918.920898	5936.709961
3918.208984	5830.388672
3917.497070	5998.015137
3916.785156	6088.342285
3916.073242	5975.026367
3915.361328	5988.107422
3914.648438	5864.314941
3913.936523	5838.811035
3913.223633	5946.632813
3912.510742	5952.693848
3911.797852	6056.954590
3911.084961	6112.088867
3910.372070	5977.876465
3909.659180	5910.312012
3908.945313	6003.997559
3908.232422	5985.511719
3907.518555	6037.108887
3906.804688	5857.473145
3906.091797	5982.630371
3905.377930	5960.657227
3904.663086	5945.694336
3903.949219	5951.742188
3903.235352	6136.311523
3902.520508	6012.830566
3901.806641	5805.404297
3901.091797	5937.426270
3900.376953	5904.989258
3899.662109	5918.032227
3898.947266	5952.053711
3898.232422	6167.883301
3897.517578	5950.143555
3896.802734	5900.252930
3896.086914	6028.615723
3895.372070	6094.039551
3894.656250	5848.500977
3893.940430	5927.905273
3893.224609	5699.934570
3892.508789	5880.605957
3891.792969	6029.796387
3891.076172	5965.992188
3890.360352	5961.544434
3889.643555	5786.097656
3888.927734	5963.120605
3888.210938	6070.313477
3887.494141	6079.803711
3886.777344	6040.464844
3886.060547	5959.294434
3885.342773	5839.799316
3884.625977	5915.551758
3883.909180	6040.074219
3883.191406	6115.770020
3882.473633	5905.736328
3881.755859	6061.553223
3881.038086	6001.368164
3880.320313	5923.789551
3879.602539	5961.140625
3878.884766	6109.885254
3878.166016	5917.457520
3877.448242	6142.727539
3876.729492	5943.396973
3876.010742	5897.214355
3875.291992	5938.011719
3874.573242	6034.444824
3873.854492	6103.026855
3873.135742	6032.508789
3872.416016	5916.819824
3871.697266	6027.097168
3870.977539	5960.100098
3870.257813	5979.992188
3869.539063	6006.826172
3868.819336	6085.755859
3868.099609	6025.737793
3867.378906	5937.958496
3866.659180	6141.850098
3865.938477	6099.208496
3865.218750	5983.692871
3864.498047	6194.418945
3863.777344	5988.712891
3863.056641	6071.011719
3862.335938	5945.168457
3861.615234	5909.534668
3860.894531	6026.480957
3860.173828	5980.444336
3859.452148	6014.148438
3858.730469	5843.358887
3858.009766	6015.684570
3857.288086	6149.842773
3856.566406	6072.645508
3855.844727	6061.280762
3855.122070	6119.179688
3854.400391	5965.849121
3853.678711	6075.673828
3852.956055	6053.931152
3852.233398	6132.559082
3851.510742	5965.482910
3850.788086	6009.502441
3850.065430	5939.355469
3849.342773	5952.237305
3848.620117	6131.100586
3847.896484	6126.659668
3847.173828	6091.107910
3846.450195	6145.432617
3845.727539	5968.200195
3845.003906	6108.909180
3844.280273	6021.561523
3843.555664	5816.800781
3842.832031	5929.836426
3842.108398	6084.272949
3841.383789	6024.604492
3840.660156	6285.985840
3839.935547	6164.179199
3839.210938	6018.255859
3838.486328	6110.448242
3837.761719	5974.928711
3837.037109	6187.819336
3836.312500	6117.854492
3835.586914	6134.113770
3834.862305	6088.312500
3834.136719	6083.889160
3833.411133	6172.520020
3832.685547	6006.128906
3831.959961	6015.501953
3831.234375	6159.216797
3830.508789	6068.679688
3829.782227	6246.776367
3829.056641	6214.786621
3828.330078	6100.186523
3827.603516	6336.705566
3826.876953	5957.130859
3826.150391	6059.402344
3825.423828	6075.632324
3824.697266	6091.856934
3823.970703	6080.562500
3823.243164	6021.129883
3822.516602	6164.565918
3821.789063	6125.764160
3821.061523	5980.426758
3820.333984	5903.865234
3819.606445	6177.792480
3818.878906	6169.931152
3818.151367	6148.333008
3817.422852	6150.781738
3816.695313	6112.024414
3815.966797	6035.514648
3815.238281	6134.092773
3814.509766	6133.109375
3813.781250	6132.125977
3813.052734	6100.264160
3812.324219	6281.098145
3811.595703	6177.194824
3810.866211	6107.618164
3810.136719	6017.491211
3809.408203	5975.387695
3808.678711	6073.832031
3807.949219	6189.380371
3807.219727	6280.905273
3806.489258	6074.336914
3805.759766	6114.468750
3805.030273	5822.370117
3804.299805	6359.063477
3803.569336	6029.356445
3802.839844	6261.172852
3802.109375	6243.055176
3801.378906	5951.168945
3800.647461	6138.404785
3799.916992	6110.051758
3799.186523	5955.148438
3798.455078	6142.292969
3797.723633	6086.597168
3796.993164	6174.512695
3796.261719	6040.207520
3795.530273	6234.053223
3794.798828	6082.694824
3794.066406	6047.552734
3793.334961	6097.825684
3792.602539	6189.069336
3791.871094	5890.967773
3791.138672	6234.888184
3790.406250	6254.372559
3789.673828	6069.045898
3788.941406	6187.522949
3788.208984	6166.057129
3787.476563	6127.539551
3786.743164	6167.491699
3786.010742	6077.825684
3785.277344	5977.957520
3784.543945	6140.659180
3783.810547	6119.220703
3783.077148	6183.000977
3782.343750	6168.377930
3781.610352	6300.277832
3780.875977	6125.518555
3780.142578	6369.790527
3779.408203	6232.539063
3778.673828	5993.175293
3777.939453	6046.688965
3777.205078	6086.569336
3776.470703	6300.019043
3775.736328	6118.648438
3775.000977	6294.597168
3774.266602	6123.491211
3773.531250	6217.748535
3772.795898	6264.363770
3772.061523	6168.151367
3771.326172	6105.966797
3770.589844	6322.538086
3769.854492	6134.597656
3769.119141	6150.604980
3768.382813	6044.294434
3767.647461	6219.971191
3766.911133	6337.851563
3766.174805	6265.520996
3765.438477	6064.187988
3764.702148	6232.958496
3763.965820	6096.187012
3763.229492	6129.147949
3762.492188	6277.467285
3761.755859	6344.314941
3761.018555	6224.573242
3760.281250	6430.462891
3759.543945	6307.354492
3758.806641	6289.390625
3758.069336	6230.753418
3757.332031	6294.153809
3756.593750	6245.700684
3755.856445	6339.573242
3755.118164	6264.025879
3754.379883	6493.354492
3753.641602	6190.896973
3752.903320	6355.826660
3752.165039	6141.514160
3751.426758	6336.864258
3750.688477	6298.619141
3749.949219	6382.209473
3749.210938	6452.238770
3748.471680	6282.059570
3747.732422	6348.700195
3746.993164	6411.937012
3746.253906	6360.190430
3745.514648	6315.221191
3744.774414	6456.177734
3744.035156	6137.455078
3743.294922	6322.322754
3742.554688	6152.381348
3741.815430	6168.285156
3741.075195	6207.826660
3740.334961	6270.993652
3739.593750	6283.494629
3738.853516	6204.842773
3738.113281	6352.362793
3737.372070	6320.971680
3736.630859	6259.222168
3735.890625	6379.672363
3735.149414	6223.484375
3734.408203	6468.688477
3733.666016	6363.117676
3732.924805	6298.038574
3732.183594	6458.837402
3731.441406	6376.911133
3730.699219	6301.750977
3729.958008	6364.759277
3729.215820	6292.993652
3728.473633	6426.717285
3727.731445	6226.989746
3726.988281	6303.437988
3726.246094	6268.760742
3725.502930	6436.063477
3724.760742	6377.816895
3724.017578	6558.508301
3723.274414	6416.147461
3722.531250	6381.479492
3721.788086	6410.727539
3721.044922	6318.901855
3720.300781	6314.526855
3719.557617	6326.962402
3718.813477	6167.968262
3718.070313	6432.479004
3717.326172	6545.695801
3716.582031	6225.477539
3715.837891	6452.901367
3715.092773	6438.433105
3714.348633	6598.588379
3713.604492	6372.576660
3712.859375	6384.983398
3712.114258	6323.544434
3711.369141	6439.987793
3710.624023	6378.559570
3709.878906	6609.020996
3709.133789	6379.869629
3708.388672	6278.234863
3707.642578	6468.362305
3706.897461	6299.691895
3706.151367	6328.851563
3705.405273	6616.075684
3704.659180	6413.951660
3703.913086	6493.336426
3703.166992	6482.246094
3702.420898	6548.196777
3701.673828	6567.241211
3700.927734	6392.072754
3700.180664	6461.353516
3699.433594	6373.287598
3698.687500	6519.524902
3697.940430	6595.443848
3697.192383	6657.955566
3696.445313	6345.788086
3695.698242	6639.099121
3694.950195	6347.098633
3694.202148	6469.793457
3693.455078	6485.472168
3692.707031	6427.610352
3691.958984	6556.916992
3691.210938	6525.793457
3690.461914	6541.452148
3689.713867	6456.895508
3688.964844	6539.356445
3688.216797	6391.380371
3687.467773	6410.388672
3686.718750	6439.405762
3685.969727	6601.919922
3685.220703	6447.353516
3684.471680	6663.200195
3683.721680	6525.353516
3682.972656	6420.906250
3682.222656	6439.887695
3681.473633	6538.889648
3680.723633	6541.176270
3679.973633	6680.130859
3679.223633	6485.754395
3678.472656	6628.005371
3677.722656	6497.003418
3676.972656	6356.049316
3676.221680	6514.906250
3675.470703	6503.871582
3674.719727	6399.610352
3673.968750	6581.687012
3673.217773	6514.060547
3672.466797	6699.388184
3671.715820	6808.123535
3670.963867	6397.812500
3670.212891	6766.024414
3669.460938	6808.177734
3668.708984	6890.221680
3667.957031	6533.357422
3667.205078	6655.311035
3666.453125	6541.235352
3665.701172	6581.142090
3664.948242	6621.048340
3664.196289	6660.955078
3663.443359	6700.861816
3662.690430	6740.768066
3661.937500	6780.674805
3661.184570	6753.049805
3660.431641	6725.424316
3659.678711	6697.799316
3658.924805	6670.174316
3658.171875	6642.548828
3657.417969	6614.923828
3656.664063	6723.320801
3655.910156	6984.235352
3655.156250	6784.167480
3654.402344	6889.169922
3653.648438	6831.715332
3652.893555	6860.448730
3652.139648	6660.527832
3651.384766	6752.229492
3650.629883	6771.023438
3649.875000	6783.187012
3649.120117	6907.939941
3648.365234	6833.990723
3647.610352	6882.553223
3646.854492	6811.940918
3646.099609	6877.038574
3645.343750	6952.041992
3644.587891	6815.284668
3643.832031	6966.354004
3643.076172	7008.233398
3642.320313	6752.486816
3641.564453	6695.198730
3640.808594	6846.189941
3640.051758	6973.996582
3639.294922	6939.832520
3638.539063	7077.495117
3637.782227	6970.645020
3637.025391	6962.922363
3636.267578	6961.806641
3635.510742	7102.679199
3634.753906	6936.465820
3633.996094	7169.724121
3633.239258	7122.369141
3632.481445	6943.032227
3631.723633	7060.698242
3630.965820	7085.958008
3630.208008	7150.789551
3629.449219	6955.073242
3628.691406	7148.498535
3627.933594	6998.999512
3627.174805	7017.655762
3626.416016	7326.326660
3625.657227	7176.870117
3624.898438	7244.907715
3624.139648	7233.864746
3623.380859	7262.348145
3622.621094	7248.012695
3621.862305	7312.702148
3621.102539	7334.574707
3620.342773	7135.911133
3619.583984	7226.914551
3618.824219	7110.592285
3618.063477	7352.904785
3617.303711	7114.892578
3616.543945	7386.726074
3615.783203	7461.173828
3615.023438	7328.467285
3614.262695	7340.442383
3613.501953	7303.112305
3612.741211	7308.514648
3611.980469	7448.627930
3611.219727	7335.739746
3610.458008	7206.464355
3609.697266	7228.298340
3608.935547	7368.333984
3608.173828	7265.378906
3607.412109	7365.973145
3606.650391	7276.179199
3605.888672	7494.872070
3605.126953	7421.490723
3604.365234	7453.105957
3603.602539	7451.912109
3602.839844	7296.587891
3602.078125	7315.092285
3601.315430	7379.486328
3600.552734	7302.915039
3599.790039	7557.371582
3599.026367	7467.688965
3598.263672	7427.178223
3597.500000	7386.680176
3596.737305	7562.355469
3595.973633	7508.750000
3595.209961	7435.516602
3594.446289	7489.976074
3593.682617	7348.034668
3592.918945	7454.851074
3592.154297	7391.488770
3591.390625	7455.734375
3590.625977	7601.733398
3589.861328	7423.911621
3589.096680	7694.125977
3588.332031	7437.880371
3587.567383	7590.325684
3586.802734	7442.033691
3586.038086	7512.733887
3585.272461	7455.986328
3584.506836	7262.051758
3583.742188	7476.460938
3582.976563	7507.920898
3582.210938	7545.900391
3581.445313	7508.780273
3580.678711	7487.992188
3579.913086	7676.083496
3579.146484	7439.909668
3578.380859	7386.516113
3577.614258	7515.815430
3576.847656	7449.380371
3576.081055	7532.973633
3575.314453	7665.447754
3574.547852	7618.580078
3573.780273	7438.088867
3573.013672	7648.728516
3572.246094	7409.638672
3571.478516	7493.156738
3570.710938	7368.176270
3569.943359	7725.249512
3569.175781	7606.784180
3568.408203	7410.216797
3567.639648	7562.028320
3566.872070	7625.912109
3566.103516	7501.028809
3565.334961	7545.379395
3564.567383	7638.513184
3563.798828	7295.758301
3563.029297	7447.440918
3562.260742	7403.976563
3561.492188	7428.799316
3560.722656	7359.346680
3559.953125	7468.669922
3559.184570	7525.965332
3558.415039	7391.549316
3557.645508	7445.589844
3556.875000	7450.893066
3556.105469	7352.275391
3555.335938	7480.975586
3554.565430	7645.344727
3553.794922	7339.004395
3553.025391	7338.369629
3552.254883	7337.734863
3551.484375	7337.100098
3550.712891	7336.465332
3549.942383	7335.830566
3549.171875	7335.195801
3548.400391	7334.561035
3547.628906	7333.926270
3546.858398	7333.291504
3546.086914	7332.656738
3545.315430	7332.021973
3544.542969	7331.387207
3543.771484	7330.752441
3543.000000	7330.117676
3542.227539	7329.482910
3541.455078	7328.848145
3540.682617	7328.213379
3539.911133	7327.578613
3539.137695	7306.988281
3538.365234	7402.883789
3537.592773	7547.272949
3536.819336	7390.808105
3536.046875	7328.178711
3535.273438	7453.109375
3534.500000	7367.858887
3533.726563	7399.002441
3532.953125	7168.352051
3532.179688	7461.259277
3531.406250	7579.605957
3530.631836	7307.042480
3529.857422	7354.319336
3529.083984	7324.077148
3528.309570	7410.081055
3527.535156	7512.198730
3526.760742	7436.756836
3525.985352	7451.701172
3525.210938	7389.199707
3524.436523	7346.075195
3523.661133	7367.478027
3522.885742	7253.416504
3522.110352	7510.227051
3521.334961	7109.229980
3520.559570	7443.348145
3519.784180	7181.083496
3519.008789	7399.069336
3518.232422	7410.771973
3517.456055	7325.824219
3516.680664	7363.303223
3515.904297	7349.241211
3515.127930	7531.604004
3514.351563	7256.740234
3513.574219	7377.898926
3512.797852	7286.599609
3512.020508	7359.445313
3511.244141	7219.916504
3510.466797	7305.616211
3509.689453	7317.311523
3508.912109	7210.014648
3508.134766	7353.551270
3507.356445	7268.786621
3506.579102	7241.907227
3505.800781	7378.941406
3505.023438	7442.025391
3504.245117	7148.468262
3503.466797	7246.903809
3502.688477	7297.130859
3501.910156	7276.693848
3501.130859	7275.528320
3500.352539	7322.515625
3499.573242	7266.777344
3498.794922	7493.465820
3498.015625	7264.448730
3497.236328	7224.786621
3496.457031	7297.405273
3495.677734	7116.636230
3494.897461	7189.248047
3494.118164	7281.073242
3493.337891	7228.617188
3492.557617	7253.099609
3491.777344	7332.051270
3490.998047	7426.998047
3490.216797	7425.808105
3489.436523	7392.587891
3488.656250	7263.302734
3487.875000	7322.977051
3487.094727	7395.437988
3486.313477	7141.375488
3485.532227	7457.077148
3484.750977	7401.482910
3483.969727	7435.490723
3483.188477	7261.557617
3482.406250	7305.171875
3481.625000	7249.636719
3480.842773	7270.856934
3480.060547	7336.826172
3479.278320	7175.832031
3478.496094	7340.866699
3477.713867	7304.541504
3476.931641	7424.774414
3476.148438	7391.641602
3475.366211	7246.735840
3474.583008	7309.440430
3473.799805	7183.750488
3473.016602	7316.674805
3472.233398	7328.269043
3471.450195	7333.477539
3470.666992	7392.926270
3469.882813	7484.257813
3469.099609	7329.952148
3468.315430	7261.804688
3467.531250	7241.508789
3466.747070	7390.192383
3465.962891	7510.139648
3465.178711	7508.936035
3464.394531	7287.854004
3463.609375	7509.715332
3462.825195	7384.272949
3462.040039	7348.053223
3461.254883	7401.013672
3460.469727	7297.937012
3459.684570	7182.158203
3458.899414	7461.117676
3458.113281	7354.897461
3457.328125	7251.893066
3456.541992	7298.454102
3455.755859	7386.353027
3454.969727	7340.642090
3454.183594	7460.306152
3453.397461	7471.828613
3452.611328	7394.334961
3451.824219	7262.832520
3451.038086	7490.482422
3450.250977	7447.975098
3449.463867	7386.418945
3448.676758	7328.059082
3447.889648	7482.505859
3447.102539	7509.885254
3446.315430	7295.962402
3445.527344	7361.455566
3444.740234	7630.057129
3443.952148	7235.333984
3443.164063	7237.347168
3442.375977	7401.150391
3441.587891	7438.026855
3440.799805	7478.062500
3440.011719	7337.346191
3439.222656	7317.148438
3438.434570	7411.070313
3437.645508	7384.528320
3436.856445	7316.799316
3436.067383	7407.507813
3435.278320	7311.286133
3434.489258	7294.277832
3433.699219	7467.282227
3432.910156	7336.268066
3432.120117	7483.883301
3431.330078	7349.742676
3430.540039	7335.905762
3429.750000	7280.937500
3428.959961	7406.320313
3428.169922	7221.665527
3427.378906	7391.294922
3426.588867	7412.246094
3425.797852	7303.559570
3425.006836	7289.744141
3424.215820	7332.825195
3423.424805	7277.926758
3422.633789	7393.668457
3421.842773	7332.458984
3421.050781	7359.711914
3420.259766	7358.532227
3419.467773	7433.136230
3418.675781	7365.644531
3417.883789	7272.921387
3417.091797	7249.662109
3416.299805	7289.523438
3415.506836	7203.166504
3414.714844	7239.867188
3413.921875	7323.868164
3413.128906	7329.001465
3412.336914	7217.467773
3411.543945	7200.547363
3410.750000	7366.454590
3409.957031	7283.332031
3409.164063	7222.293945
3408.370117	7429.074707
3407.576172	7207.378418
3406.783203	7354.252930
3405.989258	7302.688965
3405.195313	7333.003906
3404.400391	7193.313965
3403.606445	7280.291992
3402.812500	7477.389160
3402.017578	7290.544434
3401.222656	7380.610840
3400.427734	7303.934570
3399.633789	7381.389648
3398.837891	7200.968262
3398.042969	7281.558105
3397.248047	7274.104004
3396.452148	7087.499512
3395.657227	7183.781250
3394.861328	7386.860352
3394.065430	7074.666992
3393.269531	7218.019043
3392.473633	7377.026855
3391.677734	7341.304199
3390.880859	7151.757813
3390.084961	7332.672363
3389.288086	7268.727539
3388.491211	7346.011230
3387.694336	7206.784668
3386.897461	7412.669434
3386.100586	7524.394043
3385.302734	7262.902344
3384.505859	7227.247559
3383.708008	7238.628906
3382.911133	7297.022949
3382.113281	7214.370117
3381.315430	7398.087402
3380.517578	7378.103516
3379.718750	7401.979980
3378.920898	7266.119629
3378.123047	7449.709473
3377.324219	7276.313477
3376.525391	7394.103516
3375.726563	7258.330566
3374.927734	7388.603027
3374.128906	7196.553223
3373.330078	7214.169922
3372.530273	7347.514160
3371.731445	7430.776855
3370.931641	7379.554199
3370.131836	7406.508789
3369.332031	7274.032227
3368.532227	7225.984863
3367.732422	7209.201172
3366.932617	7398.635254
3366.131836	7191.270020
3365.332031	7227.597656
3364.531250	7282.651367
3363.730469	7322.075195
3362.929688	7320.900879
3362.128906	7425.855469
3361.327148	7281.102051
3360.526367	7233.128418
3359.725586	7272.527344
3358.923828	7293.197266
3358.122070	7345.049316
3357.320313	7368.818359
3356.518555	7426.877441
3355.716797	7269.815430
3354.915039	7125.271484
3354.112305	7292.415527
3353.310547	7241.391113
3352.507813	7209.075684
3351.705078	7301.367188
3350.902344	7362.484375
3350.099609	7383.101074
3349.296875	7360.123047
3348.493164	7290.458496
3347.690430	7398.224121
3346.886719	7269.448730
3346.083008	7311.842773
3345.279297	7270.228516
3344.475586	7349.933105
3343.671875	7230.577148
3342.868164	7443.968262
3342.063477	7330.853027
3341.259766	7230.207520
3340.455078	7322.285645
3339.650391	7470.268066
3338.845703	7357.220215
3338.041016	7194.505859
3337.236328	7205.775391
3336.431641	7251.201172
3335.625977	7246.933594
3334.821289	7214.726563
3334.015625	7257.024414
3333.209961	7296.205566
3332.404297	7295.035156
3331.598633	7411.758301
3330.791992	7212.044434
3329.986328	7257.409668
3329.180664	7355.476074
3328.374023	7199.272949
3327.567383	7133.019043
3326.760742	7293.047363
3325.954102	7418.935059
3325.147461	7408.449707
3324.339844	7456.829102
3323.533203	7384.390625
3322.725586	7243.842285
3321.918945	7310.802734
3321.111328	7377.741699
3320.303711	7308.457520
3319.496094	7236.100098
3318.687500	7402.042480
3317.879883	7345.163086
3317.071289	7439.883301
3316.263672	7426.317871
3315.455078	7381.831543
3314.646484	7124.009766
3313.837891	7345.456543
3313.029297	7285.548340
3312.219727	7191.664063
3311.411133	7243.040527
3310.601563	7266.595215
3309.792969	7317.942871
3308.983398	7344.565918
3308.173828	7355.739746
3307.364258	7234.145020
3306.553711	7412.034180
3305.744141	7463.316406
3304.933594	7465.205078
3304.124023	7152.364258
3303.313477	7330.151367
3302.502930	7328.975586
3301.692383	7272.286133
3300.881836	7400.630371
3300.070313	7313.116211
3299.259766	7416.751465
3298.448242	7409.396973
3297.637695	7118.536133
3296.826172	7447.074219
3296.014648	7294.928711
3295.203125	7355.360840
3294.390625	7295.667480
3293.579102	7340.684082
3292.766602	7240.989258
3291.955078	7267.531250
3291.142578	7349.461914
3290.330078	7305.202148
3289.517578	7199.422852
3288.705078	7247.486816
3287.891602	7397.032715
3287.079102	7275.913086
3286.265625	7225.550293
3285.453125	7221.316406
3284.639648	7266.263672
3283.826172	7504.809082
3283.012695	7420.641113
3282.198242	7262.766113
3281.384766	7461.264160
3280.570313	7321.860352
3279.756836	7231.633301
3278.942383	7218.191895
3278.127930	7392.010742
3277.313477	7228.152344
3276.499023	7174.823242
3275.683594	7366.974121
3274.869141	7270.690430
3274.053711	7220.446289
3273.238281	7308.225586
3272.423828	7245.726074
3271.608398	7256.826660
3270.791992	7479.431641
3269.976563	7269.821777
3269.161133	7213.496582
3268.344727	7261.360840
3267.528320	7428.680664
3266.712891	7277.407227
3265.896484	7334.424805
3265.080078	7336.309570
3264.262695	7319.825195
3263.446289	7309.467285
3262.629883	7161.394043
3261.812500	7175.543945
3260.995117	7226.402832
3260.177734	7255.832520
3259.360352	7193.498535
3258.542969	7302.431152
3257.725586	7359.351074
3256.907227	7404.024414
3256.089844	7372.270996
3255.271484	7303.855957
3254.453125	7342.405273
3253.634766	7387.051758
3252.816406	7330.884277
3251.998047	7326.653809
3251.179688	7371.280762
3250.360352	7217.444336
3249.541992	7268.179688
3248.722656	7233.439941
3247.903320	7439.787109
3247.083984	7310.446777
3246.264648	7327.576660
3245.444336	7372.152344
3244.625000	7279.479980
3243.804688	7421.621094
3242.985352	7115.563965
3242.165039	7388.756836
3241.344727	7448.523926
3240.524414	7362.006836
3239.703125	7458.319336
3238.882813	7377.920898
3238.061523	7312.775879
3237.241211	7256.788086
3236.419922	7416.994141
3235.598633	7427.980469
3234.777344	7289.818359
3233.956055	7361.686523
3233.134766	7439.617188
3232.312500	7319.772949
3231.490234	7428.103027
3230.668945	7344.794922
3229.846680	7419.636230
3229.024414	7427.565918
3228.202148	7499.330078
3227.378906	7458.614258
3226.556641	7320.666992
3225.733398	7264.800293
3224.911133	7436.794434
3224.087891	7283.729492
3223.264648	7440.480469
3222.441406	7545.561035
3221.618164	7507.917969
3220.793945	7376.187500
3219.970703	7523.716797
3219.146484	7331.335938
3218.322266	7145.083984
3217.498047	7341.115723
3216.673828	7346.002930
3215.849609	7432.767090
3215.025391	7549.823730
3214.201172	7545.579590
3213.375977	7474.652832
3212.550781	7485.575195
3211.725586	7163.181152
3210.900391	7389.252441
3210.075195	7339.599609
3209.250000	7550.426758
3208.424805	7452.312500
3207.598633	7511.669434
3206.772461	7395.429688
3205.947266	7594.004883
3205.121094	7728.964844
3204.294922	7706.543457
3203.467773	7463.286133
3202.641602	7465.111816
3201.815430	7494.155762
3200.988281	7632.046387
3200.161133	7379.886230
3199.333984	7671.914551
3198.506836	7483.297852
3197.679688	7563.685547
3196.852539	7535.278320
3196.024414	7518.963867
3195.197266	7484.531738
3194.369141	7570.906738
3193.541016	7566.671387
3192.712891	7577.531738
3191.884766	7724.218750
3191.056641	7457.396973
3190.227539	7622.160645
3189.399414	7488.187988
3188.570313	7532.232910
3187.741211	7585.311523
3186.913086	7635.357422
3186.083008	7510.513184
3185.253906	7527.394043
3184.424805	7541.255371
3183.594727	7521.962402
3182.765625	7460.491699
3181.935547	7603.899902
3181.105469	7738.225098
3180.275391	7544.234863
3179.445313	7398.485840
3178.615234	7514.714844
3177.784180	7471.364258
3176.954102	7581.524414
3176.123047	7577.296875
3175.291992	7621.211426
3174.460938	7659.094238
3173.629883	7531.536133
3172.798828	7620.545898
3171.966797	7592.259766
3171.135742	7386.607910
3170.303711	7481.608887
3169.471680	7633.681641
3168.639648	7539.303223
3167.807617	7676.294922
3166.975586	7524.864746
3166.143555	7598.742188
3165.310547	7459.384277
3164.478516	7575.282715
3163.645508	7571.063477
3162.812500	7515.819336
3161.979492	7496.605469
3161.146484	7420.386719
3160.312500	7482.196289
3159.479492	7726.960938
3158.645508	7524.778320
3157.812500	7418.617188
3156.978516	7819.177246
3156.144531	7686.022949
3155.310547	7504.956543
3154.475586	7665.572754
3153.641602	7442.620117
3152.807617	7552.266602
3151.972656	7655.887207
3151.137695	7651.661621
3150.302734	7572.580566
3149.467773	7412.690918
3148.632813	7710.833496
3147.796875	7503.086914
3146.961914	7433.056641
3146.125977	7608.383301
3145.290039	7738.782715
3144.455078	7656.783691
3143.618164	7547.896973
3142.782227	7573.593750
3141.946289	7665.050293
3141.109375	7580.125977
3140.273438	7635.689941
3139.436523	7565.737305
3138.599609	7462.943848
3137.762695	7629.021484
3136.925781	7568.062988
3136.088867	7617.610352
3135.250977	7574.586914
3134.414063	7624.117188
3133.576172	7634.830078
3132.738281	7666.429199
3131.900391	7662.213379
3131.062500	7440.221191
3130.224609	7525.525391
3129.385742	7709.217285
3128.547852	7618.523926
3127.708984	7566.616211
3126.870117	7717.423340
3126.031250	7650.614746
3125.192383	7354.375000
3124.353516	7654.113770
3123.514648	7727.356445
3122.674805	7675.480469
3121.835938	7683.180176
3120.996094	7634.305176
3120.156250	7451.479492
3119.316406	7375.867676
3118.476563	7452.059570
3117.635742	7397.300781
3116.795898	7598.418457
3115.955078	7644.791016
3115.114258	7545.414551
3114.274414	7639.358887
3113.433594	7644.077148
3112.591797	7598.257324
3111.750977	7647.563477
3110.910156	7476.943359
3110.068359	7550.022949
3109.226563	7602.283691
3108.384766	7731.755371
3107.542969	7685.964355
3106.701172	7687.697754
3105.859375	7615.208008
3105.017578	7611.015137
3104.174805	7615.727051
3103.332031	7430.519531
3102.490234	7687.452148
3101.647461	7724.780273
3100.803711	7604.896973
3099.960938	7793.469238
3099.118164	7970.120605
3098.274414	7580.476074
3097.431641	7760.068359
3096.587891	7640.274414
3095.744141	7710.161621
3094.900391	7492.645508
3094.056641	7722.493164
3093.211914	7647.207520
3092.368164	7637.093750
3091.523438	7508.551270
3090.678711	7563.589844
3089.833984	7772.520996
3088.989258	7611.465820
3088.144531	7574.734863
3087.299805	7570.558105
3086.454102	7610.751465
3085.609375	7585.867188
3084.763672	7569.862305
3083.917969	7743.078125
3083.072266	7706.360352
3082.226563	7631.231934
3081.380859	7697.970703
3080.534180	7714.459961
3079.688477	7636.412109
3078.841797	7836.031738
3077.995117	7645.767578
3077.148438	7665.206543
3076.301758	7640.355469
3075.455078	7600.753906
3074.607422	7581.823242
3073.760742	7427.162109
3072.913086	7656.092285
3072.065430	7716.807129
3071.217773	7644.780762
3070.370117	7581.624023
3069.522461	7621.682129
3068.673828	7809.124512
3067.826172	7687.021484
3066.977539	7482.441406
3066.128906	7755.264648
3065.280273	7780.531250
3064.431641	7505.340332
3063.583008	7842.819824
3062.734375	7714.938965
3061.884766	7548.824219
3061.035156	7597.652344
3060.186523	7746.533691
3059.336914	7751.172363
3058.487305	7738.156250
3057.636719	7639.831543
3056.787109	7720.958984
3055.937500	7740.302734
3055.086914	7700.832031
3054.236328	7708.412598
3053.385742	7921.750000
3052.535156	7732.381836
3051.684570	7813.415039
3050.833984	7929.677734
3049.982422	7593.522949
3049.130859	7830.202637
3048.280273	7699.732422
3047.428711	7716.109863
3046.577148	7735.417480
3045.725586	7845.708984
3044.873047	7741.731445
3044.021484	7687.669434
3043.168945	7630.690918
3042.316406	7726.260742
3041.464844	7554.914063
3040.612305	7700.314941
3039.758789	7763.576660
3038.906250	7697.835938
3038.053711	7746.422363
3037.200195	7759.827637
3036.346680	7752.718750
3035.493164	7733.893555
3034.639648	7802.945313
3033.786133	7614.261230
3032.932617	7779.936523
3032.079102	7720.131836
3031.224609	7631.074707
3030.370117	7609.359375
3029.515625	7786.632813
3028.661133	7726.864258
3027.806641	7637.862793
3026.952148	7791.646973
3026.097656	7702.662598
3025.242188	7581.544434
3024.386719	7820.041016
3023.532227	7810.013184
3022.676758	7595.417969
3021.820313	7716.917480
3020.964844	7774.104980
3020.109375	7848.799805
3019.252930	7870.900391
3018.397461	7624.345703
3017.541016	7707.787109
3016.684570	7785.362793
3015.828125	7851.238770
3014.970703	7692.391113
3014.114258	7772.849121
3013.256836	7797.852539
3012.400391	7679.925293
3011.542969	7588.282227
3010.685547	7843.655762
3009.828125	7690.792480
3008.970703	7692.468750
3008.112305	7912.728027
3007.254883	7730.786621
3006.396484	7621.741699
3005.538086	7777.818359
3004.679688	7706.664063
3003.821289	7757.840820
3002.962891	7884.703125
3002.104492	7793.187012
3001.245117	7620.200684
3000.385742	7709.190430
2999.527344	7792.331543
2998.667969	7852.171387
2997.808594	7705.465820
2996.948242	7704.224609
2996.088867	7778.588379
2995.229492	7695.927734
2994.369141	7729.571777
2993.508789	7678.916504
2992.648438	7761.953613
2991.788086	7720.025391
2990.927734	7617.104492
2990.067383	7592.640625
2989.206055	7876.022949
2988.344727	7781.836426
2987.484375	7705.099609
2986.623047	7880.924805
2985.761719	7676.496582
2984.899414	7683.965332
2984.038086	7790.076660
2983.176758	7733.705078
2982.314453	7770.164063
2981.452148	7626.815430
2980.589844	7709.671387
2979.727539	7606.964355
2978.865234	7660.810547
2978.002930	7633.493652
2977.139648	7809.016602
2976.276367	7645.519531
2975.414063	7815.190430
2974.550781	7654.640137
2973.687500	7995.102539
2972.824219	7770.879395
2971.959961	7737.784180
2971.096680	7745.220215
2970.232422	7801.849609
2969.368164	7849.779785
2968.503906	7755.940918
2967.639648	7644.777832
2966.775391	7877.797363
2965.911133	7844.720703
2965.045898	7814.545898
2964.181641	7764.146484
2963.316406	7823.587891
2962.451172	7802.099121
2961.585938	7835.512207
2960.720703	7868.914063
2959.854492	7752.114746
2958.989258	7935.684570
2958.123047	7660.108398
2957.256836	7797.443848
2956.391602	7862.574219
2955.524414	7985.402344
2954.658203	7958.145996
2953.791992	8034.758301
2952.924805	7750.777344
2952.058594	7746.644043
2951.191406	7987.619141
2950.324219	7778.744629
2949.457031	7898.563477
2948.589844	7914.583496
2947.722656	8017.050781
2946.854492	7972.539063
2945.986328	7977.015137
2945.119141	7944.044922
2944.250977	7735.411621
2943.382813	7906.930664
2942.513672	7983.388184
2941.645508	7884.231445
2940.777344	7926.130859
2939.908203	7806.872070
2939.039063	7929.329590
2938.169922	8045.993652
2937.300781	7898.010742
2936.431641	7997.387695
2935.562500	8050.728027
2934.692383	7963.186035
2933.822266	8042.383301
2932.953125	7974.987305
2932.083008	7947.840332
2931.212891	7995.398926
2930.341797	8028.579102
2929.471680	7857.835449
2928.601563	7968.559082
2927.730469	7952.918457
2926.859375	8040.625488
2925.988281	8113.952637
2925.117188	8015.074219
2924.246094	8142.897461
2923.375000	8075.602051
2922.502930	7979.645508
2921.630859	7789.080566
2920.759766	8174.921387
2919.887695	8007.321289
2919.015625	8155.085449
2918.142578	8047.728027
2917.270508	7768.473145
2916.397461	8050.862305
2915.525391	7972.219238
2914.652344	8137.053711
2913.779297	8015.466309
2912.906250	8034.215820
2912.033203	8256.215820
2911.159180	7965.791016
2910.286133	8233.519531
2909.412109	8031.894531
2908.538086	8127.869629
2907.664063	8035.023926
2906.790039	8105.227539
2905.916016	8101.060547
2905.041992	8102.612305
2904.166992	8147.042969
2903.291992	8148.586426
2902.417969	8075.829590
2901.542969	8108.813477
2900.666992	8210.348633
2899.791992	8054.783203
2898.916992	8201.987305
2898.041016	7746.658203
2897.165039	8082.289063
2896.290039	8041.022461
2895.414063	7959.812988
2894.538086	7952.821289
2893.661133	8174.078125
2892.785156	8061.506836
2891.908203	8157.179688
2891.032227	8061.756836
2890.155273	8057.604980
2889.278320	8036.349121
2888.401367	8049.303711
2887.523438	8190.497559
2886.646484	8231.916992
2885.768555	7991.277344
2884.891602	8061.199219
2884.013672	7928.889648
2883.135742	8064.292480
2882.256836	8060.144043
2881.378906	8067.382813
2880.500977	7969.310547
2879.622070	8044.858887
2878.743164	7963.892578
2877.865234	8138.985352
2876.985352	8038.119141
2876.106445	8042.509277
2875.227539	8078.175781
2874.348633	7988.739746
2873.468750	8001.662598
2872.588867	7980.476563
2871.708984	8226.406250
2870.829102	7926.759766
2869.949219	8044.788086
2869.069336	8097.453613
2868.188477	7959.837891
2867.308594	8029.535156
2866.427734	8002.689453
2865.546875	8109.255859
2864.666016	8139.163574
2863.785156	8106.637207
2862.903320	8082.632324
2862.022461	8118.202637
2861.140625	7844.626953
2860.258789	8158.115723
2859.376953	8015.039551
2858.495117	8053.431152
2857.613281	8188.175293
2856.731445	7985.652832
2855.848633	8075.030273
2854.965820	7960.411133
2854.083984	8163.060547
2853.201172	8017.311523
2852.318359	8228.380859
2851.434570	8096.822754
2850.551758	8089.854004
2849.667969	8000.812988
2848.785156	8044.795898
2847.901367	7933.156738
2847.017578	8076.142578
2846.133789	7987.160645
2845.249023	7957.591797
2844.365234	8055.265625
2843.480469	8206.619141
2842.596680	8165.723145
2841.711914	7898.757324
2840.827148	8103.748047
2839.942383	8096.789063
2839.056641	7990.968750
2838.171875	8051.810059
2837.286133	8010.977051
2836.401367	8015.329590
2835.515625	8121.302246
2834.629883	8105.878418
2833.743164	8084.815430
2832.857422	7953.721680
2831.971680	8073.740234
2831.084961	8047.050781
2830.198242	8161.375000
2829.311523	8191.072266
2828.424805	8040.332031
2827.538086	8188.425781
2826.651367	8246.286133
2825.763672	8202.686523
2824.876953	8145.014160
2823.989258	8151.440918
2823.101563	8157.868164
2822.213867	8164.294922
2821.325195	8170.721680
2820.437500	8127.174805
2819.549805	8066.754395
2818.661133	8327.169922
2817.772461	8252.666992
2816.883789	8065.657227
2815.995117	8027.787109
2815.106445	8237.416992
2814.216797	8157.352539
2813.328125	8175.714355
2812.438477	8165.959961
2811.548828	8083.134277
2810.659180	7868.260742
2809.769531	8049.615234
2808.879883	8228.102539
2807.989258	8134.083984
2807.099609	8275.991211
2806.208984	8111.799805
2805.318359	8239.627930
2804.427734	8257.944336
2803.537109	8186.447754
2802.646484	8319.812500
2801.754883	8270.773438
2800.863281	8218.944336
2799.972656	8231.638672
2799.081055	8339.671875
2798.189453	8285.052734
2797.296875	8115.515625
2796.405273	8237.528320
2795.513672	8188.556152
2794.621094	8167.618652
2793.728516	8407.224609
2792.835938	8030.528809
2791.943359	8295.284180
2791.050781	8240.741211
2790.157227	8323.398438
2789.264648	8224.080078
2788.371094	8413.065430
2787.477539	8299.773438
2786.583984	8485.886719
2785.690430	8252.331055
2784.796875	8312.529297
2783.903320	8386.690430
2783.008789	8270.696289
2782.114258	8417.525391
2781.219727	8508.403320
2780.325195	8252.710938
2779.430664	8229.022461
2778.536133	8250.041016
2777.640625	8539.213867
2776.746094	8479.181641
2775.850586	8561.583008
2774.955078	8239.121094
2774.059570	8232.206055
2773.164063	8348.099609
2772.267578	8519.767578
2771.372070	8496.068359
2770.475586	8475.166016
2769.579102	8479.373047
2768.683594	8438.958008
2767.786133	8348.365234
2766.889648	8358.166016
2765.993164	8381.901367
2765.095703	8327.591797
2764.199219	8518.517578
2763.301758	8383.406250
2762.404297	8434.977539
2761.506836	8522.739258
2760.608398	8529.714844
2759.710938	8442.021484
2758.812500	8435.087891
2757.914063	8453.207031
2757.016602	8446.272461
2756.118164	8547.859375
2755.218750	8410.155273
2754.320313	8328.127930
2753.421875	8412.996094
2752.522461	8375.485352
2751.623047	8382.470703
2750.723633	8634.076172
2749.824219	8479.814453
2748.924805	8420.085938
2748.025391	8435.393555
2747.125000	8461.808594
2746.224609	8543.765625
2745.325195	8395.196289
2744.424805	8657.620117
2743.523438	8445.226563
2742.623047	8499.375000
2741.722656	8489.673828
2740.821289	8446.676758
2739.919922	8625.646484
2739.019531	8671.407227
2738.118164	8431.481445
2737.215820	8477.258789
2736.314453	8448.160156
2735.413086	8552.134766
2734.510742	8531.348633
2733.608398	8408.032227
2732.706055	8550.752930
2731.803711	8488.420898
2730.901367	8406.718750
2729.999023	8452.438477
2729.095703	8531.372070
2728.193359	8344.496094
2727.290039	8478.783203
2726.386719	8574.279297
2725.483398	8398.555664
2724.579102	8554.902344
2723.675781	8642.040039
2722.771484	8372.349609
2721.868164	8492.673828
2720.963867	8388.993164
2720.059570	8517.568359
2719.155273	8499.604492
2718.250000	8567.319336
2717.345703	8471.983398
2716.440430	8578.358398
2715.536133	8554.871094
2714.630859	8570.056641
2713.725586	8452.689453
2712.819336	8567.281250
2711.914063	8626.625000
2711.007813	8459.623047
2710.102539	8596.234375
2709.196289	8390.663086
2708.290039	8681.729492
2707.383789	8611.366211
2706.477539	8607.213867
2705.570313	8495.523438
2704.664063	8574.098633
2703.756836	8399.050781
2702.849609	8618.173828
2701.942383	8459.708984
2701.035156	8846.815430
2700.127930	8550.627930
2699.219727	8461.106445
2698.312500	8465.243164
2697.404297	8483.145508
2696.496094	8624.923828
2695.587891	8829.961914
2694.679688	8501.039063
2693.770508	8502.413086
2692.862305	8583.570313
2691.953125	8744.470703
2691.043945	8602.791016
2690.134766	8450.157227
2689.225586	8426.792969
2688.316406	8466.661133
2687.406250	8572.479492
2686.497070	8491.398438
2685.586914	8514.750000
2684.676758	8708.416992
2683.766602	8465.296875
2682.856445	8573.774414
2681.946289	8717.913086
2681.035156	8439.218750
2680.124023	8509.218750
2679.213867	8749.352539
2678.302734	8717.750000
2677.391602	8409.056641
2676.479492	8624.401367
2675.568359	8702.541016
2674.657227	8616.121094
2673.745117	8466.667969
2672.833008	8610.586914
2671.920898	8598.227539
2671.008789	8594.092773
2670.096680	8581.740234
2669.183594	8536.515625
2668.270508	8721.392578
2667.358398	8465.281250
2666.445313	8732.255859
2665.532227	8613.115234
2664.619141	8532.334961
2663.705078	8522.741211
2662.791992	8584.297852
2661.877930	8610.266602
2660.963867	8630.754883
2660.049805	8574.653320
2659.135742	8652.569336
2658.221680	8555.466797
2657.306641	8608.755859
2656.392578	8675.694336
2655.477539	8420.125977
2654.562500	8503.466797
2653.647461	8488.427734
2652.732422	8555.340820
2651.817383	8701.435547
2650.901367	8604.450195
2649.986328	8649.468750
2649.070313	8593.469727
2648.154297	8540.217773
2647.238281	8557.934570
2646.321289	8622.031250
2645.405273	8811.595703
2644.489258	8635.599609
2643.572266	8797.829102
2642.655273	8793.674805
2641.738281	8871.310547
2640.821289	8629.998047
2639.903320	8653.126953
2638.986328	8643.547852
2638.068359	8751.125977
2637.151367	8730.637695
2636.233398	8571.250977
2635.315430	8744.144531
2634.396484	8655.598633
2633.478516	8588.858398
2632.559570	8818.823242
2631.641602	8860.935547
2630.722656	8737.053711
2629.803711	8890.706055
2628.884766	8840.301758
2627.965820	8901.419922
2627.045898	8706.911133
2626.125977	8950.187500
2625.207031	8704.085938
2624.287109	8873.900391
2623.367188	8747.458008
2622.447266	8824.831055
2621.526367	8771.784180
2620.606445	8849.128906
2619.685547	8812.388672
2618.764648	8846.255859
2617.843750	8733.513672
2616.922852	8797.241211
2616.001953	8793.099609
2615.080078	8645.144531
2614.159180	8641.028320
2613.237305	8726.428711
2612.315430	8676.193359
2611.393555	8712.749023
2610.471680	8795.383789
2609.548828	8810.221680
2608.626953	8816.922852
2607.704102	8918.469727
2606.781250	8770.708008
2605.858398	8853.265625
2604.935547	8591.798828
2604.012695	8937.052734
2603.089844	8816.460938
2602.166016	8806.907227
2601.242188	8970.597656
2600.318359	8915.011719
2599.394531	8878.386719
2598.470703	9085.273438
2597.546875	8699.670898
2596.622070	8811.854492
2595.698242	8688.732422
2594.773438	8781.955078
2593.848633	8818.375977
2592.923828	8971.010742
2591.998047	8856.049805
2591.073242	8889.737305
2590.147461	8915.310547
2589.222656	8857.137695
2588.296875	8790.881836
2587.371094	8770.551758
2586.445313	8950.017578
2585.518555	8908.072266
2584.592773	8936.314453
2583.666016	8832.318359
2582.739258	8785.016602
2581.812500	8799.775391
2580.885742	8900.839844
2579.958984	8964.117188
2579.031250	8919.519531
2578.104492	8945.029297
2577.176758	8846.539063
2576.249023	8772.335938
2575.321289	8897.557617
2574.393555	8976.936523
2573.465820	9029.352539
2572.537109	8944.393555
2571.608398	8924.090820
2570.680664	8809.559570
2569.751953	8977.722656
2568.823242	9078.541992
2567.893555	8867.161133
2566.964844	8879.173828
2566.035156	9044.524414
2565.105469	9018.846680
2564.176758	8882.914063
2563.246094	8868.025391
2562.316406	8982.188477
2561.386719	8835.575195
2560.456055	8898.641602
2559.526367	8864.949219
2558.595703	8919.929688
2557.665039	9039.363281
2556.734375	8798.853516
2555.802734	8974.660156
2554.872070	8852.377930
2553.940430	9087.178711
2553.009766	8876.340820
2552.078125	8842.694336
2551.146484	8870.772461
2550.213867	8791.529297
2549.282227	9047.606445
2548.349609	9062.227539
2547.417969	9009.805664
2546.485352	9123.626953
2545.552734	9079.253906
2544.620117	8941.087891
2543.686523	9003.948242
2542.753906	8962.294922
2541.820313	8968.874023
2540.887695	8924.560547
2539.954102	9137.350586
2539.020508	9224.224609
2538.085938	8984.459961
2537.152344	8908.050781
2536.217773	9069.854492
2535.284180	8988.104492
2534.349609	9208.701172
2533.415039	9068.105469
2532.480469	9047.909180
2531.544922	9059.807617
2530.610352	9349.762695
2529.674805	9110.326172
2528.739258	9156.954102
2527.803711	9235.634766
2526.868164	9153.975586
2525.932617	9128.443359
2524.997070	9124.287109
2524.060547	9093.426758
2523.124023	9102.627930
2522.187500	9042.413086
2521.250977	9032.934570
2520.314453	9180.921875
2519.377930	9152.744141
2518.440430	9143.250977
2517.503906	9232.460938
2516.566406	9148.277344
2515.628906	9250.791016
2514.691406	9211.958008
2513.752930	9234.451172
2512.815430	9299.583984
2511.876953	9151.498047
2510.938477	9189.976563
2510.000000	9305.702148
2509.061523	9490.644531
2508.123047	9142.879883
2507.184570	9152.042969
2506.245117	9076.007813
2505.306641	9220.936523
2504.367188	9115.637695
2503.427734	9175.358398
2502.487305	9062.119141
2501.547852	9140.450195
2500.608398	9120.343750
2499.667969	9097.584961
2498.727539	9290.204102
2497.787109	9203.621094
2496.846680	9095.801758
2495.906250	9261.750000
2494.964844	9015.782227
2494.024414	9144.495117
2493.083008	9158.944336
2492.141602	9253.065430
2491.200195	9177.206055
2490.258789	9311.118164
2489.317383	9137.054688
2488.375000	9281.544922
2487.432617	9017.316406
2486.490234	9129.939453
2485.547852	9208.038086
2484.605469	9190.624023
2483.663086	9154.652344
2482.720703	9227.405273
2481.777344	9111.904297
2480.833984	9025.598633
2479.890625	9257.351563
2478.947266	9057.107422
2478.003906	9111.269531
2477.059570	9075.349609
2476.116211	9309.590820
2475.171875	9323.962891
2474.227539	9248.309570
2473.283203	9111.794922
2472.338867	9136.778320
2471.394531	9053.252930
2470.449219	9205.243164
2469.503906	9312.209961
2468.559570	9191.664063
2467.614258	9139.918945
2466.667969	9236.266602
2465.722656	9210.967773
2464.777344	9338.992188
2463.831055	9052.034180
2462.884766	9150.974609
2461.938477	9249.881836
2460.992188	9074.027344
2460.045898	9341.952148
2459.099609	9131.808594
2458.152344	9119.759766
2457.205078	8909.719727
2456.257813	9098.311523
2455.310547	9125.858398
2454.363281	9121.733398
2453.416016	9225.774414
2452.467773	9226.909180
2451.520508	9162.109375
2450.572266	9326.741211
2449.624023	9080.029297
2448.675781	9104.910156
2447.726563	9116.604492
2446.778320	9028.157227
2445.829102	9192.675781
2444.879883	9206.983398
2443.930664	9134.367188
2442.981445	9182.915039
2442.032227	9005.003906
2441.083008	8945.619141
2440.132813	9017.862305
2439.182617	9247.986328
2438.232422	9138.594727
2437.282227	9131.842773
2436.332031	9230.312500
2435.381836	9239.328125
2434.430664	9093.193359
2433.480469	9018.093750
2432.529297	9095.486328
2431.578125	9270.100586
2430.626953	9113.543945
2429.674805	9175.117188
2428.723633	8973.965820
2427.771484	9190.511719
2426.819336	9010.432617
2425.867188	9106.116211
2424.915039	9091.504883
2423.962891	9029.649414
2423.010742	8999.307617
2422.057617	9234.003906
2421.104492	9088.199219
2420.151367	9057.862305
2419.198242	9158.672852
2418.245117	9267.316406
2417.291992	9063.918945
2416.337891	9015.253906
2415.383789	8929.910156
2414.430664	8980.866211
2413.475586	8819.569336
2412.521484	9064.388672
2411.567383	8853.363281
2410.612305	8982.864258
2409.658203	9067.808594
2408.703125	9042.767578
2407.748047	9127.673828
2406.792969	8843.526367
2405.837891	9040.958984
2404.881836	8892.968750
2403.925781	9087.711914
2402.970703	9046.997070
2402.013672	9016.754883
2401.058594	9044.044922
2400.101563	9019.041016
2399.144531	9012.341797
2398.189453	8851.456055
2397.232422	8941.464844
2396.275391	9028.831055
2395.318359	8933.322266
2394.361328	8971.039063
2393.404297	9092.302734
2392.445313	8942.003906
2391.488281	8956.206055
2390.529297	8894.715820
2389.572266	8893.263672
2388.613281	9050.967773
2387.656250	8861.666016
2386.697266	8917.600586
2385.738281	9083.045898
2384.779297	9146.748047
2383.820313	9033.155273
2382.861328	8841.403320
2381.902344	8970.265625
2380.943359	9052.183594
2379.982422	8930.863281
2379.023438	8973.687500
2378.064453	8935.760742
2377.103516	9113.977539
2376.142578	8714.143555
2375.183594	8907.956055
2374.222656	8937.734375
2373.261719	8847.796875
2372.300781	8854.158203
2371.339844	9047.820313
2370.378906	9007.328125
2369.417969	8956.445313
2368.455078	8801.573242
2367.494141	8815.734375
2366.533203	8931.263672
2365.570313	8973.986328
2364.609375	8767.242188
2363.646484	8635.907227
2362.683594	8891.662109
2361.720703	8672.044922
2360.757813	8852.402344
2359.794922	8897.690430
2358.832031	8797.591797
2357.869141	8837.683594
2356.906250	8745.412109
2355.943359	8767.334961
2354.978516	8835.947266
2354.015625	8818.940430
2353.050781	8874.554688
2352.085938	8893.848633
2351.123047	8856.099609
2350.158203	8766.521484
2349.193359	8796.189453
2348.228516	8794.751953
2347.263672	8798.496094
2346.298828	8651.995117
2345.333984	8686.841797
2344.367188	8729.445313
2343.402344	8813.459961
2342.437500	8718.826172
2341.470703	8725.166016
2340.503906	8814.316406
2339.539063	8600.704102
2338.572266	8780.390625
2337.605469	8892.766602
2336.638672	8707.694336
2335.671875	8701.098633
2334.705078	8937.528320
2333.738281	8845.595703
2332.771484	8683.911133
2331.802734	8796.190430
2330.835938	9032.448242
2329.867188	9142.050781
2328.900391	9280.028320
2327.931641	9203.622070
2326.962891	8992.978516
2325.994141	8815.962891
2325.027344	8739.669922
2324.058594	8836.306641
2323.089844	8623.280273
2322.119141	8668.307617
2321.150391	8927.412109
2320.181641	8644.840820
2319.210938	8597.012695
2318.242188	8863.736328
2317.271484	8720.510742
2316.302734	8626.300781
2315.332031	8557.890625
2314.361328	8827.021484
2313.390625	8768.905273
2312.419922	8612.932617
2311.449219	8673.329102
2310.478516	8751.729492
2309.507813	8765.744141
2308.537109	8826.084961
2307.564453	8760.303711
2306.593750	8619.921875
2305.621094	8541.332031
2304.650391	8683.981445
2303.677734	8481.957031
2302.705078	8871.425781
2301.732422	8736.282227
2300.759766	8575.476563
2299.787109	8612.626953
2298.814453	8606.078125
2297.841797	8622.655273
2296.869141	8775.378906
2295.896484	8712.298828
2294.921875	8656.944336
2293.949219	8645.256836
2292.974609	8666.947266
2292.000000	8652.695313
2291.027344	8666.677734
2290.052734	8570.319336
2289.078125	8697.193359
2288.103516	8690.639648
2287.128906	8717.429688
2286.154297	8803.188477
2285.177734	8714.576172
2284.203125	8841.322266
2283.228516	8642.522461
2282.251953	8743.611328
2281.277344	8770.364258
2280.300781	8797.108398
2279.324219	8682.968750
2278.347656	8707.157227
2277.371094	8557.222656
2276.394531	8645.424805
2275.417969	8733.597656
2274.441406	8744.963867
2273.464844	8812.621094
2272.488281	8662.790039
2271.509766	8612.769531
2270.533203	8649.723633
2269.554688	8607.392578
2268.578125	8751.716797
2267.599609	8837.199219
2266.621094	8669.618164
2265.642578	8655.420898
2264.664063	8774.091797
2263.685547	8708.789063
2262.707031	8842.736328
2261.728516	8772.335938
2260.750000	8806.646484
2259.769531	8631.601563
2258.791016	8701.660156
2257.810547	8684.921875
2256.832031	8785.568359
2255.851563	8756.064453
2254.871094	8716.367188
2253.890625	8712.388672
2252.910156	8611.509766
2251.929688	8773.275391
2250.949219	8789.682617
2249.968750	8795.888672
2248.988281	8674.674805
2248.005859	8696.184570
2247.025391	8651.452148
2246.042969	8734.089844
2245.062500	8676.630859
2244.080078	8802.523438
2243.097656	8694.154297
2242.115234	8603.639648
2241.132813	8770.202148
2240.150391	8654.256836
2239.167969	8691.001953
2238.185547	8926.149414
2237.203125	8690.696289
2236.218750	8630.784180
2235.236328	8924.304688
2234.253906	8988.936523
2233.269531	8758.709961
2232.285156	8726.779297
2231.300781	8651.663086
2230.318359	8911.912109
2229.333984	8747.888672
2228.349609	8512.809570
2227.365234	8765.334961
2226.378906	8799.440430
2225.394531	8653.311523
2224.410156	8644.278320
2223.423828	8729.137695
2222.439453	8610.999023
2221.453125	8863.257813
2220.468750	8732.454102
2219.482422	8776.667969
2218.496094	8628.171875
2217.509766	8629.291992
2216.523438	8749.539063
2215.537109	8788.652344
2214.550781	8764.407227
2213.564453	8808.570313
2212.576172	8832.455078
2211.589844	8691.716797
2210.601563	8794.108398
2209.615234	8736.968750
2208.626953	8826.663086
2207.638672	8761.942383
2206.650391	8904.742188
2205.664063	8607.264648
2204.675781	8825.932617
2203.685547	8824.484375
2202.697266	8817.979492
2201.708984	8606.675781
2200.720703	8711.438477
2199.730469	8768.143555
2198.742188	8473.555664
2197.751953	8654.090820
2196.763672	8862.355469
2195.773438	8934.153320
2194.783203	8738.223633
2193.792969	8671.137695
2192.802734	8715.159180
2191.812500	8668.292969
2190.822266	8724.918945
2189.832031	8804.236328
2188.839844	8807.837891
2187.849609	8919.909180
2186.857422	8633.438477
2185.867188	8924.546875
2184.875000	8617.998047
2183.882813	8828.342773
2182.892578	8834.455078
2181.900391	8812.844727
2180.908203	8884.468750
2179.916016	8822.547852
2178.921875	8866.439453
2177.929688	8864.984375
2176.937500	8747.698242
2175.943359	8751.297852
2174.951172	8873.205078
2173.957031	8896.916016
2172.964844	8900.488281
2171.970703	8881.415039
2170.976563	8839.708008
2169.982422	8782.922852
2168.988281	9010.322266
2167.994141	8714.666016
2167.000000	8919.376953
2166.005859	8850.046875
2165.009766	8871.211914
2164.015625	9020.515625
2163.019531	8785.393555
2162.025391	8982.386719
2161.029297	8915.614258
2160.033203	8733.356445
2159.039063	8837.368164
2158.042969	8916.243164
2157.046875	9020.189453
2156.050781	8835.523438
2155.052734	8987.119141
2154.056641	8953.031250
2153.060547	8886.348633
2152.062500	8844.765625
2151.066406	8911.009766
2150.068359	9009.822266
2149.072266	9008.341797
2148.074219	8821.412109
2147.076172	9007.887695
2146.078125	9076.554688
2145.080078	9042.500977
2144.082031	8915.792969
2143.083984	9134.682617
2142.085938	9150.706055
2141.085938	9144.196289
2140.087891	8939.967773
2139.087891	8948.507813
2138.089844	9094.653320
2137.089844	8900.539063
2136.089844	9146.689453
2135.089844	8920.120117
2134.089844	9228.694336
2133.089844	9079.682617
2132.089844	9118.181641
2131.089844	9054.206055
2130.089844	9015.237305
2129.089844	9003.762695
2128.087891	9064.728516
2127.087891	9040.761719
2126.085938	8886.956055
2125.083984	9175.103516
2124.082031	9143.640625
2123.082031	8979.910156
2122.080078	9168.083008
2121.078125	9064.281250
2120.076172	9050.318359
2119.072266	9098.713867
2118.070313	9037.367188
2117.068359	8991.000977
2116.064453	9221.365234
2115.062500	9035.402344
2114.058594	9203.379883
2113.054688	8972.629883
2112.052734	9063.332031
2111.048828	9146.531250
2110.044922	9187.365234
2109.041016	9136.052734
2108.037109	9097.205078
2107.031250	9180.342773
2106.027344	8912.527344
2105.023438	9222.114258
2104.017578	9068.828125
2103.013672	8972.807617
2102.007813	9100.665039
2101.001953	9029.538086
2099.998047	9120.048828
2098.992188	9195.613281
2097.986328	9012.654297
2096.980469	9088.210938
2095.972656	8897.875000
2094.966797	9266.577148
2093.960938	9135.887695
2092.955078	9010.208984
2091.947266	9177.577148
2090.939453	9121.447266
2089.933594	9306.118164
2088.925781	9106.036133
2087.917969	9293.129883
2086.910156	9269.270508
2085.902344	9066.811523
2084.894531	9067.799805
2083.886719	9128.302734
2082.878906	9188.786133
2081.871094	9209.584961
2080.861328	9106.445313
2079.853516	9263.551758
2078.843750	9115.836914
2077.833984	9181.225586
2076.826172	9152.466797
2075.816406	9046.944336
2074.806641	9154.406250
2073.796875	9016.731445
2072.787109	9146.440430
2071.777344	9065.736328
2070.765625	9398.306641
2069.755859	9433.871094
2068.744141	9085.996094
2067.734375	9141.385742
2066.722656	9006.343750
2065.712891	9121.067383
2064.701172	9171.479492
2063.689453	9046.384766
2062.677734	9306.850586
2061.666016	9176.832031
2060.654297	9153.085938
2059.642578	9250.380859
2058.628906	9271.083984
2057.617188	9032.509766
2056.605469	9282.842773
2055.591797	9194.918945
2054.578125	9102.086914
2053.566406	9251.112305
2052.552734	9200.244141
2051.539063	9100.055664
2050.525391	9076.358398
2049.511719	9104.455078
2048.498047	9287.874023
2047.484375	9283.878906
2046.468750	9398.193359
2045.455078	9194.566406
2044.439453	9126.524414
2043.425781	8982.133789
2042.410156	9327.958008
2041.394531	9225.448242
2040.380859	9228.852539
2039.365234	9119.005859
2038.349609	9287.348633
2037.333984	9219.367188
2036.316406	9340.883789
2035.300781	9388.549805
2034.285156	9202.509766
2033.267578	9178.857422
2032.251953	9312.593750
2031.234375	9195.500000
2030.218750	9358.689453
2029.201172	9165.431641
2028.183594	9060.707031
2027.166016	9091.155273
2026.148438	9212.489258
2025.130859	9181.495117
2024.113281	9170.157227
2023.093750	9163.734375
2022.076172	9086.117188
2021.056641	9317.809570
2020.039063	9291.730469
2019.019531	9216.583008
2018.001953	9094.845703
2016.982422	9260.150391
2015.962891	9329.749023
2014.943359	9296.332031
2013.923828	9079.039063
2012.904297	9278.556641
2011.882813	9218.202148
2010.863281	8954.468750
2009.843750	9161.256836
2008.822266	9230.790039
2007.802734	9138.639648
2006.781250	9115.091797
2005.759766	9245.810547
2004.738281	9161.046875
2003.716797	9232.968750
2002.695313	9187.392578
2001.673828	9136.937500
2000.652344	9186.807617
1999.630859	9163.276367
1998.609375	8995.454102
1997.585938	9023.313477
1996.564453	9078.057617
1995.541016	9108.338867
1994.517578	9253.483398
1993.494141	9115.107422
1992.472656	9057.406250
1991.449219	8982.624023
1990.425781	8898.095703
1989.400391	9143.280273
1988.376953	9078.286133
1987.353516	8947.398438
1986.328125	9168.043945
1985.304688	9110.399414
1984.279297	9025.931641
1983.255859	8970.767578
1982.230469	9088.812500
1981.205078	8875.127930
1980.179688	9058.988281
1979.154297	9030.672852
1978.128906	8999.929688
1977.103516	9098.372070
1976.078125	9138.296875
1975.050781	9027.146484
1974.025391	9103.610352
1972.998047	8955.966797
1971.972656	8878.994141
1970.945313	8892.136719
1969.917969	8859.019531
1968.892578	8835.650391
1967.865234	8882.864258
1966.837891	9041.992188
1965.808594	9030.766602
1964.781250	9012.248047
1963.753906	8969.414063
1962.724609	8873.098633
1961.697266	8988.332031
1960.667969	8967.400391
1959.640625	9055.845703
1958.611328	8762.744141
1957.582031	8768.584961
1956.552734	8779.282227
1955.523438	8918.705078
1954.494141	8883.232422
1953.464844	8957.034180
1952.435547	9013.817383
1951.404297	8827.857422
1950.375000	8816.691406
1949.343750	8885.601563
1948.314453	8857.446289
1947.283203	9011.222656
1946.251953	9082.490234
1945.222656	8782.735352
1944.191406	8902.504883
1943.158203	8852.552734
1942.126953	8911.679688
1941.095703	9038.637695
1940.064453	8978.996094
1939.031250	8994.468750
1938.000000	8816.173828
1936.966797	8831.667969
1935.935547	8929.477539
1934.902344	9005.467773
1933.869141	8878.116211
1932.835938	9009.750000
1931.802734	8967.126953
1930.769531	9045.478516
1929.736328	8910.947266
1928.703125	8817.573242
1927.667969	9024.065430
1926.634766	9199.059570
1925.599609	8967.901367
1924.566406	9191.183594
1923.531250	8923.856445
1922.496094	8939.291992
1921.460938	8923.320313
1920.425781	9083.664063
1919.390625	9108.724609
1918.355469	9037.199219
1917.320313	9178.131836
1916.285156	9123.513672
1915.248047	8907.227539
1914.212891	9036.046875
1913.175781	9097.274414
1912.138672	9160.894531
1911.103516	9046.032227
1910.066406	9005.955078
1909.029297	9047.860352
1907.992188	9241.608398
1906.955078	9095.476563
1905.917969	9038.549805
1904.878906	9256.294922
1903.841797	9047.602539
1902.802734	8790.810547
1901.765625	8998.855469
1900.726563	9108.118164
1899.687500	8988.655273
1898.650391	9247.106445
1897.611328	9207.073242
1896.572266	9260.887695
1895.533203	9211.242188
1894.494141	9091.859375
1893.453125	9215.407227
1892.414063	9269.183594
1891.375000	9272.457031
1890.333984	9249.289063
1889.292969	9019.448242
1888.253906	9183.751953
1887.212891	9170.219727
1886.171875	9151.886719
1885.130859	9167.182617
1884.089844	9074.416016
1883.048828	9123.332031
1882.007813	9129.022461
1880.964844	9163.511719
1879.923828	9114.000000
1878.880859	9184.469727
1877.839844	9142.166992
1876.796875	9318.141602
1875.753906	9143.935547
1874.712891	8921.832031
1873.669922	9347.074219
1872.626953	9206.504883
1871.583984	9092.343750
1870.539063	9162.720703
1869.496094	9115.684570
1868.453125	9183.638672
1867.408203	9129.428711
1866.365234	9324.266602
1865.320313	9143.162109
1864.275391	9237.396484
1863.230469	9228.685547
1862.187500	9217.584961
1861.142578	9144.281250
1860.095703	9231.275391
1859.050781	9071.890625
1858.005859	9058.429688
1856.960938	9111.920898
1855.914063	9021.959961
1854.869141	9092.168945
1853.822266	9061.985352
1852.775391	9084.376953
1851.730469	9051.814453
1850.683594	9157.799805
1849.636719	8958.062500
1848.589844	8997.169922
1847.541016	8955.092773
1846.494141	9072.957031
1845.447266	9011.788086
1844.400391	9122.445313
1843.351563	8953.926758
1842.302734	8988.222656
1841.255859	8936.647461
1840.207031	9035.319336
1839.158203	9007.594727
1838.109375	8965.576172
1837.060547	9057.042969
1836.011719	8926.856445
1834.962891	8794.331055
1833.912109	8854.810547
1832.863281	8931.943359
1831.814453	8920.935547
1830.763672	8840.880859
1829.712891	8953.686523
1828.664063	9054.552734
1827.613281	8891.219727
1826.562500	8920.677734
1825.511719	8926.334961
1824.460938	8893.930664
1823.408203	8951.913086
1822.357422	8974.207031
1821.306641	8929.922852
1820.253906	9035.411133
1819.203125	8972.117188
1818.150391	9003.896484
1817.097656	8943.003906
1816.046875	8948.646484
1814.994141	8911.535156
1813.941406	8929.053711
1812.888672	8953.689453
1811.833984	9011.552734
1810.781250	8779.821289
1809.728516	9146.205078
1808.673828	8907.409180
1807.621094	9036.412109
1806.566406	8963.751953
1805.511719	8985.980469
1804.458984	8861.185547
1803.404297	9056.492188
1802.349609	8924.615234
1801.294922	9048.745117
1800.238281	9023.545898
1799.183594	8941.494141
1798.128906	9037.131836
1797.072266	8985.893555
1796.017578	9107.541016
1794.960938	9034.998047
1793.906250	8953.010742
1792.849609	8894.718750
1791.792969	9058.895508
1790.736328	8955.649414
1789.679688	9053.521484
1788.623047	9059.113281
1787.564453	8998.485352
1786.507813	9145.956055
1785.451172	9021.501953
1784.392578	8965.637695
1783.335938	9042.138672
1782.277344	9102.073242
1781.218750	9273.027344
1780.160156	9169.914063
1779.101563	9071.557617
1778.042969	9122.000977
1776.984375	9094.514648
1775.925781	9043.430664
1774.865234	9056.088867
1773.806641	8934.234375
1772.746094	9053.079102
1771.687500	9193.116211
1770.626953	9005.256836
1769.566406	9062.715820
1768.507813	9056.494141
1767.447266	9080.920898
1766.386719	9022.841797
1765.324219	9191.022461
1764.263672	9283.746094
1763.203125	9286.915039
1762.140625	9052.176758
1761.080078	9074.222656
1760.017578	9032.684570
1758.957031	9014.702148
1757.894531	9055.574219
1756.832031	8997.583984
1755.769531	9104.333008
1754.707031	9121.640625
1753.644531	9115.419922
1752.582031	9071.568359
1751.517578	9166.474609
1750.455078	9148.492188
1749.390625	9172.829102
1748.328125	9051.432617
1747.263672	9101.627930
1746.199219	9053.122070
1745.136719	9093.902344
1744.072266	9153.459961
1743.007813	9151.937500
1741.941406	9169.199219
1740.876953	8904.734375
1739.812500	9194.316406
1738.748047	9007.381836
1737.681641	9240.534180
1736.615234	9107.614258
1735.550781	9077.950195
1734.484375	9259.375977
1733.417969	9089.000000
1732.351563	9314.909180
1731.285156	9203.183594
1730.218750	9196.963867
1729.152344	9181.374023
1728.085938	9271.222656
1727.017578	9225.169922
1725.951172	9254.083008
1724.882813	9343.874023
1723.814453	9222.906250
1722.748047	9272.874023
1721.679688	9481.989258
1720.611328	9368.078125
1719.542969	9193.368164
1718.474609	9423.447266
1717.404297	9321.296875
1716.335938	9076.519531
1715.267578	9306.501953
1714.197266	9279.235352
1713.128906	9125.750977
1712.058594	9187.333984
1710.988281	9230.203125
1709.917969	9422.584961
1708.847656	9329.912109
1707.777344	9141.511719
1706.707031	9359.498047
1705.636719	9341.595703
1704.566406	9097.259766
1703.494141	9144.758789
1702.423828	9152.570313
1701.351563	9274.708984
1700.281250	9037.543945
1699.208984	9271.620117
1698.136719	9188.452148
1697.064453	9200.911133
1695.992188	9234.348633
1694.919922	9221.155273
1693.847656	9291.866211
1692.773438	9364.882813
1691.701172	9242.174805
1690.626953	9266.257813
1689.554688	9213.476563
1688.480469	9379.600586
1687.406250	9217.390625
1686.332031	9139.037109
1685.257813	9353.964844
1684.183594	9224.418945
1683.109375	9104.221680
1682.035156	9258.564453
1680.960938	9361.686523
1679.884766	9355.474609
1678.810547	9251.610352
1677.734375	9184.976563
1676.658203	9174.148438
1675.583984	9365.506836
1674.507813	9224.531250
1673.431641	9260.164063
1672.355469	9367.791992
1671.279297	9261.721680
1670.201172	9202.127930
1669.125000	9325.960938
1668.048828	9057.463867
1666.970703	9076.840820
1665.892578	9184.389648
1664.816406	9264.060547
1663.738281	9060.702148
1662.660156	9156.602539
1661.582031	9271.020508
1660.503906	9322.800781
1659.425781	9281.836914
1658.347656	9143.541992
1657.267578	9227.758789
1656.189453	9365.239258
1655.109375	9081.051758
1654.031250	9142.075195
1652.951172	9235.498047
1651.871094	9069.561523
1650.791016	9056.473633
1649.710938	9286.428711
1648.630859	9023.366211
1647.550781	9278.702148
1646.470703	9207.749023
1645.388672	9148.384766
1644.308594	9005.781250
1643.226563	8897.911133
1642.146484	9074.447266
1641.064453	9200.069336
1639.982422	8925.813477
1638.900391	9025.999023
1637.818359	9061.458984
1636.736328	9371.800781
1635.654297	9324.043945
1634.570313	8989.954102
1633.488281	9006.923828
1632.406250	9201.642578
1631.322266	8950.831055
1630.238281	8880.105469
1629.156250	8880.929688
1628.072266	8775.634766
1626.988281	9025.584961
1625.904297	8950.280273
1624.820313	8815.049805
1623.734375	9032.590820
1622.650391	8971.152344
1621.566406	8810.633789
1620.480469	9028.067383
1619.396484	8964.354492
1618.310547	8983.588867
1617.224609	8892.267578
1616.138672	8879.268555
1615.052734	8827.134766
1613.966797	8986.795898
1612.880859	8925.454102
1611.794922	8900.952148
1610.708984	9069.723633
1609.621094	8909.480469
1608.535156	8933.291992
1607.447266	8876.608398
1606.359375	8838.336914
1605.273438	8751.801758
1604.185547	8927.323242
1603.097656	8843.099609
1602.009766	8807.156250
1600.921875	8964.201172
1599.832031	8905.279297
1598.744141	9034.695313
1597.654297	8792.085938
1596.566406	8887.040039
1595.476563	8949.826172
1594.388672	9021.771484
1593.298828	8985.843750
1592.208984	8871.922852
1591.119141	8902.553711
1590.029297	9068.491211
1588.939453	8993.595703
1587.847656	8925.602539
1586.757813	8988.295898
1585.666016	8824.064453
1584.576172	8845.504883
1583.484375	8979.206055
1582.392578	9016.648438
1581.302734	8980.784180
1580.210938	9057.144531
1579.119141	9206.748047
1578.025391	9022.065430
1576.933594	8983.934570
1575.841797	9051.086914
1574.750000	9289.827148
1573.656250	9155.583984
1572.562500	9106.017578
1571.470703	9022.163086
1570.376953	9027.513672
1569.283203	9302.636719
1568.189453	9282.793945
1567.095703	9301.809570
1566.001953	8964.347656
1564.908203	9268.997070
1563.812500	9169.220703
1562.718750	9165.402344
1561.623047	9296.314453
1560.529297	9137.220703
1559.433594	9242.982422
1558.337891	9170.681641
1557.242188	9182.838867
1556.146484	9407.183594
1555.050781	9371.390625
1553.955078	9472.460938
1552.859375	9495.960938
1551.761719	9355.285156
1550.666016	9178.180664
1549.568359	9418.254883
1548.472656	9382.493164
1547.375000	9287.500977
1546.277344	9534.270508
1545.179688	9384.615234
1544.082031	9323.831055
1542.984375	9383.750977
1541.886719	9334.369141
1540.787109	9371.502930
1539.689453	9342.623047
1538.589844	9329.680664
1537.492188	9282.615234
1536.392578	9351.579102
1535.292969	9204.452148
1534.193359	9305.241211
1533.095703	9301.408203
1531.994141	9156.636719
1530.894531	9302.838867
1529.794922	9164.931641
1528.695313	9331.532227
1527.593750	9368.587891
1526.494141	9380.646484
1525.392578	9326.842773
1524.291016	9220.833984
1523.189453	9316.907227
1522.089844	9101.983398
1520.988281	9313.786133
1519.884766	9223.731445
1518.783203	9147.319336
1517.681641	9195.689453
1516.580078	9214.559570
1515.476563	9312.787109
1514.373047	9336.166016
1513.271484	9184.993164
1512.167969	9187.986328
1511.064453	9240.831055
1509.960938	9207.563477
1508.857422	9135.796875
1507.753906	9168.238281
1506.650391	9300.307617
1505.544922	9260.257813
1504.441406	9276.815430
1503.335938	9263.943359
1502.232422	9101.718750
1501.126953	9238.211914
1500.021484	9035.324219
1498.916016	9210.233398
1497.810547	9186.074219
1496.705078	9143.834961
1495.599609	9203.339844
1494.494141	9034.532227
1493.386719	9017.198242
1492.281250	9117.366211
1491.173828	9095.503906
1490.068359	8827.438477
1488.960938	8984.048828
1487.853516	9057.057617
1486.746094	8863.635742
1485.638672	8945.668945
1484.531250	8932.883789
1483.423828	8906.562500
1482.314453	8972.753906
1481.207031	8937.411133
1480.097656	9080.257813
1478.990234	8936.667969
1477.880859	9081.719727
1476.771484	8805.175781
1475.662109	9044.864258
1474.552734	8975.741211
1473.443359	9111.675781
1472.333984	8970.475586
1471.224609	8824.818359
1470.113281	9071.056641
1469.003906	9008.740234
1467.892578	9045.499023
1466.783203	8965.201172
1465.671875	8907.433594
1464.560547	9047.695313
1463.449219	8915.692383
1462.337891	8992.922852
1461.226563	9088.119141
1460.115234	9005.643555
1459.001953	9105.301758
1457.890625	9101.524414
1456.777344	9055.046875
1455.666016	9055.773438
1454.552734	9153.108398
1453.439453	9129.107422
1452.326172	9159.017578
1451.212891	9096.848633
1450.099609	9366.991211
1448.986328	9028.693359
1447.873047	9143.888672
1446.757813	9238.847656
1445.644531	8965.808594
1444.529297	9226.770508
1443.414063	9198.305664
1442.300781	9172.091797
1441.185547	9181.761719
1440.070313	8985.181641
1438.955078	9142.814453
1437.839844	9127.831055
1436.722656	9218.166016
1435.607422	9167.330078
1434.492188	9129.950195
1433.375000	9090.343750
1432.257813	9066.424805
1431.142578	9082.811523
1430.025391	9235.736328
1428.908203	9274.468750
1427.791016	9169.976563
1426.673828	9325.045898
1425.556641	9283.213867
1424.437500	9002.085938
1423.320313	9248.787109
1422.201172	9236.052734
1421.083984	9247.913086
1419.964844	9087.669922
1418.845703	9133.070313
1417.726563	9194.094727
1416.607422	9096.490234
1415.488281	9119.530273
1414.369141	9236.353516
1413.250000	9178.981445
1412.128906	9206.458984
1411.009766	9142.413086
1409.888672	9172.119141
1408.769531	9264.290039
1407.648438	9162.341797
1406.527344	9073.809570
1405.406250	9172.640625
1404.285156	8977.106445
1403.164063	9095.984375
1402.042969	9065.476563
1400.919922	9155.326172
1399.798828	8959.925781
1398.675781	9158.929688
1397.554688	8961.365234
1396.431641	8997.719727
1395.308594	9078.596680
1394.185547	9114.917969
1393.062500	8966.465820
1391.939453	8895.960938
1390.816406	8910.041016
1389.693359	9006.437500
1388.568359	8960.430664
1387.445313	8958.922852
1386.320313	9041.918945
1385.197266	8902.544922
1384.072266	8883.262695
1382.947266	8970.673828
1381.822266	8853.604492
1380.697266	8992.094727
1379.572266	9066.113281
1378.445313	8955.749023
1377.320313	8858.747070
1376.195313	8948.292969
1375.068359	9051.128906
1373.941406	8960.817383
1372.816406	9036.984375
1371.689453	8895.669922
1370.562500	9005.099609
1369.435547	8874.928711
1368.308594	8951.056641
1367.179688	8985.028320
1366.052734	8996.817383
1364.923828	9044.068359
1363.796875	9060.275391
1362.667969	8978.975586
1361.541016	9132.552734
1360.412109	9186.393555
1359.283203	9074.105469
1358.154297	8851.131836
1357.025391	9195.036133
1355.894531	9113.792969
1354.765625	9001.591797
1353.636719	9130.638672
1352.505859	9089.273438
1351.376953	9089.954102
1350.246094	9201.225586
1349.115234	9195.251953
1347.984375	9129.581055
1346.853516	9207.627930
1345.722656	9137.554688
1344.591797	9124.964844
1343.460938	9094.702148
1342.328125	9236.768555
1341.197266	9124.768555
1340.064453	9277.824219
1338.933594	9163.646484
1337.800781	9223.917969
1336.667969	9213.533203
1335.535156	9240.670898
1334.402344	9274.418945
1333.269531	9288.298828
1332.134766	9247.026367
1331.001953	9179.301758
1329.869141	9268.164063
1328.734375	9213.686523
1327.599609	9209.928711
1326.466797	9325.187500
1325.332031	9253.098633
1324.197266	9143.577148
1323.062500	9203.715820
1321.927734	9173.530273
1320.791016	9345.953125
1319.656250	9185.848633
1318.519531	9219.521484
1317.384766	9261.986328
1316.248047	9223.012695
1315.113281	9197.252930
1313.976563	9239.699219
1312.839844	9381.111328
1311.703125	9357.536133
1310.566406	9208.636719
1309.427734	9160.915039
1308.291016	9102.219727
1307.154297	8975.414063
1306.015625	9215.605469
1304.878906	9290.943359
1303.740234	9148.793945
1302.601563	9206.546875
1301.462891	8901.965820
1300.324219	9043.168945
1299.185547	9217.250977
1298.046875	9108.152344
1296.906250	9104.420898
1295.767578	9030.481445
1294.626953	9186.897461
1293.488281	9066.911133
1292.347656	8942.578125
1291.207031	8973.956055
1290.066406	9117.122070
1288.925781	9146.266602
1287.785156	9072.405273
1286.644531	9103.739258
1285.503906	9034.291016
1284.361328	8886.014648
1283.220703	9013.719727
1282.078125	8872.065430
1280.937500	9041.323242
1279.794922	9072.627930
1278.652344	8937.599609
1277.509766	8903.268555
1276.367188	9100.845703
1275.224609	9046.811523
1274.080078	8907.503906
1272.937500	8989.089844
1271.794922	9072.833008
1270.650391	9018.839844
1269.505859	8884.000977
1268.363281	8932.756836
1267.218750	9062.332031
1266.074219	8910.078125
1264.929688	8906.388672
1263.783203	8933.270508
1262.638672	8981.975586
1261.494141	8836.385742
1260.347656	8821.796875
1259.203125	8831.215820
1258.056641	8923.540039
1256.910156	8919.849609
1255.763672	8822.375000
1254.617188	9043.313477
1253.470703	9102.833008
1252.324219	9225.550781
1251.177734	8888.334961
1250.031250	9017.584961
1248.882813	9061.815430
1247.734375	9258.524414
1246.587891	9084.887695
1245.439453	8859.043945
1244.291016	9171.086914
1243.142578	9128.172852
1241.994141	9011.266602
1240.845703	9059.796875
1239.697266	8988.635742
1238.546875	9026.274414
1237.398438	9174.833008
1236.248047	9208.077148
1235.099609	9321.763672
1233.949219	8996.251953
1232.798828	9146.887695
1231.648438	9051.887695
1230.498047	9143.792969
1229.347656	9131.381836
1228.197266	9329.680664
1227.044922	9269.461914
1225.894531	9439.440430
1224.742188	9353.168945
1223.591797	9269.096680
1222.439453	9350.002930
1221.287109	9196.518555
1220.134766	9351.176758
1218.982422	9505.781250
1217.830078	9250.409180
1216.677734	9177.281250
1215.523438	9195.241211
1214.371094	9254.382813
1213.216797	9430.545898
1212.064453	9216.575195
1210.910156	9249.681641
1209.755859	9304.440430
1208.601563	9164.242188
1207.447266	9333.773438
1206.292969	9366.835938
1205.136719	9293.808594
1203.982422	9398.294922
1202.828125	9502.746094
1201.671875	9137.622070
1200.515625	9456.258789
1199.361328	9240.515625
1198.205078	9535.236328
1197.048828	9284.955078
1195.892578	9311.487305
1194.736328	9338.009766
1193.578125	9219.722656
1192.421875	9293.790039
1191.265625	9402.399414
1190.107422	9474.249023
1188.949219	9459.685547
1187.792969	9334.997070
1186.634766	9344.209961
1185.476563	9353.419922
1184.318359	9483.489258
1183.160156	9535.830078
1182.000000	9519.110352
1180.841797	9323.349609
1179.681641	9455.492188
1178.523438	9494.861328
1177.363281	9253.925781
1176.203125	9549.846680
1175.044922	9513.742188
1173.884766	9525.058594
1172.724609	9331.681641
1171.562500	9515.365234
1170.402344	9500.828125
1169.242188	9542.288086
1168.080078	9652.633789
1166.919922	9384.049805
1165.757813	9481.469727
1164.595703	9525.054688
1163.433594	9519.135742
1162.271484	9614.331055
1161.109375	9539.567383
1159.947266	9692.792969
1158.785156	9587.936523
1157.621094	10003.385742
1156.458984	9730.850586
1155.294922	9778.629883
1154.132813	9796.309570
1152.968750	9927.848633
1151.804688	9805.873047
1150.640625	9840.719727
1149.476563	9860.522461
1148.312500	10000.548828
1147.146484	9975.239258
1145.982422	10102.319336
1144.818359	9933.227539
1143.652344	10131.073242
1142.486328	9923.419922
1141.320313	10056.855469
1140.156250	10173.090820
1138.990234	10109.186523
1137.822266	10126.763672
1136.656250	10369.382813
1135.490234	10331.191406
1134.324219	10432.281250
1133.156250	10338.394531
1131.988281	10522.980469
1130.822266	10540.466797
1129.654297	10592.205078
1128.486328	10620.376953
1127.318359	10764.121094
1126.150391	10706.652344
1124.982422	10846.052734
1123.812500	10829.234375
1122.644531	10936.481445
1121.474609	11084.325195
1120.306641	10892.139648
1119.136719	11258.001953
1117.966797	11070.126953
1116.796875	10980.623047
1115.626953	11292.863281
1114.457031	11147.804688
1113.287109	11306.114258
1112.115234	11423.791016
1110.945313	11298.000977
1109.773438	11486.092773
1108.603516	11441.448242
1107.431641	11704.148438
1106.259766	11507.976563
1105.087891	11674.568359
1103.916016	11785.640625
1102.744141	11700.458008
1101.572266	11984.213867
1100.398438	12003.497070
1099.226563	11992.929688
1098.052734	11961.051758
1096.880859	12135.888672
1095.707031	11988.943359
1094.533203	12170.106445
1093.359375	12395.934570
1092.185547	12389.567383
1091.011719	12361.910156
1089.837891	12474.762695
1088.662109	12449.228516
1087.488281	12502.441406
1086.312500	12753.511719
1085.138672	12855.583008
1083.962891	13015.046875
1082.787109	12800.170898
1081.611328	13074.407227
1080.435547	13010.532227
1079.259766	13012.569336
1078.082031	13040.107422
1076.906250	13222.748047
1075.728516	13207.751953
1074.552734	13262.854492
1073.375000	13332.804688
1072.197266	13309.301758
1071.019531	13563.920898
1069.841797	13608.310547
1068.664063	13648.440430
1067.486328	13854.066406
1066.308594	13785.939453
1065.128906	13927.834961
1063.951172	13830.025391
1062.771484	14037.599609
1061.591797	14200.579102
1060.412109	13971.346680
1059.232422	14346.221680
1058.052734	14303.516602
1056.873047	14241.758789
1055.693359	14343.130859
1054.513672	14503.771484
1053.332031	14738.471680
1052.152344	14649.155273
1050.970703	14784.256836
1049.789063	14887.564453
1048.607422	14908.306641
1047.425781	14857.104492
1046.244141	15222.659180
1045.062500	15175.649414
1043.880859	15156.146484
1042.697266	15329.055664
1041.515625	15411.003906
1040.332031	15573.241211
1039.150391	15650.892578
1037.966797	15580.612305
1036.783203	15727.948242
1035.599609	15759.063477
1034.416016	15819.733398
1033.232422	15848.708984
1032.046875	15919.896484
1030.863281	15980.505859
1029.677734	16332.328125
1028.494141	16278.904297
1027.308594	16179.083984
1026.123047	16553.892578
1024.937500	16449.841797
1023.751953	16231.960938
1022.566406	16492.722656
1021.380859	16361.330078
1020.193359	16423.873047
1019.007813	16737.146484
1017.820313	16605.777344
1016.634766	16859.931641
1015.447266	16739.117188
1014.259766	16698.359375
1013.072266	16750.250000
1011.884766	16896.849609
1010.697266	17159.152344
1009.509766	16947.900391
1008.320313	16810.359375
1007.132813	16900.048828
1005.943359	16907.681641
1004.753906	17060.408203
1003.566406	17381.281250
1002.376953	17239.574219
1001.187500	17163.072266
999.998047	17061.376953
998.806641	17247.560547
997.617188	17219.408203
996.427734	17130.357422
995.236328	17205.132813
994.046875	17156.005859
992.855469	17224.451172
991.664063	17145.951172
990.472656	17329.794922
989.281250	17123.312500
988.089844	17103.607422
986.898438	16995.814453
985.705078	17049.535156
984.513672	17342.267578
983.320313	17209.330078
982.126953	17298.617188
980.935547	17151.062500
979.742188	16963.744141
978.548828	17021.601563
977.355469	16993.560547
976.162109	17187.517578
974.966797	17017.070313
973.773438	17097.906250
972.578125	17157.781250
971.384766	17014.630859
970.189453	17154.013672
968.994141	16699.187500
967.798828	16830.207031
966.603516	16670.478516
965.408203	16912.281250
964.212891	16765.134766
963.015625	16810.347656
961.820313	16709.248047
960.623047	16593.554688
959.427734	16774.572266
958.230469	16848.994141
957.033203	16940.099609
955.835938	16720.033203
954.638672	16850.796875
953.441406	16618.296875
952.244141	16671.808594
951.044922	16752.427734
949.847656	16686.972656
948.648438	16604.851563
947.449219	16664.582031
946.251953	16603.345703
945.052734	16717.263672
943.853516	16649.783203
942.654297	16661.525391
941.453125	16423.197266
940.253906	16624.576172
939.054688	16650.898438
937.853516	16506.417969
936.652344	16578.564453
935.453125	16523.675781
934.251953	16602.039063
933.050781	16428.523438
931.849609	16517.279297
930.646484	16601.843750
929.445313	16494.986328
928.244141	16398.566406
927.041016	16551.732422
925.839844	16388.796875
924.636719	16296.599609
923.433594	16464.253906
922.230469	16351.291992
921.027344	16469.007813
919.824219	16108.862305
918.621094	16340.822266
917.417969	16304.796875
916.212891	16214.796875
915.009766	16332.433594
913.804688	16333.789063
912.599609	16194.020508
911.394531	16062.597656
910.189453	16045.326172
908.984375	15959.607422
907.779297	16116.568359
906.574219	16005.983398
905.367188	16096.538086
904.162109	15816.016602
902.955078	15875.484375
901.750000	15914.208984
900.542969	15785.103516
899.335938	15550.398438
898.128906	15676.142578
896.921875	15551.284180
895.712891	15482.368164
894.505859	15372.075195
893.298828	15493.623047
892.089844	15093.658203
890.880859	15194.521484
889.673828	15189.849609
888.464844	15137.609375
887.255859	15120.541016
886.046875	15049.720703
884.835938	14873.497070
883.626953	14854.414063
882.417969	14612.156250
881.207031	14754.281250
879.998047	14648.463867
878.787109	14517.897461
877.576172	14612.467773
876.365234	14325.031250
875.154297	14444.374023
873.943359	14303.609375
872.732422	14084.473633
871.519531	14226.490234
870.308594	14054.889648
869.095703	14128.795898
867.884766	14144.933594
866.671875	13853.843750
865.458984	13851.468750
864.246094	14011.926758
863.033203	14001.281250
861.820313	13656.840820
860.605469	13846.090820
859.392578	13744.846680
858.177734	13515.954102
856.964844	13560.994141
855.750000	13517.494141
854.535156	13517.233398
853.320313	13344.100586
852.105469	13247.160156
850.890625	13014.469727
849.675781	13051.319336
848.458984	13308.210938
847.244141	13116.752930
846.027344	13100.111328
844.810547	12970.420898
843.595703	12974.360352
842.378906	12756.376953
841.162109	12877.456055
839.943359	12846.488281
838.726563	12907.950195
837.509766	12893.415039
836.291016	12772.124023
835.074219	12737.087891
833.855469	12767.739258
832.636719	12718.351563
831.417969	12744.891602
830.199219	12529.367188
828.980469	12715.904297
827.761719	12469.699219
826.542969	12531.116211
825.322266	12496.166016
824.103516	12530.912109
822.882813	12676.301758
821.664063	12766.323242
820.443359	12522.408203
819.222656	12733.264648
818.001953	12841.657227
816.779297	12859.925781
815.558594	12655.055664
814.337891	12401.134766
813.115234	12564.760742
811.894531	12795.849609
810.671875	12675.001953
809.449219	12531.696289
808.226563	12464.104492
807.003906	12686.871094
805.781250	12584.521484
804.558594	12688.642578
803.333984	12576.110352
802.111328	12800.745117
800.886719	12547.273438
799.664063	12688.092773
798.439453	12418.388672
797.214844	12724.567383
795.990234	12571.312500
794.765625	12687.535156
793.541016	12740.455078
792.314453	12572.991211
791.089844	12560.629883
789.863281	12950.093750
788.638672	12627.688477
787.412109	12652.023438
786.185547	12692.660156
784.958984	12804.622070
783.732422	12747.395508
782.505859	12702.413086
781.279297	12793.942383
780.050781	12911.918945
778.824219	12701.969727
777.595703	12644.807617
776.367188	12829.930664
775.140625	12784.978516
773.912109	12624.037109
772.683594	12758.196289
771.453125	12656.313477
770.224609	12922.637695
768.996094	12993.628906
767.765625	12659.948242
766.537109	12726.893555
765.306641	12854.796875
764.076172	12769.257813
762.845703	12895.076172
761.615234	13096.021484
760.384766	13110.018555
759.154297	12819.366211
757.921875	12847.619141
756.691406	12914.435547
755.458984	12977.168945
754.228516	12885.634766
752.996094	12893.562500
751.763672	12974.525391
750.531250	13087.916016
749.298828	12917.326172
748.066406	12975.935547
746.832031	13154.144531
745.599609	13166.069336
744.365234	13017.875000
743.132813	13046.029297
741.898438	12966.791992
740.664063	13165.103516
739.429688	13256.002930
738.195313	13116.018555
736.960938	13251.436523
735.724609	13295.712891
734.490234	13058.641602
733.255859	13388.265625
732.019531	13009.629883
730.783203	13397.812500
729.546875	13199.314453
728.310547	13184.906250
727.074219	13447.500000
725.837891	13148.017578
724.601563	13143.730469
723.363281	13272.819336
722.126953	13213.958008
720.888672	13393.492188
719.650391	13401.282227
718.414063	13326.272461
717.175781	13352.242188
715.937500	13244.965820
714.697266	13385.988281
713.458984	13573.375977
712.220703	13458.044922
710.980469	13364.943359
709.742188	13423.148438
708.501953	13521.666992
707.261719	13384.242188
706.021484	13307.343750
704.781250	13563.046875
703.541016	13516.371094
702.300781	13441.502930
701.058594	13461.344727
699.818359	13491.250000
698.576172	13565.449219
697.335938	13526.866211
696.093750	13349.385742
694.851563	13510.121094
693.609375	13415.215820
692.367188	13642.285156
691.123047	13662.060547
689.880859	13446.490234
688.638672	13526.624023
687.394531	13817.858398
686.150391	13646.600586
684.908203	13646.254883
683.664063	13674.044922
682.419922	13681.731445
681.175781	13603.027344
679.929688	13705.129883
678.685547	13839.329102
677.439453	13764.652344
676.195313	13942.962891
674.949219	13810.082031
673.703125	13793.648438
672.458984	13945.774414
671.212891	13923.303711
669.964844	13942.963867
668.718750	14036.822266
667.472656	13817.835938
666.224609	14041.998047
664.978516	13851.148438
663.730469	13676.398438
662.482422	13946.554688
661.234375	13934.127930
659.986328	14089.966797
658.738281	13983.388672
657.490234	14053.059570
656.242188	13924.500000
654.992188	14058.212891
653.744141	13835.629883
652.494141	13979.315430
651.244141	13744.818359
649.994141	13952.480469
648.744141	13924.068359
647.494141	13873.669922
646.244141	13887.266602
644.994141	13826.895508
643.742188	14040.357422
642.492188	14001.960938
641.240234	13885.658203
639.988281	13829.322266
638.738281	13784.989258
637.486328	14068.162109
636.232422	13983.871094
634.980469	13745.900391
633.728516	13819.366211
632.474609	13842.917969
631.222656	14048.021484
629.968750	13921.913086
628.714844	13845.708984
627.462891	13958.973633
626.208984	14004.410156
624.953125	13898.328125
623.699219	14204.855469
622.445313	14031.020508
621.191406	14116.258789
619.935547	14376.770508
618.679688	14113.366211
617.425781	14248.330078
616.169922	14329.487305
614.914063	14376.775391
613.658203	14386.229492
612.400391	14322.049805
611.144531	14606.081055
609.888672	14510.055664
608.630859	14666.661133
607.373047	14749.633789
606.117188	14693.396484
604.859375	14611.335938
603.601563	14960.610352
602.343750	14789.103516
601.083984	14746.804688
599.826172	14917.082031
598.568359	15188.596680
597.308594	15201.853516
596.048828	15084.060547
594.791016	15198.574219
593.531250	15499.623047
592.271484	15338.178711
591.011719	15615.287109
589.750000	15590.760742
588.490234	15774.505859
587.230469	15684.515625
585.968750	15981.198242
584.707031	15897.149414
583.447266	16191.708984
582.185547	16012.528320
580.923828	16178.172852
579.662109	16123.862305
578.398438	16128.991211
577.136719	16276.704102
575.875000	16392.685547
574.611328	16132.485352
573.347656	16495.867188
572.085938	16176.368164
570.822266	16575.232422
569.558594	16388.375000
568.292969	16512.125000
567.029297	16269.968750
565.765625	16273.080078
564.500000	16460.044922
563.236328	16648.921875
561.970703	16377.263672
560.705078	16457.412109
559.439453	16519.751953
558.173828	16485.283203
556.908203	16612.767578
555.642578	16469.693359
554.376953	16620.824219
553.109375	16667.289063
551.843750	16816.359375
550.576172	16476.027344
549.308594	16676.371094
548.041016	16636.001953
546.773438	16721.861328
545.505859	16718.960938
544.238281	16534.685547
542.968750	16673.736328
541.701172	16639.310547
540.431641	16685.683594
539.164063	16566.552734
537.894531	16898.537109
536.625000	16667.152344
535.355469	16955.681641
534.085938	17061.017578
532.814453	17014.751953
531.544922	17137.753906
530.273438	17099.359375
529.003906	16909.492188
527.732422	17069.818359
526.460938	17031.455078
525.189453	17018.666016
523.917969	17314.542969
522.646484	17095.312500
521.375000	17096.275391
520.101563	17327.138672
518.830078	17239.650391
517.556641	17323.083984
516.283203	17367.210938
515.011719	17438.810547
513.738281	17445.597656
512.462891	17391.531250
511.189453	17698.597656
509.916016	17497.335938
508.642578	17619.859375
507.367188	17777.644531
506.091797	17715.718750
504.818359	17665.580078
503.542969	17903.656250
502.267578	17826.058594
500.992188	17709.287109
499.714844	17827.699219
498.439453	18012.681641
497.164063	17772.533203
495.886719	17816.447266
494.609375	18224.562500
493.333984	17992.330078
492.056641	18008.777344
490.779297	18081.974609
489.501953	18041.650391
488.222656	17887.867188
486.945313	18029.509766
485.666016	17959.876953
484.388672	17956.753906
483.109375	17814.820313
481.830078	17698.345703
480.550781	17724.583984
479.271484	17789.894531
477.992188	17802.429688
476.712891	17686.035156
475.433594	17829.437500
474.152344	17662.308594
472.871094	17647.521484
471.591797	17609.314453
470.310547	17584.781250
469.029297	17571.964844
467.748047	17566.957031
466.466797	17719.953125
465.183594	17447.722656
463.902344	17376.437500
462.619141	17229.138672
461.337891	17368.439453
460.054688	17501.845703
458.771484	17473.466797
457.488281	17599.011719
456.205078	17295.962891
454.921875	17355.275391
453.638672	17365.884766
452.353516	17643.220703
451.070313	17426.021484
449.785156	17551.441406
448.500000	17651.519531
447.214844	17660.119141
445.929688	17390.544922
444.644531	17403.074219
443.359375	17890.076172
442.072266	17850.019531
440.787109	17893.564453
439.500000	17830.197266
438.214844	17782.396484
436.927734	17822.042969
435.640625	18092.835938
434.353516	18027.533203
433.066406	18078.763672
431.777344	18054.257813
430.490234	18078.287109
429.203125	18391.496094
427.914063	18491.138672
426.625000	18695.513672
425.335938	18457.535156
424.046875	18659.904297
422.757813	18577.146484
421.468750	18915.140625
420.179688	18776.150391
418.888672	18815.515625
417.599609	18808.359375
416.308594	18932.953125
415.017578	18596.466797
413.728516	18934.099609
412.437500	19006.320313
411.144531	19008.814453
409.853516	18935.810547
408.562500	19164.761719
407.269531	19099.496094
405.978516	19103.904297
404.685547	19042.539063
403.392578	19188.142578
402.099609	19269.880859
400.806641	19185.314453
399.513672	19228.361328
398.220703	19016.271484
396.927734	18889.279297
395.632813	18746.873047
394.337891	19002.455078
393.044922	18806.000000
391.750000	18673.335938
390.455078	18789.783203
389.160156	18722.800781
387.865234	18633.208984
386.568359	18543.617188
385.273438	18454.025391
383.976563	18364.433594
382.681641	18484.666016
381.384766	18223.037109
380.087891	18129.238281
378.791016	18237.878906
377.494141	18238.548828
376.197266	18165.992188
374.898438	18114.652344
373.601563	18292.566406
372.302734	18250.851563
371.005859	18078.205078
369.707031	18334.968750
368.408203	18000.666016
367.109375	18124.548828
365.810547	17938.572266
364.509766	18027.789063
363.210938	18078.501953
361.910156	17784.923828
360.611328	17974.115234
359.310547	18049.802734
358.009766	18071.638672
356.708984	17983.914063
355.408203	18074.931641
354.107422	17971.865234
352.804688	17918.779297
351.503906	17713.980469
350.201172	17747.371094
348.900391	17669.390625
347.597656	17806.433594
346.294922	17778.371094
344.992188	17744.558594
343.689453	17781.748047
342.386719	17556.117188
341.082031	17627.847656
339.779297	17599.837891
338.474609	17502.812500
337.169922	17833.300781
335.867188	17475.609375
334.562500	17422.730469
333.257813	17302.810547
331.951172	17449.201172
330.646484	17419.335938
329.341797	17454.587891
328.035156	17194.978516
326.728516	17237.912109
325.423828	17319.109375
324.117188	17197.435547
322.810547	17146.595703
321.503906	17202.896484
320.195313	17287.865234
318.888672	17284.839844
317.580078	17063.855469
316.273438	17146.890625
314.964844	17302.523438
313.656250	17140.888672
312.347656	16986.953125
311.039063	17089.042969
309.730469	17286.591797
308.421875	17084.970703
307.111328	17255.720703
305.802734	17319.511719
304.492188	17306.935547
303.181641	17456.564453
301.871094	17295.152344
300.560547	17358.888672
299.250000	17403.529297
297.939453	17417.642578
296.628906	17250.626953
295.316406	17365.792969
294.005859	17248.396484
292.693359	17159.625000
291.380859	17486.224609
290.068359	17557.453125
288.755859	17318.210938
287.443359	17318.984375
286.130859	17312.142578
284.816406	17364.312500
283.503906	17268.011719
282.189453	17365.837891
280.875000	17395.138672
279.560547	17285.566406
278.246094	17214.068359
276.931641	17241.476563
275.617188	17179.515625
274.300781	17111.873047
272.986328	17373.052734
271.669922	17179.984375
270.355469	17385.960938
269.039063	17118.873047
267.722656	17286.802734
266.406250	17327.445313
265.089844	17326.306641
263.771484	17279.607422
262.455078	17246.210938
261.136719	17152.103516
259.820313	17177.554688
258.501953	17161.263672
257.183594	17452.220703
255.865234	17107.837891
254.546875	17311.490234
253.228516	17132.164063
251.908203	17301.625000
250.589844	17226.583984
249.269531	17269.031250
247.949219	17317.144531
246.628906	17266.757813
245.310547	17167.156250
243.988281	17255.019531
242.667969	17342.851563
241.347656	17421.187500
240.025391	17397.314453
238.705078	17575.884766
237.382813	17570.908203
236.060547	17541.345703
234.738281	17428.593750
233.416016	17633.498047
232.093750	17679.548828
230.771484	17740.703125
229.449219	17520.285156
228.125000	17732.583984
226.800781	17746.470703
225.478516	17431.734375
224.154297	17628.830078
222.830078	17820.189453
221.505859	17603.761719
220.181641	17477.996094
218.855469	17874.957031
217.531250	17568.074219
216.205078	17817.748047
214.878906	17825.933594
213.554688	17692.695313
212.228516	17834.751953
210.902344	17582.804688
209.574219	17858.638672
208.248047	18059.003906
206.921875	17763.816406
205.593750	17856.759766
204.265625	17814.072266
202.939453	17989.822266
201.611328	18161.744141
200.283203	18079.496094
198.955078	17846.716797
197.625000	18078.785156
196.296875	18017.285156
194.968750	18369.623047
193.638672	18223.462891
192.308594	18274.787109
190.978516	18307.294922
189.648438	18557.828125
188.318359	18548.925781
186.988281	18447.957031
185.658203	18645.728516
184.326172	18792.714844
182.996094	18849.505859
181.664063	19105.308594
180.332031	19197.691406
179.000000	19196.191406
177.667969	19083.966797
176.335938	18990.544922
175.003906	19126.029297
173.669922	19297.101563
172.337891	19237.445313
171.003906	19376.562500
169.669922	19305.664063
168.335938	19407.230469
167.001953	19418.806641
165.667969	19518.443359
164.333984	19258.353516
163.000000	19567.763672
161.664063	19230.974609
160.328125	19448.529297
158.994141	19445.105469
157.658203	19529.654297
156.322266	19539.314453
154.986328	19558.326172
153.650391	19710.154297
152.312500	19663.664063
150.976563	19813.546875
149.638672	19746.486328
148.302734	19939.298828
146.964844	19883.451172
145.626953	20051.875000
144.289063	20218.371094
142.949219	20214.808594
141.611328	20541.843750
140.273438	20881.835938
138.933594	20857.619141
137.595703	21147.029297
136.255859	20990.253906
134.916016	20995.884766
133.576172	21135.851563
132.236328	21182.494141
130.894531	21258.962891
129.554688	21316.753906
128.212891	21579.619141
126.873047	21491.927734
125.531250	21603.697266
124.189453	21793.691406
122.847656	21909.093750
121.505859	21970.429688
120.164063	21476.712891
118.820313	22005.513672
117.478516	21912.263672
116.134766	21994.029297
114.792969	21880.339844
113.449219	21699.697266
112.105469	21688.427734
110.761719	21792.494141
109.417969	21861.185547
108.072266	22229.242188
106.728516	22586.013672
105.382813	22474.210938
104.039063	22276.953125
102.693359	22273.023438
101.347656	22150.185547
100.001953	22424.916016
98.654297	22797.984375
97.308594	22675.117188
95.962891	22910.619141
94.615234	22821.185547
93.269531	23238.460938
91.921875	23169.412109
90.574219	23387.957031
89.226563	23320.759766
87.878906	23168.271484
86.529297	23609.216797
85.181641	23477.123047
83.832031	23639.808594
82.484375	23518.873047
81.134766	23588.839844
79.785156	23160.410156
78.435547	23113.714844
77.085938	23041.107422
75.736328	23544.404297
74.384766	23451.380859
73.035156	23117.751953
71.683594	22919.341797
70.332031	22776.513672
68.982422	22300.720703
67.630859	22444.759766
66.279297	22387.162109
64.925781	21900.593750
63.574219	21667.478516
62.220703	21565.681641
60.869141	21334.552734
59.515625	21341.869141
58.162109	20584.335938
56.808594	19614.650391
55.455078	18870.615234
54.101563	18213.626953
52.748047	17831.947266
51.392578	17317.501953
