#Wave		#Intensity
4002.114258	3747.724609
4001.416016	3787.099121
4000.717773	3883.121094
4000.018555	3782.303467
3999.320313	3756.651367
3998.621094	3806.128174
3997.921875	3809.093018
3997.223633	3736.960205
3996.524414	3750.661377
3995.824219	3803.682129
3995.125000	3828.091064
3994.425781	3795.312256
3993.725586	3876.885010
3993.026367	3819.100586
3992.326172	3772.050537
3991.625977	3839.302002
3990.925781	3770.838379
3990.225586	3770.232422
3989.525391	3744.638672
3988.825195	3854.680420
3988.125000	3782.689697
3987.423828	3807.057861
3986.723633	3802.878662
3986.022461	3912.840088
3985.321289	3837.319580
3984.620117	3790.348633
3983.918945	4310.256836
3983.217773	4830.165527
3982.516602	5350.073730
3981.814453	5869.982422
3981.113281	6389.890625
3980.411133	6909.799316
3979.708984	7429.707520
3979.006836	6951.399414
3978.304688	6473.091309
3977.602539	6597.480469
3976.900391	6721.870117
3976.198242	6846.259766
3975.495117	6970.648926
3974.792969	6707.529785
3974.089844	6444.410645
3973.386719	6181.291504
3972.683594	6539.222168
3971.980469	6897.153320
3971.277344	7255.083984
3970.574219	7613.015137
3969.870117	7970.945801
3969.166992	7188.103027
3968.462891	6405.260254
3967.759766	7029.380859
3967.055664	6349.931152
3966.351563	3959.192383
3965.647461	3795.243896
3964.943359	3823.031982
3964.238281	3893.400635
3963.534180	3985.037842
3962.829102	3760.874023
3962.125000	3838.313477
3961.419922	3887.352783
3960.714844	3929.283936
3960.009766	3957.018555
3959.304688	3864.209229
3958.599609	3845.865723
3957.893555	4015.360352
3957.188477	3791.479004
3956.482422	3808.584229
3955.777344	3818.599609
3955.071289	3938.405029
3954.365234	3743.008789
3953.659180	3898.193604
3952.953125	3791.366943
3952.246094	3854.468262
3951.540039	3846.771484
3950.833008	3817.847168
3950.126953	3796.007568
3949.419922	3742.340332
3948.712891	3816.008301
3948.005859	3797.715088
3947.298828	3768.821533
3946.591797	3725.797363
3945.884766	3880.710205
3945.176758	3894.222168
3944.469727	3642.739014
3943.761719	3917.700195
3943.053711	3751.063477
3942.345703	3912.910645
3941.637695	3880.503906
3940.929688	3901.062988
3940.221680	3819.250977
3939.513672	3673.938965
3938.804688	3698.049805
3938.095703	3856.220947
3937.387695	3876.766846
3936.678711	3823.239990
3935.969727	3723.886719
3935.260742	3864.322510
3934.551758	3705.064697
3933.841797	3796.112305
3933.132813	3971.709961
3932.422852	3897.077148
3931.713867	3759.053955
3931.003906	3663.344482
3930.293945	3800.109619
3929.583984	3855.840576
3928.874023	3890.429199
3928.164063	3840.521973
3927.453125	3889.180176
3926.743164	3740.755371
3926.032227	3866.820557
3925.322266	3795.841309
3924.611328	3745.989014
3923.900391	3755.937988
3923.189453	3762.367432
3922.478516	3754.732178
3921.766602	3894.733643
3921.055664	3739.468750
3920.344727	4012.958496
3919.632813	3913.938721
3918.920898	3906.284912
3918.208984	3782.728027
3917.497070	3680.281006
3916.785156	3883.337158
3916.073242	3823.033691
3915.361328	3843.480225
3914.648438	3962.185303
3913.936523	3722.943848
3913.223633	3806.546631
3912.510742	3830.489990
3911.797852	3959.642090
3911.084961	3822.247070
3910.372070	3909.285889
3909.659180	3835.042480
3908.945313	3855.456543
3908.232422	3931.934570
3907.518555	3829.692383
3906.804688	3836.084229
3906.091797	3898.517334
3905.377930	3771.814453
3904.663086	3820.231201
3903.949219	3861.630371
3903.235352	3829.506592
3902.520508	3940.888916
3901.806641	3796.783447
3901.091797	3845.156982
3900.376953	3938.991699
3899.662109	3910.378418
3898.947266	3860.791504
3898.232422	3884.647705
3897.517578	3911.992188
3896.802734	3876.410156
3896.086914	3865.303711
3895.372070	3728.406006
3894.656250	3892.012939
3893.940430	3863.443115
3893.224609	3695.177979
3892.508789	3879.663574
3891.792969	3917.447510
3891.076172	3829.545654
3890.360352	3821.950439
3889.643555	3873.684326
3888.927734	3876.552002
3888.210938	3928.260254
3887.494141	4028.785645
3886.777344	3937.462402
3886.060547	3898.473633
3885.342773	3849.037842
3884.625977	3911.166260
3883.909180	3931.450684
3883.191406	3721.733643
3882.473633	3682.810059
3881.755859	3884.270996
3881.038086	3914.995605
3880.320313	3754.170898
3879.602539	3896.329590
3878.884766	3770.373535
3878.166016	4016.909424
3877.448242	3880.533447
3876.729492	3859.032471
3876.010742	3983.663818
3875.291992	3909.973633
3874.573242	3857.175293
3873.854492	3762.663818
3873.135742	3810.737549
3872.416016	3872.701172
3871.697266	3892.934814
3870.977539	3746.348633
3870.257813	3881.261719
3869.539063	4047.398926
3868.819336	3935.594238
3868.099609	3837.717529
3867.378906	3972.529053
3866.659180	3833.014404
3865.938477	3808.099854
3865.218750	3894.259521
3864.498047	3917.926758
3863.777344	3809.737305
3863.056641	3847.286865
3862.335938	3839.732422
3861.615234	3877.264893
3860.894531	3987.602539
3860.173828	3914.157471
3859.452148	4017.520508
3858.730469	3843.585449
3858.009766	4030.092773
3857.288086	3935.899414
3856.566406	3969.909668
3855.844727	3962.345703
3855.122070	3937.468994
3854.400391	3922.987305
3853.678711	3808.114746
3852.956055	3984.033691
3852.233398	4000.698730
3851.510742	3785.520996
3850.788086	3964.818359
3850.065430	3881.163086
3849.342773	3928.960693
3848.620117	3935.246582
3847.896484	4052.169922
3847.173828	3830.276611
3846.450195	3874.595215
3845.727539	3932.722656
3845.003906	3973.555176
3844.280273	3948.734863
3843.555664	3816.843506
3842.832031	3957.829102
3842.108398	3898.492676
3841.383789	3925.487305
3840.660156	3862.722900
3839.935547	3896.617188
3839.210938	3937.402344
3838.486328	3912.618896
3837.761719	3815.399170
3837.037109	4070.026123
3836.312500	3807.278076
3835.586914	3865.284668
3834.862305	3992.222900
3834.136719	3991.582764
3833.411133	3984.049805
3832.685547	4035.098877
3831.959961	3927.647217
3831.234375	3854.677734
3830.508789	3953.941162
3829.782227	3918.870850
3829.056641	3959.559570
3828.330078	3890.073730
3827.603516	4044.339355
3826.876953	3933.564941
3826.150391	3895.084473
3825.423828	3897.900146
3824.697266	3997.028809
3823.970703	3917.285645
3823.243164	3954.482910
3822.516602	3833.514160
3821.789063	3702.271484
3821.061523	3986.951172
3820.333984	3979.438965
3819.606445	3913.518311
3818.878906	3813.264893
3818.151367	3908.828613
3817.422852	3976.887207
3816.695313	3935.044922
3815.966797	3855.450928
3815.238281	3933.783203
3814.509766	3891.967529
3813.781250	3942.816406
3813.052734	4000.510742
3812.324219	3855.791504
3811.595703	3964.929199
3810.866211	4032.879883
3810.136719	3805.934570
3809.408203	4072.725342
3808.678711	3832.135498
3807.949219	3807.531250
3807.219727	4022.794678
3806.489258	3974.185547
3805.759766	3935.868164
3805.030273	3955.786621
3804.299805	3845.572510
3803.569336	3954.518311
3802.839844	3936.768066
3802.109375	3966.941406
3801.378906	3997.104980
3800.647461	3958.826172
3799.916992	4064.245117
3799.186523	3892.566895
3798.455078	3847.482910
3797.723633	3969.965820
3796.993164	4106.084961
3796.261719	3852.469482
3795.530273	3848.434082
3794.798828	4073.355225
3794.066406	3987.284912
3793.334961	3894.409668
3792.602539	3999.668945
3791.871094	3971.707275
3791.138672	3919.853027
3790.406250	3997.745850
3789.673828	4106.333984
3788.941406	4003.289795
3788.208984	3982.174316
3787.476563	4189.653809
3786.743164	3854.682373
3786.010742	3966.616699
3785.277344	4030.773438
3784.543945	4060.813477
3783.810547	3957.891357
3783.077148	4025.426758
3782.343750	3966.846436
3781.610352	4201.320801
3780.875977	3979.202148
3780.142578	3896.812988
3779.408203	4052.853271
3778.673828	3851.296143
3777.939453	3908.558105
3777.205078	3931.760498
3776.470703	4094.501953
3775.736328	3967.933350
3775.000977	4028.541992
3774.266602	3888.416748
3773.531250	3836.772705
3772.795898	4132.031738
3772.061523	3971.554932
3771.326172	4004.916016
3770.589844	4065.459961
3769.854492	4078.402832
3769.119141	3955.416748
3768.382813	3930.999756
3767.647461	3971.134033
3766.911133	4035.030762
3766.174805	4030.988281
3765.438477	4118.622559
3764.702148	3988.957764
3763.965820	4103.725098
3763.229492	3970.710449
3762.492188	4078.657227
3761.755859	4088.181396
3761.018555	4070.565674
3760.281250	4032.605713
3759.543945	4181.165527
3758.806641	3970.283936
3758.069336	4091.686279
3757.332031	3979.179688
3756.593750	3985.319580
3755.856445	4038.894287
3755.118164	4143.268555
3754.379883	4074.859375
3753.641602	4189.354492
3752.903320	3968.582275
3752.165039	3947.632568
3751.426758	3919.919434
3750.688477	4098.671387
3749.949219	3996.494873
3749.210938	4060.139893
3748.471680	4150.827637
3747.732422	3974.279297
3746.993164	4058.187988
3746.253906	4030.487549
3745.514648	3968.988281
3744.774414	4015.674805
3744.035156	4082.624512
3743.294922	4017.767090
3742.554688	3983.337402
3741.815430	4057.015625
3741.075195	4100.272949
3740.334961	3947.653076
3739.593750	4031.430664
3738.853516	4216.457031
3738.113281	4016.637451
3737.372070	4127.361328
3736.630859	4140.197266
3735.890625	4153.028320
3735.149414	4098.392090
3734.408203	4097.735352
3733.666016	4090.334717
3732.924805	4140.252441
3732.183594	4163.186035
3731.441406	4064.775391
3730.699219	3989.985596
3729.958008	4144.337891
3729.215820	4200.943848
3728.473633	4075.643555
3727.731445	4115.403809
3726.988281	4188.823242
3726.246094	4036.651123
3725.502930	4093.228760
3724.760742	4031.991943
3724.017578	4031.345703
3723.274414	4121.541992
3722.531250	4023.325928
3721.788086	4163.945801
3721.044922	4055.665771
3720.300781	4011.304932
3719.557617	4182.115723
3718.813477	4013.380859
3718.070313	4113.560059
3717.326172	4149.863281
3716.582031	4135.759766
3715.837891	4084.709961
3715.092773	4225.116699
3714.348633	4009.523682
3713.604492	4099.534180
3712.859375	4135.804199
3712.114258	3950.537109
3711.369141	4094.208008
3710.624023	4143.882813
3709.878906	4042.573730
3709.133789	3994.965820
3708.388672	4121.768555
3707.642578	4037.277588
3706.897461	4053.394043
3706.151367	4160.013184
3705.405273	4286.707520
3704.659180	4131.871582
3703.913086	4091.003174
3703.166992	4174.097656
3702.420898	4119.837402
3701.673828	4132.572754
3700.927734	4108.472168
3700.180664	4238.379883
3699.433594	4184.143555
3698.687500	4230.328125
3697.940430	4246.381836
3697.192383	4182.132813
3696.445313	3950.645996
3695.698242	4167.414063
3694.950195	4002.885742
3694.202148	4189.483887
3693.455078	4131.980957
3692.707031	4184.798828
3691.958984	4133.999023
3691.210938	4196.823730
3690.461914	4125.992676
3689.713867	4142.033203
3688.964844	4174.768066
3688.216797	4100.634766
3687.467773	4213.495117
3686.718750	4212.819824
3685.969727	4135.378418
3685.220703	3921.138916
3684.471680	4070.657959
3683.721680	4156.743652
3682.972656	4046.004883
3682.222656	4238.786621
3681.473633	4034.705078
3680.723633	4127.408691
3679.973633	4123.414063
3679.223633	4052.763184
3678.472656	4235.392090
3677.722656	4108.105469
3676.972656	4120.771973
3676.221680	4230.025879
3675.470703	4275.971191
3674.719727	4175.395996
3673.968750	4144.765137
3673.217773	4020.942871
3672.466797	4160.077148
3671.715820	4162.738281
3670.963867	4288.497070
3670.212891	4207.975098
3669.460938	4200.648926
3668.708984	4329.666504
3667.957031	4126.156250
3667.205078	4185.333008
3666.453125	4191.310059
3665.701172	4197.285156
3664.948242	4263.067383
3664.196289	4255.739746
3663.443359	4401.211426
3662.690430	4171.347656
3661.937500	4310.145020
3661.184570	4266.293457
3660.431641	4368.515625
3659.678711	4215.141602
3658.924805	4244.332520
3658.171875	4326.601074
3657.417969	4269.511719
3656.664063	4305.313477
3655.910156	4304.624023
3655.156250	4234.301758
3654.402344	4256.830566
3653.648438	4468.292969
3652.893555	4172.611328
3652.139648	4175.256348
3651.384766	4323.679688
3650.629883	4120.916504
3649.875000	4275.925293
3649.120117	4255.370605
3648.365234	4416.929688
3647.610352	4204.349609
3646.854492	4163.956055
3646.099609	4229.478027
3645.343750	4175.857910
3644.587891	4244.665039
3643.832031	4286.987305
3643.076172	4395.442383
3642.320313	4325.295410
3641.564453	4149.370117
3640.808594	4323.909668
3640.051758	4148.040527
3639.294922	4395.227051
3638.539063	4335.048340
3637.782227	4159.261719
3637.025391	4333.659668
3636.267578	4296.636719
3635.510742	4292.646484
3634.753906	4255.642090
3633.996094	4344.086914
3633.239258	4346.691406
3632.481445	4329.495605
3631.723633	4516.867188
3630.965820	4519.442383
3630.208008	4370.293457
3629.449219	4333.317383
3628.691406	4444.730469
3627.933594	4424.237793
3627.174805	4407.048340
3626.416016	4403.046387
3625.657227	4323.256836
3624.898438	4493.885742
3624.139648	4318.577637
3623.380859	4387.051270
3622.621094	4386.348633
3621.862305	4270.407227
3621.102539	4510.039063
3620.342773	4334.868652
3619.583984	4495.430176
3618.824219	4415.740234
3618.063477	4503.859863
3617.303711	4378.142578
3616.543945	4328.108398
3615.783203	4537.867188
3615.023438	4435.218750
3614.262695	4536.413086
3613.501953	4437.084473
3612.741211	4367.363281
3611.980469	4488.233887
3611.219727	4454.663086
3610.458008	4490.080566
3609.697266	4564.895508
3608.935547	4403.269043
3608.173828	4524.036133
3607.412109	4382.163086
3606.650391	4401.153320
3605.888672	4561.240234
3605.126953	4603.161621
3604.365234	4510.572266
3603.602539	4539.368652
3602.839844	4555.038574
3602.078125	4485.453125
3601.315430	4520.795898
3600.552734	4615.127441
3599.790039	4463.634277
3599.026367	4531.730469
3598.263672	4524.452148
3597.500000	4523.727539
3596.737305	4503.351563
3595.973633	4597.594727
3595.209961	4531.375977
3594.446289	4504.461426
3593.682617	4484.101074
3592.918945	4503.018066
3592.154297	4682.257813
3591.390625	4511.390137
3590.625977	4654.589844
3589.861328	4568.812500
3589.096680	4568.080566
3588.332031	4462.728027
3587.567383	4605.843750
3586.802734	4487.445313
3586.038086	4467.119141
3585.272461	4515.413086
3584.506836	4553.891113
3583.742188	4559.694336
3582.976563	4669.998535
3582.210938	4486.398438
3581.445313	4498.738770
3580.678711	4540.452148
3579.913086	4575.624512
3579.146484	4434.577637
3578.380859	4596.997070
3577.614258	4560.377930
3576.847656	4628.139648
3576.081055	4601.310059
3575.314453	4616.875488
3574.547852	4580.275879
3573.780273	4882.671875
3573.013672	4614.656738
3572.246094	4571.558105
3571.478516	4460.057129
3570.710938	4498.431152
3569.943359	4559.590820
3569.175781	4552.347656
3568.408203	4509.292969
3567.639648	4576.931152
3566.872070	4550.160156
3566.103516	4617.770020
3565.334961	4656.075195
3564.567383	4417.845703
3563.798828	4677.352051
3563.029297	4605.055176
3562.260742	4454.742188
3561.492188	4636.090820
3560.722656	4609.343262
3559.953125	4439.601074
3559.184570	4546.125000
3558.415039	4490.163086
3557.645508	4551.165527
3556.875000	4634.884277
3556.105469	4520.480469
3555.335938	4510.015137
3554.565430	4616.424805
3553.794922	4544.275391
3553.025391	4576.000977
3552.254883	4442.228027
3551.484375	4405.828613
3550.712891	4476.487305
3549.942383	4482.256348
3549.171875	4355.069824
3548.400391	4610.511230
3547.628906	4434.718262
3546.858398	4537.727051
3546.086914	4692.554199
3545.315430	4422.866211
3544.542969	4499.910156
3543.771484	4541.297852
3543.000000	4540.570313
3542.227539	4484.794922
3541.455078	4577.966797
3540.682617	4535.151367
3539.911133	4466.457031
3539.137695	4465.741211
3538.365234	4474.732422
3537.592773	4525.775879
3536.819336	4550.926758
3536.046875	4443.476563
3535.273438	4507.433594
3534.500000	4403.257324
3533.726563	4548.010742
3532.953125	4502.035645
3532.179688	4523.934082
3531.406250	4452.129883
3530.631836	4364.197266
3529.857422	4563.747559
3529.083984	4456.449219
3528.309570	4604.259766
3527.535156	4467.934082
3526.760742	4480.129395
3525.985352	4569.774414
3525.210938	4452.880371
3524.436523	4548.953125
3523.661133	4474.033203
3522.885742	4541.044922
3522.110352	4517.745117
3521.334961	4587.952148
3520.559570	4484.061035
3519.784180	4538.135254
3519.008789	4353.720703
3518.232422	4372.355469
3517.456055	4490.852539
3516.680664	4416.049316
3515.904297	4460.429199
3515.127930	4546.654785
3514.351563	4384.951172
3513.574219	4567.730469
3512.797852	4418.949219
3512.020508	4501.908203
3511.244141	4353.185059
3510.466797	4529.417969
3509.689453	4615.534668
3508.912109	4331.797363
3508.134766	4469.364258
3507.356445	4449.358887
3506.579102	4570.791016
3505.800781	4447.933105
3505.023438	4431.153809
3504.245117	4440.082520
3503.466797	4474.706055
3502.688477	4647.424316
3501.910156	4489.328613
3501.130859	4527.138184
3500.352539	4609.878418
3499.573242	4390.879395
3498.794922	4521.752930
3498.015625	4598.036621
3497.236328	4520.304199
3496.457031	4532.410156
3495.677734	4506.026855
3494.897461	4412.312988
3494.118164	4629.621094
3493.337891	4500.655762
3492.557617	4512.754883
3491.777344	4483.190430
3490.998047	4428.003418
3490.216797	4606.691895
3489.436523	4586.735840
3488.656250	4682.076172
3487.875000	4463.589844
3487.094727	4562.120605
3486.313477	4506.973145
3485.532227	4592.663574
3484.750977	4563.127930
3483.969727	4514.405273
3483.188477	4587.256836
3482.406250	4522.553711
3481.625000	4739.286133
3480.842773	4597.841797
3480.060547	4597.104980
3479.278320	4558.011719
3478.496094	4630.786133
3477.713867	4562.941895
3476.931641	4590.964355
3476.148438	4542.313965
3475.366211	4752.376953
3474.583008	4620.690430
3473.799805	4476.274902
3473.016602	4600.056152
3472.233398	4529.100098
3471.450195	4557.095703
3470.666992	4508.504395
3469.882813	4517.352539
3469.099609	4513.438965
3468.315430	4493.580566
3467.531250	4550.256836
3466.747070	4552.715820
3465.962891	4641.240723
3465.178711	4595.876953
3464.394531	4499.541016
3463.609375	4639.009766
3462.825195	4520.398438
3462.040039	4624.782715
3461.254883	4700.471680
3460.469727	4495.936523
3459.684570	4625.743164
3458.899414	4551.791016
3458.113281	4627.442871
3457.328125	4477.145020
3456.541992	4606.870605
3455.755859	4542.511719
3454.969727	4624.477051
3454.183594	4576.036133
3453.397461	4591.200195
3452.611328	4600.001465
3451.824219	4529.337402
3451.038086	4500.009766
3450.250977	4502.466309
3449.463867	4714.600586
3448.676758	4656.668945
3447.889648	4700.385742
3447.102539	4556.738281
3446.315430	4486.159668
3445.527344	4694.951660
3444.740234	4589.460449
3443.952148	4411.014648
3443.164063	4591.162109
3442.375977	4688.770020
3441.587891	4602.378418
3440.799805	4614.326172
3440.011719	4569.194336
3439.222656	4587.484375
3438.434570	4593.088867
3437.645508	4579.675293
3436.856445	4483.876465
3436.067383	4619.395508
3435.278320	4491.942871
3434.489258	4595.743652
3433.699219	4671.009766
3432.910156	4679.759766
3432.120117	4669.512695
3431.330078	4595.962891
3430.540039	4633.203613
3429.750000	4483.741211
3428.959961	4552.625000
3428.169922	4611.996582
3427.378906	4706.139160
3426.588867	4582.058105
3425.797852	4673.013672
3425.006836	4590.073242
3424.215820	4573.533691
3423.424805	4636.004395
3422.633789	4512.033691
3421.842773	4536.583984
3421.050781	4567.443359
3420.259766	4765.675781
3419.467773	4540.717773
3418.675781	4618.918945
3417.883789	4523.479004
3417.091797	4639.531250
3416.299805	4660.876953
3415.506836	4732.698242
3414.714844	4709.856934
3413.921875	4639.711426
3413.128906	4601.124512
3412.336914	4527.865234
3411.543945	4659.548828
3410.750000	4567.391113
3409.957031	4648.600098
3409.164063	4461.940918
3408.370117	4524.237305
3407.576172	4608.563965
3406.783203	4598.376465
3405.989258	4484.272949
3405.195313	4672.467773
3404.400391	4517.463867
3403.606445	4507.297363
3402.812500	4585.250977
3402.017578	4568.783203
3401.222656	4646.701660
3400.427734	4545.299316
3399.633789	4620.051758
3398.837891	4622.455566
3398.042969	4618.570313
3397.248047	4690.130859
3396.452148	4591.945313
3395.657227	4622.634277
3394.861328	4555.911133
3394.065430	4671.416504
3393.269531	4598.424316
3392.473633	4484.629395
3391.677734	4590.670410
3390.880859	4345.054199
3390.084961	4554.669434
3389.288086	4626.124512
3388.491211	4471.621582
3387.694336	4527.379395
3386.897461	4507.831543
3386.100586	4648.250000
3385.302734	4641.232910
3384.505859	4643.624023
3383.708008	4602.125000
3382.911133	4551.235840
3382.113281	4628.854980
3381.315430	4537.242676
3380.517578	4624.237793
3379.718750	4610.966797
3378.920898	4629.019043
3378.123047	4459.178711
3377.324219	4505.428223
3376.525391	4629.923340
3375.726563	4557.192383
3374.927734	4590.885254
3374.128906	4655.856934
3373.330078	4551.872070
3372.530273	4419.769043
3371.731445	4544.157715
3370.931641	4571.571289
3370.131836	4489.551270
3369.332031	4579.483398
3368.532227	4622.504883
3367.732422	4671.762695
3366.932617	4580.405273
3366.131836	4570.298828
3365.332031	4688.255859
3364.531250	4478.268555
3363.730469	4596.202148
3362.929688	4614.196777
3362.128906	4597.849609
3361.327148	4631.442871
3360.526367	4384.187012
3359.725586	4611.237793
3358.923828	4554.349121
3358.122070	4528.666992
3357.320313	4652.677734
3356.518555	4786.001953
3355.716797	4588.837402
3354.915039	4494.593750
3354.112305	4571.783203
3353.310547	4580.397949
3352.507813	4641.971680
3351.705078	4631.882813
3350.902344	4503.448730
3350.099609	4726.928711
3349.296875	4579.839844
3348.493164	4563.540527
3347.690430	4537.909668
3346.886719	4490.502930
3346.083008	4779.145020
3345.279297	4560.613770
3344.475586	4541.219727
3343.671875	4615.129883
3342.868164	4617.499023
3342.063477	4644.738770
3341.259766	4671.969727
3340.455078	4568.658691
3339.650391	4698.437988
3338.845703	4654.187500
3338.041016	4560.248047
3337.236328	4550.198730
3336.431641	4596.050781
3335.625977	4666.727051
3334.821289	4818.096191
3334.015625	4544.176270
3333.209961	4645.861328
3332.404297	4713.380859
3331.598633	4610.244141
3330.791992	4615.708496
3329.986328	4605.663574
3329.180664	4663.843262
3328.374023	4604.186523
3327.567383	4591.047852
3326.760742	4512.824707
3325.954102	4642.257813
3325.147461	4576.445313
3324.339844	4674.846191
3323.533203	4698.876465
3322.725586	4571.145996
3321.918945	4697.368652
3321.111328	4702.807129
3320.303711	4587.519531
3319.496094	4651.778809
3318.687500	4511.780273
3317.879883	4498.680176
3317.071289	4643.353516
3316.263672	4698.282715
3315.455078	4598.568359
3314.646484	4659.671387
3313.837891	4553.812012
3313.029297	4624.175293
3312.219727	4685.243652
3311.411133	4554.710938
3310.601563	4544.711426
3309.792969	4729.324707
3308.983398	4592.669922
3308.173828	4706.191406
3307.364258	4773.362305
3306.553711	4624.417969
3305.744141	4685.407227
3304.933594	4508.749512
3304.124023	4708.588379
3303.313477	4760.279297
3302.502930	4596.032715
3301.692383	4570.622559
3300.881836	4557.554688
3300.070313	4544.491211
3299.259766	4553.009766
3298.448242	4635.496582
3297.637695	4634.752441
3296.826172	4704.875000
3296.014648	4753.410156
3295.203125	4694.125000
3294.390625	4733.406738
3293.579102	4631.035645
3292.766602	4648.764648
3291.955078	4552.595703
3291.142578	4474.923828
3290.330078	4615.755371
3289.517578	4525.791016
3288.705078	4500.455566
3287.891602	4595.079590
3287.079102	4502.086426
3286.265625	4608.978516
3285.453125	4595.942383
3284.639648	4629.015625
3283.826172	4569.881836
3283.012695	4609.093750
3282.198242	4611.426270
3281.384766	4561.538574
3280.570313	4640.659180
3279.756836	4538.579102
3278.942383	4571.624023
3278.127930	4705.960449
3277.313477	4600.849609
3276.499023	4572.492188
3275.683594	4565.621582
3274.869141	4482.058594
3274.053711	4413.858398
3273.238281	4545.022949
3272.423828	4596.421387
3271.608398	4620.210449
3270.791992	4447.809570
3269.976563	4591.143555
3269.161133	4611.857422
3268.344727	4589.669922
3267.528320	4408.194336
3266.712891	4456.493164
3265.896484	4605.834961
3265.080078	4531.610352
3264.262695	4582.926758
3263.446289	4444.450195
3262.629883	4667.147949
3261.812500	4712.297852
3260.995117	4598.341797
3260.177734	4557.837402
3259.360352	4557.105957
3258.542969	4550.258789
3257.725586	4711.574707
3256.907227	4674.134277
3256.089844	4612.254395
3255.271484	4614.569824
3254.453125	4595.496094
3253.634766	4555.042969
3252.816406	4597.075684
3251.998047	4599.391602
3251.179688	4604.760254
3250.360352	4735.303223
3249.541992	4697.912109
3248.722656	4559.813965
3247.903320	4696.403809
3247.083984	4774.978516
3246.264648	4502.707520
3245.444336	4623.989746
3244.625000	4668.991699
3243.804688	4643.849121
3242.985352	4618.714355
3242.165039	4566.154297
3241.344727	4507.515137
3240.524414	4595.160156
3239.703125	4670.589844
3238.882813	4706.394531
3238.061523	4659.953125
3237.241211	4592.209961
3236.419922	4771.112305
3235.598633	4742.948242
3234.777344	4754.361816
3233.956055	4637.954102
3233.134766	4582.438965
3232.312500	4727.733887
3231.490234	4541.424316
3230.668945	4799.207520
3229.846680	4752.824219
3229.024414	4666.931641
3228.202148	4690.500977
3227.378906	4689.748047
3226.556641	4643.411621
3225.733398	4800.662598
3224.911133	4651.034668
3224.087891	4659.399902
3223.264648	4585.765625
3222.441406	4703.450195
3221.618164	4566.077148
3220.793945	4601.769531
3219.970703	4749.744629
3219.146484	4748.981934
3218.322266	4569.212891
3217.498047	4510.842285
3216.673828	4692.100098
3215.849609	4509.394043
3215.025391	4760.330566
3214.201172	4735.313477
3213.375977	4770.926270
3212.550781	4682.272461
3211.725586	4678.490723
3210.900391	4580.791504
3210.075195	4719.395996
3209.250000	4730.752441
3208.424805	4617.950684
3207.598633	4768.593262
3206.772461	4719.392090
3205.947266	4661.126953
3205.121094	4551.434082
3204.294922	4662.655273
3203.467773	4686.108398
3202.641602	4733.751953
3201.815430	4642.263672
3200.988281	4741.303223
3200.161133	4746.588379
3199.333984	4785.122559
3198.506836	4681.594727
3197.679688	4541.837402
3196.852539	4788.859863
3196.024414	4842.466309
3195.197266	4781.280762
3194.369141	4729.174316
3193.541016	4728.414551
3192.712891	4715.579590
3191.884766	4714.821777
3191.056641	4765.370117
3190.227539	4945.653809
3189.399414	4878.485352
3188.570313	4678.611816
3187.741211	4786.437012
3186.913086	4773.605957
3186.083008	4833.140625
3185.253906	4726.854004
3184.424805	4894.883789
3183.594727	4758.484863
3182.765625	4872.219238
3181.935547	4639.463379
3181.105469	4813.422852
3180.275391	4701.217773
3179.445313	4911.245605
3178.615234	4829.167480
3177.784180	4753.136230
3176.954102	4686.158691
3176.123047	4757.627930
3175.291992	4672.617676
3174.460938	4879.438965
3173.629883	4821.506836
3172.798828	4919.973633
3171.966797	4810.937012
3171.135742	4710.954102
3170.303711	4854.479004
3169.471680	4760.532227
3168.639648	4831.884766
3167.807617	4749.989258
3166.975586	4824.324219
3166.143555	4847.577148
3165.310547	4831.783203
3164.478516	4791.974609
3163.645508	4833.232422
3162.812500	4778.428223
3161.979492	4789.664551
3161.146484	4662.871582
3160.312500	4746.124512
3159.479492	4793.355469
3158.645508	4795.583984
3157.812500	4761.828613
3156.978516	4665.122559
3156.144531	4745.310059
3155.310547	4894.406738
3154.475586	4779.745117
3153.641602	4692.086426
3152.807617	4927.996094
3151.972656	4810.389160
3151.137695	4746.725586
3150.302734	4937.597656
3149.467773	4793.101074
3148.632813	4849.204102
3147.796875	4908.281738
3146.961914	4817.721680
3146.125977	4769.077148
3145.290039	4783.267578
3144.455078	4677.816406
3143.618164	4910.319824
3142.782227	4807.871582
3141.946289	4708.445313
3141.109375	4809.314941
3140.273438	4946.014160
3139.436523	4843.625488
3138.599609	4756.207520
3137.762695	4880.900879
3136.925781	4838.303711
3136.088867	4861.415039
3135.250977	4887.504395
3134.414063	4830.000488
3133.576172	4766.545898
3132.738281	4774.731934
3131.900391	4693.403809
3131.062500	4734.415039
3130.224609	4987.188965
3129.385742	4712.016602
3128.547852	4812.640625
3127.708984	4820.811035
3126.870117	4817.055176
3126.031250	4577.851074
3125.192383	4770.808105
3124.353516	4808.773438
3123.514648	4816.937500
3122.674805	4884.667480
3121.835938	4800.498535
3120.996094	4880.119141
3120.156250	4748.345703
3119.316406	4896.409180
3118.476563	4740.866699
3117.635742	4805.567383
3116.795898	4849.421387
3115.955078	4806.997070
3115.114258	4601.007813
3114.274414	4707.320313
3113.433594	4691.697266
3112.591797	4705.806152
3111.750977	4728.827637
3110.910156	4888.541992
3110.068359	4757.019531
3109.226563	4809.729004
3108.384766	4660.439453
3107.542969	4808.182617
3106.701172	4932.122559
3105.859375	4880.858398
3105.017578	4793.989746
3104.174805	4736.827637
3103.332031	4836.959473
3102.490234	4767.941406
3101.647461	4865.069336
3100.803711	4979.961914
3099.960938	4819.020996
3099.118164	4729.293945
3098.274414	4906.409180
3097.431641	4718.880371
3096.587891	4658.848633
3095.744141	4877.373535
3094.900391	4728.454590
3094.056641	4929.125000
3093.211914	4821.709473
3092.368164	4963.074219
3091.523438	4814.236816
3090.678711	4795.700684
3089.833984	4806.768555
3088.989258	4767.523926
3088.144531	4713.497070
3087.299805	4795.574219
3086.454102	4788.887207
3085.609375	4853.180664
3084.763672	4808.045410
3083.917969	4949.184082
3083.072266	4794.674316
3082.226563	4867.791992
3081.380859	4807.907227
3080.534180	4904.635742
3079.688477	4770.911133
3078.841797	4932.594238
3077.995117	4822.533203
3077.148438	4913.291016
3076.301758	4747.176270
3075.455078	4932.372559
3074.607422	5031.922363
3073.760742	4795.048828
3072.913086	4773.625000
3072.065430	4890.851074
3071.217773	4857.621094
3070.370117	4824.401855
3069.522461	4920.923340
3068.673828	4861.172852
3067.826172	4783.756348
3066.977539	4968.647461
3066.128906	4959.008789
3065.280273	4846.260742
3064.431641	4963.304199
3063.583008	4797.579102
3062.734375	4955.817383
3061.884766	4866.695313
3061.035156	4889.461426
3060.186523	5006.403320
3059.336914	4864.346191
3058.487305	4831.198730
3057.636719	4924.558594
3056.787109	4756.110840
3055.937500	4878.860840
3055.086914	4860.433594
3054.236328	4839.071777
3053.385742	4814.777832
3052.535156	4796.369141
3051.684570	4860.243652
3050.833984	4691.995117
3049.982422	4799.928711
3049.130859	4752.163574
3048.280273	4895.291504
3047.428711	4794.675781
3046.577148	4720.512695
3045.725586	4881.187500
3044.873047	4774.752441
3044.021484	5038.064453
3043.168945	4916.969727
3042.316406	4866.312500
3041.464844	4707.157227
3040.612305	4788.504883
3039.758789	4872.758301
3038.906250	4939.395996
3038.053711	4756.883789
3037.200195	4773.700684
3036.346680	4796.372070
3035.493164	4836.613281
3034.639648	4838.763672
3033.786133	4896.555664
3032.932617	4851.846191
3032.079102	4766.164063
3031.224609	4973.224121
3030.370117	4869.989746
3029.515625	4921.877441
3028.661133	4613.883301
3027.806641	4946.620117
3026.952148	4796.659668
3026.097656	4804.660156
3025.242188	4955.926758
3024.386719	4727.105469
3023.532227	4805.262695
3022.676758	4871.705078
3021.820313	4911.828125
3020.964844	4794.177246
3020.109375	4939.457031
3019.252930	4748.825195
3018.397461	4765.581055
3017.541016	4893.276855
3016.684570	4872.054688
3015.828125	4833.327637
3014.970703	4917.177246
3014.114258	4866.783691
3013.256836	4889.338379
3012.400391	4897.301270
3011.542969	4782.775879
3010.685547	4919.050781
3009.828125	4921.174316
3008.970703	4760.061035
3008.112305	4852.556641
3007.254883	4819.721680
3006.396484	4760.675293
3005.538086	4818.169434
3004.679688	4863.994141
3003.821289	4892.332031
3002.962891	4795.459961
3002.104492	4815.065918
3001.245117	4767.719238
3000.385742	4932.833984
2999.527344	4818.559082
2998.667969	4913.789551
2997.808594	4819.915527
2996.948242	4926.748535
2996.088867	4847.441895
2995.229492	4884.457520
2994.369141	4761.579102
2993.508789	4961.358887
2992.648438	4911.157227
2991.788086	4927.799316
2990.927734	4819.518066
2990.067383	4705.461914
2989.206055	4878.952148
2988.344727	4852.033203
2987.484375	4874.477051
2986.623047	4862.080566
2985.761719	4858.395020
2984.899414	4811.183594
2984.038086	4839.421875
2983.176758	4896.659668
2982.314453	5040.890137
2981.452148	4955.979980
2980.589844	4984.176270
2979.727539	4997.868164
2978.865234	4889.817383
2978.002930	4944.092773
2977.139648	4873.753906
2976.276367	4893.248047
2975.414063	4956.186523
2974.550781	4929.321777
2973.687500	4827.177246
2972.824219	5000.114746
2971.959961	4958.782227
2971.096680	4943.511230
2970.232422	4800.915527
2969.368164	4881.156738
2968.503906	4996.087402
2967.639648	4798.594727
2966.775391	4881.689453
2965.911133	5054.394531
2965.045898	4903.244629
2964.181641	4908.235352
2963.316406	4898.773926
2962.451172	5088.702637
2961.585938	4859.635254
2960.720703	4968.624023
2959.854492	4996.706055
2958.989258	4796.642090
2958.123047	4862.277832
2957.256836	4922.118164
2956.391602	4958.848145
2955.524414	4969.592773
2954.658203	4870.685547
2953.791992	4763.154785
2952.924805	4949.882324
2952.058594	4957.736816
2951.191406	4948.286621
2950.324219	5074.347656
2949.457031	4981.283691
2948.589844	5006.420898
2947.722656	5008.495605
2946.854492	4978.875000
2945.986328	4914.693848
2945.119141	5132.809570
2944.250977	4993.746582
2943.382813	5015.977051
2942.513672	4966.226074
2941.645508	5002.845703
2940.777344	4944.478027
2939.908203	5133.601074
2939.039063	5046.459961
2938.169922	5031.263184
2937.300781	4955.670898
2936.431641	5064.149414
2935.562500	4876.440918
2934.692383	5007.895020
2933.822266	4978.344238
2932.953125	5072.379395
2932.083008	5034.207031
2931.212891	5027.649414
2930.341797	5044.073242
2929.471680	4922.635254
2928.601563	5010.859375
2927.730469	4809.075195
2926.859375	5109.715332
2925.988281	4916.590332
2925.117188	5093.718750
2924.246094	5021.166504
2923.375000	4954.375000
2922.502930	4904.814453
2921.630859	5127.715820
2920.759766	5161.297363
2919.887695	5017.118652
2919.015625	5096.570313
2918.142578	5012.634277
2917.270508	4951.649414
2916.397461	4950.850586
2915.525391	5067.500977
2914.652344	5040.906250
2913.779297	4934.136719
2912.906250	5162.398926
2912.033203	5121.487305
2911.159180	5126.385742
2910.286133	5002.499512
2909.412109	5101.840820
2908.538086	4926.501953
2907.664063	5108.776367
2906.790039	5153.711914
2905.916016	5138.583008
2905.041992	5152.049316
2904.166992	5039.732422
2903.291992	5056.067871
2902.417969	5252.432617
2901.542969	5057.293945
2900.666992	5045.050781
2899.791992	5098.506348
2898.916992	5077.692871
2898.041016	5128.270508
2897.165039	5133.152832
2896.290039	5086.653320
2895.414063	5108.664551
2894.538086	5144.936035
2893.661133	5010.011230
2892.785156	5137.570313
2891.908203	5088.254883
2891.032227	5181.539551
2890.155273	5106.571289
2889.278320	4954.655762
2888.401367	5027.964355
2887.523438	5263.691406
2886.646484	5060.534668
2885.768555	5079.660156
2884.891602	4964.901367
2884.013672	5126.437012
2883.135742	5082.896484
2882.256836	4988.121582
2881.378906	4993.009766
2880.500977	5009.280762
2879.622070	5273.124512
2878.743164	4979.211426
2877.865234	5132.026855
2876.985352	5091.377930
2876.106445	5090.555664
2875.227539	5177.880371
2874.348633	5060.482910
2873.468750	5099.460938
2872.588867	5050.322754
2871.708984	5123.389160
2870.829102	4971.981934
2869.949219	5101.850098
2869.069336	5095.346191
2868.188477	4992.292480
2867.308594	5017.040039
2866.427734	4990.680176
2865.546875	5075.025879
2864.666016	5037.313477
2863.785156	5079.062500
2862.903320	5152.004395
2862.022461	4978.143066
2861.140625	5195.718262
2860.258789	5155.180176
2859.376953	4953.050781
2858.495117	4870.043945
2857.613281	5030.810547
2856.731445	4970.488281
2855.848633	5074.519043
2854.965820	5025.540527
2854.083984	5072.880371
2853.201172	5009.757813
2852.318359	5119.377930
2851.434570	5053.436523
2850.551758	5055.451172
2849.667969	5082.936035
2848.785156	5158.516602
2847.901367	5067.148438
2847.017578	4995.610352
2846.133789	5003.288574
2845.249023	5124.078125
2844.365234	5046.911133
2843.480469	5116.769531
2842.596680	5017.015625
2841.711914	5123.594727
2840.827148	5179.278320
2839.942383	4994.809082
2839.056641	5126.761230
2838.171875	5100.515137
2837.286133	4995.212891
2836.401367	5073.458008
2835.515625	5154.500488
2834.629883	5052.062012
2833.743164	5133.082031
2832.857422	5095.573242
2831.971680	5032.687988
2831.084961	5077.003906
2830.198242	5031.062012
2829.311523	5081.002441
2828.424805	5071.724121
2827.538086	5000.436035
2826.651367	5027.811035
2825.763672	5131.258301
2824.876953	5031.821289
2823.989258	5107.064941
2823.101563	5083.708008
2822.213867	5080.070313
2821.325195	5039.832031
2820.437500	5143.175781
2819.549805	5164.861816
2818.661133	5194.983398
2817.772461	5109.731934
2816.883789	5108.906250
2815.995117	5108.080566
2815.106445	5183.188965
2814.216797	5157.043945
2813.328125	5128.095703
2812.438477	5262.195313
2811.548828	5075.848633
2810.659180	5173.381348
2809.769531	5211.879883
2808.879883	5185.754883
2807.989258	5412.423828
2807.099609	5133.529785
2806.208984	5180.433105
2805.318359	5109.411133
2804.427734	5201.213867
2803.537109	5169.501953
2802.646484	5171.472168
2801.754883	5148.191895
2800.863281	5228.707520
2799.972656	5219.448242
2799.081055	5112.044922
2798.189453	5318.695313
2797.296875	5130.015137
2796.405273	5297.355957
2795.513672	5218.032715
2794.621094	5116.319824
2793.728516	5345.213379
2792.835938	5095.058105
2791.943359	5172.650391
2791.050781	5303.419434
2790.157227	5268.965820
2789.264648	5326.897461
2788.371094	5225.280762
2787.477539	5238.427246
2786.583984	5237.580078
2785.690430	5284.289063
2784.796875	5160.368652
2783.903320	5316.138184
2783.008789	5203.436523
2782.114258	5364.739258
2781.219727	5165.416992
2780.325195	5186.938965
2779.430664	5216.836914
2778.536133	5291.425293
2777.640625	5377.162598
2776.746094	5233.855957
2775.850586	5244.179199
2774.955078	5363.386230
2774.059570	5370.893066
2773.164063	5275.127930
2772.267578	5279.855957
2771.372070	5320.854492
2770.475586	5049.391113
2769.579102	5199.194824
2768.683594	5153.732422
2767.786133	5367.603027
2766.889648	5244.066406
2765.993164	5251.580566
2765.095703	5242.369629
2764.199219	5194.149902
2763.301758	5290.823730
2762.404297	5295.539063
2761.506836	5275.185547
2760.608398	5277.117188
2759.710938	5259.557617
2758.812500	5283.761230
2757.914063	5335.791016
2757.016602	5262.570801
2756.118164	5414.756836
2755.218750	5233.047363
2754.320313	5374.062500
2753.421875	5328.694336
2752.522461	5355.639160
2751.623047	5463.202148
2750.723633	5353.905762
2749.824219	5353.039551
2748.924805	5349.394043
2748.025391	5468.001953
2747.125000	5386.555176
2746.224609	5391.238281
2745.325195	5307.052734
2744.424805	5211.787109
2743.523438	5255.363281
2742.623047	5323.906250
2741.722656	5281.415039
2740.821289	5349.931641
2739.919922	5301.900879
2739.019531	5398.131348
2738.118164	5308.505371
2737.215820	5399.157227
2736.314453	5389.965332
2735.413086	5336.421387
2734.510742	5374.361816
2733.608398	5379.034180
2732.706055	5367.080078
2731.803711	5357.899902
2730.901367	5329.333496
2729.999023	5392.168457
2729.095703	5266.689453
2728.193359	5365.505371
2727.290039	5350.796387
2726.386719	5181.101074
2725.483398	5537.235352
2724.579102	5375.865234
2723.675781	5460.751465
2722.771484	5343.699707
2721.868164	5370.488770
2720.963867	5319.849609
2720.059570	5338.339844
2719.155273	5160.573242
2718.250000	5300.683594
2717.345703	5460.090820
2716.440430	5442.630371
2715.536133	5416.888184
2714.630859	5432.582031
2713.725586	5346.098145
2712.819336	5610.285156
2711.914063	5405.098145
2711.007813	5371.102051
2710.102539	5328.837402
2709.196289	5391.435547
2708.290039	5412.632324
2707.383789	5367.623047
2706.477539	5264.713379
2705.570313	5401.730469
2704.664063	5392.584473
2703.756836	5311.772461
2702.849609	5355.008789
2701.942383	5290.762207
2701.035156	5328.477539
2700.127930	5322.104980
2699.219727	5323.997070
2698.312500	5334.149902
2697.404297	5347.052246
2696.496094	5313.150879
2695.587891	5323.300293
2694.679688	5182.083984
2693.770508	5343.587891
2692.862305	5417.002930
2691.953125	5410.624023
2691.043945	5384.995117
2690.134766	5334.625977
2689.225586	5383.250000
2688.316406	5409.866699
2687.406250	5307.296875
2686.497070	5281.704590
2685.586914	5401.742188
2684.676758	5378.889648
2683.766602	5375.271484
2682.856445	5533.682617
2681.946289	5458.648926
2681.035156	5468.745605
2680.124023	5393.747070
2679.213867	5307.794434
2678.302734	5433.158691
2677.391602	5380.150391
2676.479492	5302.470703
2675.568359	5537.481934
2674.657227	5413.183594
2673.745117	5171.028320
2672.833008	5315.481445
2671.920898	5407.811035
2671.008789	5382.270020
2670.096680	5373.177734
2669.183594	5361.348145
2668.270508	5442.652832
2667.358398	5367.826172
2666.445313	5386.123535
2665.532227	5322.280762
2664.619141	5425.437500
2663.705078	5583.298828
2662.791992	5440.097168
2661.877930	5392.702637
2660.963867	5367.208008
2660.049805	5492.154297
2659.135742	5384.610840
2658.221680	5279.835938
2657.306641	5333.656250
2656.392578	5472.192871
2655.477539	5405.715332
2654.562500	5486.812988
2653.647461	5349.321289
2652.732422	5487.765137
2651.817383	5426.790039
2650.901367	5341.257813
2649.986328	5463.253418
2649.070313	5344.985352
2648.154297	5450.563965
2647.238281	5406.017090
2646.321289	5339.656250
2645.405273	5376.982910
2644.489258	5504.308105
2643.572266	5557.958984
2642.655273	5270.751465
2641.738281	5444.378418
2640.821289	5397.156250
2639.903320	5415.358398
2638.986328	5485.328613
2638.068359	5438.122070
2637.151367	5505.341309
2636.233398	5441.805176
2635.315430	5457.261230
2634.396484	5554.394531
2633.478516	5376.543945
2632.559570	5514.486328
2631.641602	5423.784668
2630.722656	5567.116699
2629.803711	5451.950684
2628.884766	5513.628418
2627.965820	5499.135742
2627.045898	5590.696289
2626.125977	5429.381836
2625.207031	5360.542480
2624.287109	5462.952148
2623.367188	5559.894043
2622.447266	5545.406738
2621.526367	5612.420898
2620.606445	5576.200195
2619.685547	5431.364258
2618.764648	5528.231445
2617.843750	5578.915527
2616.922852	5502.007813
2616.001953	5525.540039
2615.080078	5562.631836
2614.159180	5719.085449
2613.237305	5479.448242
2612.315430	5662.985840
2611.393555	5523.769043
2610.471680	5674.703613
2609.548828	5600.589844
2608.626953	5518.368652
2607.704102	5552.702637
2606.781250	5576.186523
2605.858398	5472.336426
2604.935547	5422.692871
2604.012695	5738.671387
2603.089844	5415.516602
2602.166016	5355.076172
2601.242188	5600.532715
2600.318359	5605.036133
2599.394531	5533.770020
2598.470703	5508.521484
2597.546875	5485.986328
2596.622070	5566.235840
2595.698242	5643.754883
2594.773438	5634.727051
2593.848633	5606.778320
2592.923828	5524.780273
2591.998047	5656.305176
2591.073242	5620.259766
2590.147461	5592.331055
2589.222656	5650.848633
2588.296875	5660.733398
2587.371094	5559.903320
2586.445313	5607.597656
2585.518555	5663.374512
2584.592773	5756.918945
2583.666016	5548.196289
2582.739258	5528.408691
2581.812500	5411.511230
2580.885742	5623.712891
2579.958984	5528.411621
2579.031250	5589.529785
2578.104492	5696.458008
2577.176758	5644.318848
2576.249023	5638.011719
2575.321289	5558.952148
2574.393555	5496.083496
2573.465820	5640.651367
2572.537109	5615.495605
2571.608398	5603.812012
2570.680664	5772.522949
2569.751953	5639.678711
2568.823242	5560.707520
2567.893555	5745.489746
2566.964844	5806.441406
2566.035156	5673.676758
2565.105469	5570.543457
2564.176758	5577.706055
2563.246094	5601.000000
2562.316406	5559.762695
2561.386719	5712.077148
2560.456055	5638.583496
2559.526367	5720.969238
2558.595703	5588.389648
2557.665039	5719.109863
2556.734375	5720.866211
2555.802734	5561.496582
2554.872070	5770.020996
2553.940430	5608.010742
2553.009766	5574.889648
2552.078125	5541.779785
2551.146484	5747.487793
2550.213867	5749.236328
2549.282227	5780.490234
2548.349609	5548.904785
2547.417969	5606.995605
2546.485352	5589.997559
2545.552734	5720.438965
2544.620117	5668.585449
2543.686523	5699.820801
2542.753906	5594.400879
2541.820313	5797.085938
2540.887695	5568.476074
2539.954102	5653.266602
2539.020508	5687.155762
2538.085938	5688.908203
2537.152344	5591.622070
2536.217773	5729.878418
2535.284180	5667.402832
2534.349609	5653.104004
2533.415039	5689.634277
2532.480469	5803.713379
2531.544922	5749.287598
2530.610352	5542.481445
2529.674805	5587.024902
2528.739258	5733.119141
2527.803711	5761.582520
2526.868164	5664.456543
2525.932617	5751.693848
2524.997070	5595.837891
2524.060547	5763.176270
2523.124023	5746.217773
2522.187500	5665.190918
2521.250977	5771.041504
2520.314453	5700.711914
2519.377930	5857.222656
2518.440430	5613.480957
2517.503906	5689.927246
2516.566406	5763.681641
2515.628906	5752.077148
2514.691406	5719.145996
2513.752930	5710.217773
2512.815430	5706.623535
2511.876953	5743.004395
2510.938477	5686.114746
2510.000000	5895.653809
2509.061523	5694.919434
2508.123047	5819.164551
2507.184570	5522.646973
2506.245117	5689.477051
2505.306641	5795.028809
2504.367188	5663.671875
2503.427734	5601.545898
2502.487305	5810.824219
2501.547852	5958.849609
2500.608398	5718.500977
2499.667969	5898.404785
2498.727539	5799.065430
2497.787109	5800.780273
2496.846680	5868.944824
2495.906250	5814.837402
2494.964844	5739.490234
2494.024414	5847.482422
2493.083008	5676.526855
2492.141602	5747.311523
2491.200195	5857.904297
2490.258789	5734.820313
2489.317383	5805.560059
2488.375000	5823.193848
2487.432617	5795.708984
2486.490234	5877.017090
2485.547852	5730.153320
2484.605469	5861.841309
2483.663086	5842.322754
2482.720703	5777.734375
2481.777344	5980.930176
2480.833984	5720.188477
2479.890625	5764.311523
2478.947266	5845.517578
2478.003906	5746.538086
2477.059570	5772.091797
2476.116211	5810.879883
2475.171875	5709.305664
2474.227539	5756.033691
2473.283203	5699.504395
2472.338867	5698.576172
2471.394531	5737.343750
2470.449219	5768.160645
2469.503906	5772.511719
2468.559570	5681.638672
2467.614258	5757.408203
2466.667969	5944.210449
2465.722656	5655.068848
2464.777344	5643.574219
2463.831055	5822.374023
2462.884766	5726.295410
2461.938477	5614.395996
2460.992188	5803.679199
2460.045898	5739.344727
2459.099609	5714.642578
2458.152344	5845.729004
2457.205078	5702.220703
2456.257813	5791.034180
2455.310547	5724.114258
2454.363281	5839.281250
2453.416016	5840.967773
2452.467773	5742.418945
2451.520508	5630.714844
2450.572266	5846.023926
2449.624023	5694.791992
2448.675781	5759.765137
2447.726563	5687.664551
2446.778320	5726.265625
2445.829102	5625.211426
2444.879883	5721.765137
2443.930664	5647.083008
2442.981445	5754.135254
2442.032227	5661.040527
2441.083008	5762.790039
2440.132813	5732.896484
2439.182617	5700.380859
2438.232422	5717.871094
2437.282227	5740.617188
2436.332031	5702.854492
2435.381836	5715.075195
2434.430664	5622.107422
2433.480469	5786.829102
2432.529297	5688.621582
2431.578125	5648.269531
2430.626953	5623.697754
2429.674805	5698.977051
2428.723633	5684.912598
2427.771484	5594.681152
2426.819336	5627.909180
2425.867188	5753.027832
2424.915039	5549.939453
2423.962891	5583.158203
2423.010742	5590.121094
2422.057617	5788.636719
2421.104492	5619.781250
2420.151367	5710.676270
2419.198242	5615.325684
2418.245117	5596.053711
2417.291992	5574.166016
2416.337891	5588.985352
2415.383789	5514.684570
2414.430664	5550.473633
2413.475586	5588.871582
2412.521484	5551.283203
2411.567383	5542.519531
2410.612305	5565.185547
2409.658203	5564.277832
2408.703125	5707.363281
2407.748047	5562.462402
2406.792969	5760.462402
2405.837891	5537.096680
2404.881836	5643.463867
2403.925781	5624.231445
2402.970703	5591.927734
2402.013672	5580.555176
2401.058594	5660.698730
2400.101563	5536.906738
2399.144531	5572.596680
2398.189453	5540.326660
2397.232422	5685.747070
2396.275391	5554.193848
2395.318359	5558.511719
2394.361328	5534.099609
2393.404297	5637.645996
2392.445313	5600.174316
2391.488281	5541.832031
2390.529297	5629.666016
2389.572266	5524.366211
2388.613281	5473.891602
2387.656250	5470.389648
2386.697266	5568.609863
2385.738281	5489.466309
2384.779297	5483.355469
2383.820313	5498.102539
2382.861328	5426.828125
2381.902344	5412.911621
2380.943359	5375.548340
2379.982422	5510.144531
2379.023438	5623.858398
2378.064453	5508.345703
2377.103516	5390.266602
2376.142578	5553.411621
2375.183594	5424.950684
2374.222656	5517.762695
2373.261719	5550.691406
2372.300781	5523.766602
2371.339844	5489.045898
2370.378906	5433.528320
2369.417969	5435.241211
2368.455078	5429.153320
2367.494141	5363.273438
2366.533203	5505.359863
2365.570313	5504.460938
2364.609375	5441.198730
2363.646484	5305.211426
2362.683594	5377.078613
2361.720703	5529.435059
2360.757813	5380.515625
2359.794922	5512.050781
2358.832031	5456.635742
2357.869141	5294.823242
2356.906250	5571.631836
2355.943359	5290.499023
2354.978516	5525.709961
2354.015625	5358.803223
2353.050781	5363.114746
2352.085938	5414.097656
2351.123047	5392.473145
2350.158203	5342.341797
2349.193359	5429.586426
2348.228516	5327.640137
2347.263672	5264.589355
2346.298828	5305.175781
2345.333984	5428.628418
2344.367188	5290.494141
2343.402344	5232.668457
2342.437500	5389.725586
2341.470703	5298.254395
2340.503906	5318.091309
2339.539063	5345.684082
2338.572266	5223.220215
2337.605469	5380.149902
2336.638672	5335.305176
2335.671875	5241.345703
2334.705078	5222.391602
2333.738281	5278.406250
2332.771484	5442.951172
2331.802734	5579.017578
2330.835938	5655.615234
2329.867188	5595.276367
2328.900391	5824.231445
2327.931641	5655.424316
2326.962891	5522.819336
2325.994141	5485.774902
2325.027344	5182.887207
2324.058594	5259.460938
2323.089844	5356.651367
2322.119141	5193.244629
2321.150391	5269.778809
2320.181641	5480.395508
2319.210938	5177.804688
2318.242188	5313.601074
2317.271484	5420.997559
2316.302734	5286.089844
2315.332031	5359.955566
2314.361328	5263.749512
2313.390625	5126.357422
2312.419922	5205.363770
2311.449219	5237.990234
2310.478516	5301.503418
2309.507813	5202.810059
2308.537109	5160.775879
2307.564453	5141.916992
2306.593750	5267.158691
2305.621094	5178.825684
2304.650391	5301.447266
2303.677734	5187.418457
2302.705078	5176.284180
2301.732422	5255.138672
2300.759766	5192.584961
2299.787109	5325.384277
2298.814453	5136.921387
2297.841797	5220.868652
2296.869141	5273.961426
2295.896484	5342.447754
2294.921875	5228.578613
2293.949219	5163.532227
2292.974609	5160.120117
2292.000000	5249.113770
2291.027344	5240.555664
2290.052734	5339.770508
2289.078125	5269.626953
2288.103516	5345.718262
2287.128906	5298.678711
2286.154297	5333.711426
2285.177734	5271.305664
2284.203125	5044.859863
2283.228516	5100.420898
2282.251953	5145.712891
2281.277344	5385.716309
2280.300781	5300.296387
2279.324219	5273.815430
2278.347656	5316.487793
2277.371094	5138.942383
2276.394531	5214.903809
2275.417969	5167.976074
2274.441406	5489.595703
2273.464844	5260.960449
2272.488281	5237.073730
2271.509766	5172.266113
2270.533203	5130.498047
2269.554688	5277.973145
2268.578125	5305.233398
2267.599609	5179.104980
2266.621094	5290.716309
2265.642578	5340.959473
2264.664063	5314.534180
2263.685547	5323.882813
2262.707031	5233.612793
2261.728516	5222.540527
2260.750000	5288.073242
2259.769531	5358.690430
2258.791016	5248.052734
2257.810547	5359.487305
2256.832031	5284.609863
2255.851563	5332.218750
2254.871094	5405.320801
2253.890625	5282.013184
2252.910156	5278.598145
2251.929688	5198.694824
2250.949219	5363.541992
2249.968750	5250.516113
2248.988281	5354.139648
2248.005859	5223.316406
2247.025391	5281.054199
2246.042969	5257.264648
2245.062500	5197.829102
2244.080078	5334.477051
2243.097656	5325.965332
2242.115234	5230.910645
2241.132813	5092.621582
2240.150391	5277.544434
2239.167969	5243.604980
2238.185547	5278.358398
2237.203125	5290.210449
2236.218750	5141.852051
2235.236328	5308.816895
2234.253906	5351.162598
2233.269531	5096.115234
2232.285156	5184.225098
2231.300781	5168.130371
2230.318359	5271.441895
2229.333984	5359.479004
2228.349609	5424.630371
2227.365234	5218.065918
2226.378906	5267.986328
2225.394531	5234.123535
2224.410156	5200.271973
2223.423828	5252.708008
2222.439453	5330.497559
2221.453125	5243.375488
2220.468750	5298.314453
2219.482422	5279.694336
2218.496094	5154.591309
2217.509766	5250.077637
2216.523438	5084.465820
2215.537109	5182.466309
2214.550781	5308.306641
2213.564453	5246.634766
2212.576172	5065.933594
2211.589844	5209.458496
2210.601563	5246.585938
2209.615234	5291.296387
2208.626953	5270.178223
2207.638672	5276.906738
2206.650391	5177.352539
2205.664063	5224.574219
2204.675781	5312.254883
2203.685547	5189.980469
2202.697266	5237.176758
2201.708984	5162.994141
2200.720703	5354.273926
2199.730469	5168.882813
2198.742188	5289.338379
2197.751953	5194.980957
2196.763672	5269.918457
2195.773438	5180.646973
2194.783203	5152.016602
2193.792969	5176.421875
2192.802734	5339.676270
2191.812500	5215.111328
2190.822266	5269.780273
2189.832031	5102.369141
2188.839844	5331.125977
2187.849609	5252.050781
2186.857422	5334.420898
2185.867188	5363.806641
2184.875000	5373.011719
2183.882813	5309.106445
2182.892578	5381.330078
2181.900391	5304.843262
2180.908203	5301.453125
2179.916016	5393.796387
2178.921875	5115.834961
2177.929688	5351.730469
2176.937500	5305.526855
2175.943359	5261.856445
2174.951172	5381.818848
2173.957031	5396.036133
2172.964844	5294.494629
2171.970703	5243.305664
2170.976563	5270.116211
2169.982422	5347.220703
2168.988281	5318.680664
2167.994141	5327.864258
2167.000000	5364.698242
2166.005859	5336.168945
2165.009766	5244.821289
2164.015625	5329.391113
2163.019531	5393.834961
2162.025391	5272.379883
2161.029297	5371.971680
2160.033203	5200.339355
2159.039063	5417.909180
2158.042969	5314.100586
2157.046875	5240.443848
2156.050781	5380.108398
2155.052734	5479.583496
2154.056641	5348.238281
2153.060547	5347.359863
2152.062500	5439.267578
2151.066406	5348.110352
2150.068359	5314.642090
2149.072266	5343.846680
2148.074219	5428.175781
2147.076172	5259.403809
2146.078125	5321.170898
2145.080078	5428.005371
2144.082031	5379.529297
2143.083984	5416.205566
2142.085938	5362.739746
2141.085938	5446.967285
2140.087891	5436.061035
2139.087891	5292.532227
2138.089844	5434.274414
2137.089844	5510.929688
2136.089844	5322.437988
2135.089844	5319.062500
2134.089844	5463.207031
2133.089844	5532.306641
2132.089844	5463.910645
2131.089844	5323.063477
2130.089844	5474.607910
2129.089844	5536.164551
2128.087891	5502.782227
2127.087891	5446.934082
2126.085938	5520.949707
2125.083984	5407.693848
2124.082031	5351.887695
2123.082031	5378.461914
2122.080078	5442.458008
2121.078125	5566.312012
2120.076172	5480.581543
2119.072266	5482.174316
2118.070313	5261.822754
2117.068359	5423.024902
2116.064453	5242.641602
2115.062500	5538.389648
2114.058594	5310.696777
2113.054688	5411.982910
2112.052734	5440.988770
2111.048828	5402.730469
2110.044922	5461.613281
2109.041016	5286.410156
2108.037109	5447.368164
2107.031250	5309.563965
2106.027344	5251.447266
2105.023438	5464.587891
2104.017578	5640.338379
2103.013672	5432.938965
2102.007813	5521.584473
2101.001953	5361.521484
2099.998047	5492.417480
2098.992188	5218.056641
2097.986328	5353.904297
2096.980469	5412.666992
2095.972656	5322.325684
2094.966797	5443.182617
2093.960938	5328.025879
2092.955078	5394.204102
2091.947266	5472.776367
2090.939453	5439.600586
2089.933594	5401.470703
2088.925781	5410.509277
2087.917969	5533.692871
2086.910156	5443.463379
2085.902344	5514.506836
2084.894531	5451.592773
2083.886719	5349.021973
2082.878906	5353.100098
2081.871094	5354.698242
2080.861328	5490.140625
2079.853516	5345.500488
2078.843750	5379.310059
2077.833984	5487.429688
2076.826172	5355.246094
2075.816406	5317.215332
2074.806641	5365.863770
2073.796875	5419.446777
2072.787109	5383.899414
2071.777344	5380.538086
2070.765625	5392.024902
2069.755859	5561.852051
2068.744141	5353.143066
2067.734375	5396.781250
2066.722656	5413.203125
2065.712891	5459.289063
2064.701172	5376.811035
2063.689453	5534.113281
2062.677734	5449.178223
2061.666016	5455.693359
2060.654297	5499.263184
2059.642578	5382.264648
2058.628906	5443.119141
2057.617188	5340.983398
2056.605469	5310.477539
2055.591797	5457.708984
2054.578125	5417.321289
2053.566406	5475.651855
2052.552734	5501.889160
2051.539063	5525.650391
2050.525391	5406.353027
2049.511719	5425.189941
2048.498047	5542.644531
2047.484375	5539.266113
2046.468750	5464.409668
2045.455078	5488.152832
2044.439453	5386.226074
2043.425781	5498.662109
2042.410156	5566.724121
2041.394531	5486.999023
2040.380859	5390.063477
2039.365234	5453.185059
2038.349609	5339.056152
2037.333984	5399.704102
2036.316406	5499.703613
2035.300781	5412.686035
2034.285156	5492.970703
2033.267578	5496.984375
2032.251953	5446.895996
2031.234375	5414.035156
2030.218750	5582.764160
2029.201172	5414.708008
2028.183594	5517.029297
2027.166016	5437.493652
2026.148438	5404.660156
2025.130859	5362.012695
2024.113281	5503.567871
2023.093750	5595.967773
2022.076172	5366.725586
2021.056641	5483.663574
2020.039063	5487.667480
2019.019531	5464.678223
2018.001953	5569.273926
2016.982422	5406.456055
2015.962891	5506.121582
2014.943359	5492.952637
2013.923828	5428.299805
2012.904297	5373.473633
2011.882813	5355.430176
2010.863281	5511.384766
2009.843750	5508.025391
2008.822266	5443.422363
2007.802734	5378.840332
2006.781250	5407.340820
2005.759766	5416.242676
2004.738281	5359.041504
2003.716797	5372.843750
2002.695313	5479.641113
2001.673828	5358.835938
2000.652344	5384.863770
1999.630859	5459.806152
1998.609375	5317.051758
1997.585938	5355.299805
1996.564453	5322.631836
1995.541016	5373.088379
1994.517578	5399.087402
1993.494141	5349.321777
1992.472656	5289.798828
1991.449219	5323.126953
1990.425781	5581.155273
1989.400391	5345.791016
1988.376953	5359.558594
1987.353516	5339.143555
1986.328125	5338.262207
1985.304688	5310.535156
1984.279297	5363.340820
1983.255859	5306.342285
1982.230469	5273.755371
1981.205078	5111.917969
1980.179688	5228.121094
1979.154297	5249.200684
1978.128906	5238.583496
1977.103516	5291.338379
1976.078125	5402.561035
1975.050781	5277.408691
1974.025391	5274.101074
1972.998047	5300.022461
1971.972656	5357.593750
1970.945313	5317.750977
1969.917969	5304.700195
1968.892578	5262.445313
1967.865234	5344.320313
1966.837891	5165.809570
1965.808594	5308.495117
1964.781250	5327.077637
1963.753906	5199.730957
1962.724609	5223.188477
1961.697266	5232.050781
1960.667969	5304.111816
1959.640625	5232.752441
1958.611328	5190.577148
1957.582031	5126.548828
1956.552734	5225.300781
1955.523438	5263.298828
1954.494141	5337.710938
1953.464844	5229.995117
1952.435547	5190.288574
1951.404297	5099.623047
1950.375000	5237.109863
1949.343750	5275.067383
1948.314453	5198.988770
1947.283203	5125.360352
1946.251953	5231.223633
1945.222656	5198.835938
1944.191406	5217.372070
1943.158203	5223.781738
1942.126953	5186.563965
1941.095703	5275.365723
1940.064453	5223.614258
1939.031250	5186.414551
1938.000000	5250.951660
1936.966797	5303.359375
1935.935547	5331.537109
1934.902344	5301.605957
1933.869141	5102.254395
1932.835938	5253.872559
1931.802734	5192.513184
1930.769531	5387.611816
1929.736328	5449.609863
1928.703125	5306.021973
1927.667969	5426.045410
1926.634766	5289.761230
1925.599609	5250.210938
1924.566406	5263.843750
1923.531250	5359.629883
1922.496094	5433.640137
1921.460938	5297.466309
1920.425781	5248.285645
1919.390625	5363.329102
1918.355469	5241.720703
1917.320313	5228.783203
1916.285156	5235.159180
1915.248047	5318.756348
1914.212891	5211.711914
1913.175781	5249.448242
1912.138672	5417.421875
1911.103516	5305.590332
1910.066406	5227.553223
1909.029297	5354.462402
1907.992188	5295.726074
1906.955078	5162.297852
1905.917969	5279.515625
1904.878906	5341.282227
1903.841797	5468.066895
1902.802734	5334.697266
1901.765625	5406.055664
1900.726563	5183.657715
1899.687500	5413.895508
1898.650391	5270.995117
1897.611328	5246.058105
1896.572266	5343.837891
1895.533203	5302.057129
1894.494141	5327.637207
1893.453125	5242.585449
1892.414063	5467.736328
1891.375000	5147.091309
1890.333984	5357.761230
1889.292969	5265.550293
1888.253906	5283.901367
1887.212891	5359.905273
1886.171875	5310.976563
1885.130859	5430.180664
1884.089844	5253.988281
1883.048828	5534.020996
1882.007813	5305.059082
1880.964844	5460.185547
1879.923828	5411.287598
1878.880859	5352.808594
1877.839844	5356.719727
1876.796875	5300.667480
1875.753906	5388.518555
1874.712891	5411.603027
1873.669922	5295.636230
1872.626953	5462.542480
1871.583984	5296.278320
1870.539063	5369.680664
1869.496094	5411.913574
1868.453125	5248.135742
1867.408203	5273.610352
1866.365234	5433.169434
1865.320313	5307.774414
1864.275391	5381.100586
1863.230469	5413.715820
1862.187500	5362.566895
1861.142578	5368.855957
1860.095703	5257.927734
1859.050781	5209.221191
1858.005859	5229.880371
1856.960938	5310.305664
1855.914063	5247.270996
1854.869141	5298.984863
1853.822266	5362.630371
1852.775391	5225.547363
1851.730469	5313.073242
1850.683594	5216.649414
1849.636719	5230.113770
1848.589844	5117.020996
1847.541016	5183.019531
1846.494141	5280.026855
1845.447266	5341.203125
1844.400391	5149.421387
1843.351563	5050.749512
1842.302734	5288.453125
1841.255859	5175.480469
1840.207031	5348.699219
1839.158203	5135.616699
1838.109375	5237.269531
1837.060547	5145.830566
1836.011719	5099.699219
1834.962891	5139.358398
1833.912109	5321.938965
1832.863281	5028.088379
1831.814453	5129.657227
1830.763672	5188.333008
1829.712891	5142.239746
1828.664063	5169.949707
1827.613281	5166.712402
1826.562500	5113.506836
1825.511719	5229.233398
1824.460938	5199.821777
1823.408203	5227.498535
1822.357422	5160.049805
1821.306641	5045.073242
1820.253906	5160.714844
1819.203125	5136.091309
1818.150391	5132.862793
1817.097656	5284.070801
1816.046875	5306.949219
1814.994141	5068.554199
1813.941406	5074.837402
1812.888672	5370.789063
1811.833984	5077.900879
1810.781250	5098.419922
1809.728516	5130.798340
1808.673828	5234.348633
1807.621094	5095.881836
1806.566406	5175.683594
1805.511719	5267.316406
1804.458984	5228.502930
1803.404297	5320.096191
1802.349609	5250.471191
1801.294922	5105.027832
1800.238281	5272.423828
1799.183594	5209.948242
1798.128906	5209.083496
1797.072266	5054.269531
1796.017578	5200.249512
1794.960938	5275.150879
1793.906250	5260.071289
1792.849609	5183.458008
1791.792969	5248.858398
1790.736328	5153.343262
1789.679688	5171.413086
1788.623047	5061.750000
1787.564453	5261.926758
1786.507813	5239.771973
1785.451172	5260.178711
1784.392578	5214.394043
1783.335938	5230.071289
1782.277344	5200.847168
1781.218750	5155.094238
1780.160156	5267.621582
1779.101563	5101.422852
1778.042969	5183.223145
1776.984375	5231.942871
1775.925781	5219.270508
1774.865234	5076.791016
1773.806641	5257.652832
1772.746094	5202.512695
1771.687500	5267.700684
1770.626953	5358.812012
1769.566406	5152.754395
1768.507813	5307.516113
1767.447266	5217.050293
1766.386719	5227.968750
1765.324219	5170.539551
1764.263672	5143.761230
1763.203125	5171.176758
1762.140625	5144.406738
1761.080078	5256.596191
1760.017578	5415.843262
1758.957031	5278.392090
1757.894531	5310.469727
1756.832031	5234.273438
1755.769531	5242.815430
1754.707031	5277.235352
1753.644531	5344.576172
1752.582031	5202.569336
1751.517578	5363.963379
1750.455078	5240.809082
1749.390625	5134.151855
1748.328125	5279.023438
1747.263672	5261.695313
1746.199219	5185.631836
1745.136719	5222.357422
1744.072266	5214.441895
1743.007813	5272.286133
1741.941406	5116.437012
1740.876953	5291.661133
1739.812500	5229.751465
1738.748047	5311.022949
1737.681641	5174.041992
1736.615234	5145.027832
1735.550781	5252.075195
1734.484375	5241.820313
1733.417969	5252.672852
1732.351563	5439.362793
1731.285156	5290.775391
1730.218750	5322.708008
1729.152344	5277.297852
1728.085938	5262.361816
1727.017578	5266.171387
1725.951172	5375.378906
1724.882813	5285.495117
1723.814453	5425.101074
1722.748047	5346.943848
1721.679688	5411.592285
1720.611328	5211.769043
1719.542969	5400.431152
1718.474609	5352.742676
1717.404297	5269.982910
1716.335938	5306.524902
1715.267578	5314.994629
1714.197266	5253.323730
1713.128906	5215.048340
1712.058594	5193.145996
1710.988281	5217.985352
1709.917969	5273.189453
1708.847656	5255.959473
1707.777344	5180.345215
1706.707031	5300.913574
1705.636719	5152.937012
1704.566406	5107.725098
1703.494141	5228.244141
1702.423828	5236.708008
1701.351563	5128.505859
1700.281250	5360.938965
1699.208984	5283.073730
1698.136719	5286.857910
1697.064453	5218.357910
1695.992188	5196.506836
1694.919922	5291.208984
1693.847656	5262.360840
1692.773438	5193.910156
1691.701172	5288.564941
1690.626953	5222.461426
1689.554688	5319.408691
1688.480469	5025.118652
1687.406250	5224.507324
1686.332031	5242.259277
1685.257813	5234.403320
1684.183594	5170.700684
1683.109375	5102.366211
1682.035156	5308.553711
1680.960938	5258.825684
1679.884766	5230.042969
1678.810547	5243.122070
1677.734375	5228.299805
1676.658203	5187.914551
1675.583984	5426.416016
1674.507813	5079.301270
1673.431641	5241.076660
1672.355469	5286.658691
1671.279297	5234.684570
1670.201172	5115.389160
1669.125000	5154.003906
1668.048828	5252.957520
1666.970703	5249.760742
1665.892578	5288.333008
1664.816406	5308.332031
1663.738281	5298.167969
1662.660156	5281.049316
1661.582031	5222.195801
1660.503906	5142.495117
1659.425781	5322.452148
1658.347656	5286.798340
1657.267578	5204.808594
1656.189453	5057.970215
1655.109375	5156.740234
1654.031250	5183.674805
1652.951172	5076.282227
1651.871094	5272.247070
1650.791016	5190.340820
1649.710938	5231.138672
1648.630859	5137.694824
1647.550781	4995.690430
1646.470703	4987.916504
1645.388672	5158.254883
1644.308594	5094.950195
1643.226563	5110.286621
1642.146484	5079.378418
1641.064453	5085.465332
1639.982422	5112.351074
1638.900391	4975.160156
1637.818359	5025.159180
1636.736328	5072.831055
1635.654297	5011.933594
1634.570313	5057.282227
1633.488281	5070.291016
1632.406250	5080.987305
1631.322266	5077.831055
1630.238281	4947.750977
1629.156250	4981.534668
1628.072266	5160.645020
1626.988281	5023.696289
1625.904297	5055.144043
1624.820313	4909.034668
1623.734375	5078.815430
1622.650391	4935.055664
1621.566406	5113.993652
1620.480469	4977.188477
1619.396484	4939.495605
1618.310547	4954.794922
1617.224609	5016.150879
1616.138672	4978.469727
1615.052734	4844.103027
1613.966797	4939.975586
1612.880859	4860.897461
1611.794922	4968.240723
1610.708984	4969.711426
1609.621094	5028.691895
1608.535156	4892.150391
1607.447266	4836.141602
1606.359375	5076.755371
1605.273438	4891.997559
1604.185547	4937.149902
1603.097656	4959.306152
1602.009766	4976.858887
1600.921875	5012.784668
1599.832031	4995.868164
1598.744141	4942.212402
1597.654297	5056.195801
1596.566406	4853.320313
1595.476563	4912.189941
1594.388672	4948.089355
1593.298828	5004.628418
1592.208984	4948.729492
1591.119141	4982.310547
1590.029297	5123.674805
1588.939453	5019.627930
1587.847656	5092.156250
1586.757813	4997.318359
1585.666016	4897.928711
1584.576172	5052.937012
1583.484375	4861.922852
1582.392578	5085.609863
1581.302734	5082.468750
1580.210938	5088.489258
1579.119141	4959.416992
1578.025391	5020.398438
1576.933594	5010.402832
1575.841797	5142.299316
1574.750000	4985.845703
1573.656250	5108.550781
1572.562500	5123.707520
1571.470703	5086.258789
1570.376953	4993.943848
1569.283203	5185.150879
1568.189453	5117.994141
1567.095703	5096.568848
1566.001953	5134.562500
1564.908203	5030.892578
1563.812500	5094.011230
1562.718750	4951.555664
1561.623047	5005.532227
1560.529297	5137.118164
1559.433594	5136.258301
1558.337891	5158.222656
1557.242188	5209.846191
1556.146484	5252.325195
1555.050781	5240.040039
1553.955078	5195.826172
1552.859375	5318.103027
1551.761719	5191.807129
1550.666016	5177.259766
1549.568359	5196.907227
1548.472656	5136.784180
1547.375000	5104.023926
1546.277344	5164.681152
1545.179688	5168.372070
1544.082031	5160.674316
1542.984375	5175.750000
1541.886719	5229.523438
1540.787109	5080.688477
1539.689453	5234.600098
1538.589844	5172.284180
1537.492188	5121.364746
1536.392578	5193.299805
1535.292969	5233.368652
1534.193359	5039.201660
1533.095703	5117.934570
1531.994141	5187.548340
1530.894531	5186.679199
1529.794922	5163.085449
1528.695313	5184.941895
1527.593750	5240.866211
1526.494141	5083.265625
1525.392578	5148.271973
1524.291016	5047.503906
1523.189453	5119.304688
1522.089844	5195.621094
1520.988281	5176.594727
1519.884766	5171.189453
1518.783203	4950.260742
1517.681641	5112.749023
1516.580078	5184.465820
1515.476563	5113.303223
1514.373047	5228.071289
1513.271484	5150.124512
1512.167969	5196.855957
1511.064453	5039.629395
1509.960938	5016.128418
1508.857422	5078.714844
1507.753906	5129.955566
1506.650391	5056.631836
1505.544922	5085.217773
1504.441406	4962.123047
1503.335938	5151.413574
1502.232422	4992.141113
1501.126953	5004.879883
1500.021484	5060.596191
1498.916016	5037.129395
1497.810547	5006.885742
1496.705078	5071.617188
1495.599609	4912.517578
1494.494141	5063.135742
1493.386719	4947.028809
1492.281250	5041.101563
1491.173828	5019.923340
1490.068359	5147.833496
1488.960938	5006.947266
1487.853516	5049.010254
1486.746094	5003.009766
1485.638672	4999.913086
1484.531250	5001.331543
1483.423828	5052.392578
1482.314453	4992.884766
1481.207031	5095.813477
1480.097656	4858.140625
1478.990234	4861.835938
1477.880859	5036.882324
1476.771484	4957.137695
1475.662109	4994.622070
1474.552734	4953.220703
1473.443359	4923.098633
1472.333984	4922.272461
1471.224609	5067.851074
1470.113281	4909.360352
1469.003906	5039.130371
1467.892578	5011.269531
1466.783203	5100.463379
1465.671875	4962.327148
1464.560547	4875.990234
1463.449219	4850.424316
1462.337891	4890.098633
1461.226563	4950.000000
1460.115234	4976.151855
1459.001953	5085.479492
1457.890625	4965.489746
1456.777344	5038.822266
1455.666016	5094.153320
1454.552734	4985.456055
1453.439453	4926.213867
1452.326172	5051.160156
1451.212891	5106.451660
1450.099609	4957.410156
1448.986328	5080.042969
1447.873047	4993.900879
1446.757813	4885.346680
1445.644531	5140.307129
1444.529297	4964.464844
1443.414063	5060.077148
1442.300781	5175.840820
1441.185547	5006.807129
1440.070313	5023.900391
1438.955078	5094.782227
1437.839844	5004.283691
1436.722656	5023.608887
1435.607422	5130.299316
1434.492188	4972.642578
1433.375000	4976.285645
1432.257813	5031.429199
1431.142578	5086.553223
1430.025391	4967.062012
1428.908203	4930.418457
1427.791016	5061.612305
1426.673828	5087.608887
1425.556641	4995.040039
1424.437500	4944.996582
1423.320313	5051.501465
1422.201172	4999.229004
1421.083984	5152.632324
1419.964844	5057.894043
1418.845703	5070.451660
1417.726563	5076.302246
1416.607422	4995.027832
1415.488281	5016.522949
1414.369141	5051.410156
1413.250000	5034.931152
1412.128906	5125.613281
1411.009766	4946.188477
1409.888672	5016.770020
1408.769531	5067.245605
1407.648438	5028.467773
1406.527344	5012.008301
1405.406250	4881.815918
1404.285156	5039.309570
1403.164063	5022.855957
1402.042969	5006.407715
1400.919922	4976.592773
1399.798828	4899.994141
1398.675781	4941.500000
1397.554688	4962.943848
1396.431641	4955.427246
1395.308594	4878.882813
1394.185547	5025.004883
1393.062500	4872.788574
1391.939453	5038.893066
1390.816406	4804.390137
1389.693359	4903.702637
1388.568359	4876.183105
1387.445313	4933.190430
1386.320313	4994.625977
1385.197266	5029.359863
1384.072266	4848.447266
1382.947266	4874.303223
1381.822266	4929.039551
1380.697266	4914.878418
1379.572266	4860.733887
1378.445313	4959.868164
1377.320313	4903.513184
1376.195313	4922.671387
1375.068359	4770.879395
1373.941406	4863.302246
1372.816406	4866.921875
1371.689453	4917.137695
1370.562500	4911.872559
1369.435547	4806.790527
1368.308594	4947.920410
1367.179688	4907.173340
1366.052734	4957.339355
1364.923828	4843.453613
1363.796875	4968.967285
1362.667969	4914.947754
1361.541016	4905.257324
1360.412109	5128.165039
1359.283203	4914.678711
1358.154297	4940.424316
1357.025391	5025.940430
1355.894531	4974.178711
1354.765625	5013.180176
1353.636719	4912.752930
1352.505859	4996.002930
1351.376953	4928.794922
1350.246094	5047.403320
1349.115234	4949.248047
1347.984375	4910.825684
1346.853516	4996.215820
1345.722656	4993.163086
1344.591797	4970.222168
1343.460938	4987.061035
1342.328125	4957.500488
1341.197266	4989.797363
1340.064453	5053.001953
1338.933594	5038.901367
1337.800781	4923.249512
1336.667969	5001.884766
1335.535156	5042.974121
1334.402344	5143.628418
1333.269531	5171.441895
1332.134766	5122.041016
1331.001953	5010.901855
1329.869141	4979.185059
1328.734375	4962.912109
1327.599609	4981.914551
1326.466797	5084.662598
1325.332031	4984.641113
1324.197266	4988.207031
1323.062500	4908.061035
1321.927734	4979.916504
1320.791016	5139.833984
1319.656250	5110.343750
1318.519531	4933.368164
1317.384766	5040.387207
1316.248047	5116.560059
1315.113281	4941.873047
1313.976563	5015.836914
1312.839844	5063.380859
1311.703125	5016.343262
1310.566406	4989.110840
1309.427734	4906.926758
1308.291016	5033.586426
1307.154297	4971.201660
1306.015625	5148.346191
1304.878906	4969.523438
1303.740234	4913.770020
1302.601563	4981.022949
1301.462891	4980.182129
1300.324219	5005.687012
1299.185547	4934.598633
1298.046875	4918.402344
1296.906250	5058.011230
1295.767578	4921.129883
1294.626953	4832.553711
1293.488281	4969.912598
1292.347656	4949.337402
1291.207031	4959.464355
1290.066406	4853.403809
1288.925781	4887.652832
1287.785156	4770.683105
1286.644531	4956.114746
1285.503906	4961.849609
1284.361328	5057.384277
1283.220703	4890.096191
1282.078125	4981.231445
1280.937500	4851.228027
1279.794922	4861.352539
1278.652344	4963.388184
1277.509766	4875.026367
1276.367188	4834.824219
1275.224609	5096.487305
1274.080078	4946.912598
1272.937500	4755.842773
1271.794922	4859.978027
1270.650391	4865.714355
1269.505859	5020.061523
1268.363281	4964.584961
1267.218750	4992.147949
1266.074219	4853.687988
1264.929688	4876.892090
1263.783203	4897.903809
1262.638672	4781.362793
1261.494141	4854.772949
1260.347656	4690.262207
1259.203125	4844.402832
1258.056641	5000.673340
1256.910156	4908.208008
1255.763672	4900.834961
1254.617188	4854.211914
1253.470703	4870.833496
1252.324219	5007.346680
1251.177734	4795.080566
1250.031250	4925.022461
1248.882813	4828.320313
1247.734375	4938.605957
1246.587891	5011.826172
1245.439453	4871.603027
1244.291016	4892.552734
1243.142578	4893.902344
1241.994141	5014.965820
1240.845703	4948.829590
1239.697266	5045.907715
1238.546875	5008.070313
1237.398438	4939.792969
1236.248047	4999.851074
1235.099609	5009.877441
1233.949219	4937.285645
1232.798828	5062.524414
1231.648438	5039.934570
1230.498047	5004.313965
1229.347656	4973.051270
1228.197266	4978.726074
1227.044922	4997.430176
1225.894531	4955.326172
1224.742188	4997.909668
1223.591797	5033.966309
1222.439453	4972.343750
1221.287109	4982.352051
1220.134766	5031.410156
1218.982422	5013.204102
1217.830078	5192.375000
1216.677734	5059.214844
1215.523438	5030.171875
1214.371094	5092.186523
1213.216797	5032.803223
1212.064453	5040.619629
1210.910156	5009.431641
1209.755859	4954.424805
1208.601563	5046.722656
1207.447266	5162.811035
1206.292969	5029.856934
1205.136719	5046.323730
1203.982422	5047.633301
1202.828125	5083.568848
1201.671875	5162.767578
1200.515625	5042.905273
1199.361328	5059.355469
1198.205078	5077.962402
1197.048828	5074.939453
1195.892578	5162.719238
1194.736328	5125.097656
1193.578125	4957.815918
1192.421875	5147.130371
1191.265625	5148.418457
1190.107422	5143.225586
1188.949219	5086.200684
1187.792969	5150.120117
1186.634766	5239.925781
1185.476563	5208.816406
1184.318359	5020.163086
1183.160156	5144.471191
1182.000000	5152.229492
1180.841797	5239.800293
1179.681641	5128.914551
1178.523438	5054.725586
1177.363281	5137.955566
1176.203125	5065.945801
1175.044922	5110.349121
1173.884766	5124.567871
1172.724609	5270.213379
1171.562500	5293.016113
1170.402344	5242.579102
1169.242188	5153.395508
1168.080078	5195.584473
1166.919922	5280.815430
1165.757813	5374.626465
1164.595703	5315.608887
1163.433594	5194.211914
1162.271484	5341.773438
1161.109375	5188.147949
1159.947266	5393.726074
1158.785156	5394.961426
1157.621094	5342.448730
1156.458984	5307.150391
1155.294922	5435.198730
1154.132813	5380.556641
1152.968750	5358.159668
1151.804688	5277.771973
1150.640625	5480.907227
1149.476563	5383.347168
1148.312500	5416.785156
1147.146484	5521.048828
1145.982422	5550.159180
1144.818359	5435.485840
1143.652344	5486.055176
1142.486328	5669.605957
1141.320313	5612.879395
1140.156250	5684.836426
1138.990234	5660.287109
1137.822266	5772.940918
1136.656250	5707.661133
1135.490234	5710.978027
1134.324219	5759.288086
1133.156250	5646.914063
1131.988281	5793.743652
1130.822266	5797.042969
1129.654297	5866.715820
1128.486328	5846.452637
1127.318359	5984.585938
1126.150391	5863.727051
1124.982422	5944.039063
1123.812500	6082.084961
1122.644531	6085.329590
1121.474609	6114.236328
1120.306641	6057.603516
1119.136719	6114.296875
1117.966797	6096.157715
1116.796875	6291.738770
1115.626953	6190.241211
1114.457031	6238.327148
1113.287109	6262.899414
1112.115234	6353.669922
1110.945313	6384.619629
1109.773438	6426.233887
1108.603516	6465.699219
1107.431641	6596.922852
1106.259766	6431.493164
1105.087891	6530.674805
1103.916016	6548.763184
1102.744141	6735.334961
1101.572266	6582.788086
1100.398438	6669.083008
1099.226563	6731.900391
1098.052734	6811.746582
1096.880859	6874.517578
1095.707031	6843.520020
1094.533203	6929.696289
1093.359375	6990.284668
1092.185547	6972.059570
1091.011719	7300.894043
1089.837891	6897.309082
1088.662109	7089.823730
1087.488281	7116.283203
1086.312500	7172.520996
1085.138672	7126.626465
1083.962891	7231.763672
1082.787109	7381.523926
1081.611328	7144.252441
1080.435547	7400.271484
1079.259766	7345.874023
1078.082031	7450.882813
1076.906250	7519.734375
1075.728516	7548.197266
1074.552734	7576.649902
1073.375000	7747.383301
1072.197266	7871.343750
1071.019531	7870.003906
1069.841797	7703.097656
1068.664063	7869.447754
1067.486328	7974.204590
1066.308594	7957.996094
1065.128906	7846.338867
1063.951172	8165.250488
1062.771484	8070.559570
1061.591797	8132.789063
1060.412109	8165.320801
1059.232422	8060.079590
1058.052734	8232.468750
1056.873047	8159.031738
1055.693359	8320.752930
1054.513672	8336.279297
1053.332031	8593.207031
1052.152344	8568.454102
1050.970703	8435.748047
1049.789063	8618.448242
1048.607422	8625.445313
1047.425781	8835.554688
1046.244141	8700.777344
1045.062500	8731.021484
1043.880859	8981.185547
1042.697266	8812.621094
1041.515625	9011.949219
1040.332031	8993.504883
1039.150391	9211.752930
1037.966797	8994.666016
1036.783203	9324.803711
1035.599609	9162.688477
1034.416016	9245.600586
1033.232422	9332.706055
1032.046875	9257.226563
1030.863281	9348.522461
1029.677734	9433.455078
1028.494141	9668.170898
1027.308594	9607.452148
1026.123047	9430.741211
1024.937500	9595.741211
1023.751953	9473.915039
1022.566406	9769.561523
1021.380859	9700.443359
1020.193359	9808.380859
1019.007813	9619.170898
1017.820313	9647.026367
1016.634766	9893.940430
1015.447266	9826.964844
1014.259766	9888.460938
1013.072266	10015.201172
1011.884766	9893.507813
1010.697266	10009.680664
1009.509766	10066.893555
1008.320313	10077.799805
1007.132813	9966.695313
1005.943359	10007.059570
1004.753906	10150.448242
1003.566406	10203.381836
1002.376953	10241.581055
1001.187500	10010.741211
999.998047	10259.101563
998.806641	10051.447266
997.617188	10175.773438
996.427734	10281.154297
995.236328	10119.801758
994.046875	10489.708008
992.855469	10120.545898
991.664063	10345.500977
990.472656	10211.526367
989.281250	10188.801758
988.089844	10306.638672
986.898438	10241.955078
985.705078	10223.429688
984.513672	10106.363281
983.320313	10161.240234
982.126953	10094.528320
980.935547	10128.431641
979.742188	10204.228516
978.548828	10294.665039
977.355469	10219.595703
976.162109	10029.368164
974.966797	10065.344727
973.773438	10279.260742
972.578125	10103.770508
971.384766	10212.964844
970.189453	10278.178711
968.994141	10104.871094
967.798828	10211.916016
966.603516	10072.139648
965.408203	9917.773438
964.212891	10047.791016
963.015625	9809.868164
961.820313	10199.015625
960.623047	10113.688477
959.427734	10220.601563
958.230469	10087.254883
957.033203	10173.249023
955.835938	10010.720703
954.638672	10150.982422
953.441406	10065.749023
952.244141	10137.077148
951.044922	9932.929688
949.847656	10096.056641
948.648438	9975.426758
947.449219	10025.863281
946.251953	10017.893555
945.052734	9968.226563
943.853516	10043.653320
942.654297	9981.492188
941.453125	10038.134766
940.253906	9965.578125
939.054688	9930.542969
937.853516	10007.992188
936.652344	9991.703125
935.453125	10025.390625
934.251953	9963.304688
933.050781	9949.112305
931.849609	9947.410156
930.646484	9783.415039
929.445313	9960.650391
928.244141	10085.825195
927.041016	9790.873047
925.839844	9907.715820
924.636719	9883.153320
923.433594	9686.077148
922.230469	9858.989258
921.027344	9846.913086
919.824219	9797.445313
918.621094	9785.383789
917.417969	9750.480469
916.212891	9777.881836
915.009766	9653.719727
913.804688	9907.380859
912.599609	9795.690430
911.394531	9590.664063
910.189453	9518.484375
908.984375	9695.244141
907.779297	9538.039063
906.574219	9532.258789
905.367188	9553.431641
904.162109	9491.682617
902.955078	9595.755859
901.750000	9585.824219
900.542969	9422.582031
899.335938	9503.826172
898.128906	9437.995117
896.921875	9241.728516
895.712891	9418.199219
894.505859	9348.275391
893.298828	9286.653320
892.089844	9090.545898
890.880859	9055.884766
889.673828	9254.989258
888.464844	9112.762695
887.255859	9073.978516
886.046875	9018.667969
884.835938	8922.031250
883.626953	8937.037109
882.417969	8844.580078
881.207031	8793.477539
879.998047	8798.167969
878.787109	8889.604492
877.576172	8685.703125
876.365234	8614.014648
875.154297	8583.636719
873.943359	8685.366211
872.732422	8580.694336
871.519531	8393.526367
870.308594	8431.283203
869.095703	8285.456055
867.884766	8457.263672
866.671875	8111.478516
865.458984	8328.610352
864.246094	8248.857422
863.033203	8290.720703
861.820313	8178.032715
860.605469	8096.285645
859.392578	8317.352539
858.177734	7941.111816
856.964844	8005.640137
855.750000	7971.327637
854.535156	8074.936523
853.320313	7894.504883
852.105469	7839.651855
850.890625	7862.994629
849.675781	7904.841309
848.458984	7802.712402
847.244141	7733.517578
846.027344	7818.538086
844.810547	7689.753418
843.595703	7711.040527
842.378906	7791.910645
841.162109	7661.141602
839.943359	7776.911621
838.726563	7512.694336
837.509766	7620.235840
836.291016	7711.315918
835.074219	7566.302246
833.855469	7550.637207
832.636719	7543.185059
831.417969	7385.963867
830.199219	7491.363770
828.980469	7504.434570
827.761719	7474.437500
826.542969	7635.123535
825.322266	7412.423828
824.103516	7474.687012
822.882813	7569.715332
821.664063	7468.022461
820.443359	7452.400391
819.222656	7561.719727
818.001953	7470.318359
816.779297	7340.046875
815.558594	7369.492188
814.337891	7503.310547
813.115234	7446.769531
811.894531	7251.117676
810.671875	7458.530762
809.449219	7428.614746
808.226563	7505.047363
807.003906	7522.159180
805.781250	7416.608887
804.558594	7533.881836
803.333984	7450.844238
802.111328	7451.606934
800.886719	7587.198242
799.664063	7516.448730
798.439453	7580.506348
797.214844	7452.610840
795.990234	7551.361328
794.765625	7519.446777
793.541016	7556.928223
792.314453	7496.457520
791.089844	7564.530273
789.863281	7559.150391
788.638672	7537.457031
787.412109	7515.770996
786.185547	7661.261719
784.958984	7421.462891
783.732422	7548.577637
782.505859	7606.369629
781.279297	7572.465820
780.050781	7524.314453
778.824219	7608.555176
777.595703	7603.174316
776.367188	7677.192871
775.140625	7586.310059
773.912109	7721.359863
772.683594	7616.256836
771.453125	7572.223145
770.224609	7701.102539
768.996094	7596.056152
767.765625	7665.917969
766.537109	7723.557617
765.306641	7734.424316
764.076172	7836.743164
762.845703	7666.738281
761.615234	7730.431641
760.384766	7763.633301
759.154297	7804.946777
757.921875	7813.756348
756.691406	7664.203125
755.458984	7788.737305
754.228516	7836.105957
752.996094	7708.946289
751.763672	7756.311523
750.531250	7765.118164
749.298828	7788.119141
748.066406	7898.307617
746.832031	7858.425781
745.599609	7919.912598
744.365234	7782.755859
743.132813	7957.712891
741.898438	7844.909180
740.664063	8029.923340
739.429688	8028.540039
738.195313	7879.331055
736.960938	7748.395020
735.724609	7941.394531
734.490234	7950.146484
733.255859	8027.697754
732.019531	7995.965332
730.783203	7948.060547
729.546875	7995.232422
728.310547	7959.477051
727.074219	7885.317871
725.837891	7823.312988
724.601563	8078.654297
723.363281	7986.324707
722.126953	7997.070801
720.888672	8084.578613
719.650391	7949.878906
718.414063	8136.316406
717.175781	8136.932617
715.937500	7901.355957
714.697266	7964.582031
713.458984	8076.219238
712.220703	7945.694336
710.980469	7914.063965
709.742188	8136.586426
708.501953	8082.750000
707.261719	8061.193359
706.021484	8202.935547
704.781250	8205.552734
703.541016	8183.984375
702.300781	8035.483887
701.058594	8300.020508
699.818359	8151.550781
698.576172	8178.338867
697.335938	8160.819824
696.093750	8135.253418
694.851563	8302.927734
693.609375	8263.257813
692.367188	8209.516602
691.123047	8187.981934
689.880859	8440.010742
688.638672	8325.932617
687.394531	8346.614258
686.150391	8188.362305
684.908203	8404.035156
683.664063	8269.943359
682.419922	8338.843750
681.175781	8319.323242
679.929688	8251.600586
678.685547	8426.908203
677.439453	8272.847656
676.195313	8249.334961
674.949219	8324.187500
673.703125	8465.242188
672.458984	8395.556641
671.212891	8414.168945
669.964844	8314.427734
668.718750	8385.191406
667.472656	8309.550781
666.224609	8296.085938
664.978516	8406.905273
663.730469	8239.107422
662.482422	8546.272461
661.234375	8506.729492
659.986328	8427.138672
658.738281	8489.771484
657.490234	8416.216797
656.242188	8390.737305
654.992188	8455.345703
653.744141	8387.837891
652.494141	8308.347656
651.244141	8424.953125
649.994141	8403.494141
648.744141	8520.041992
647.494141	8570.560547
646.244141	8401.136719
644.994141	8413.676758
643.742188	8374.249023
642.492188	8358.813477
641.240234	8461.260742
639.988281	8413.853516
638.738281	8416.392578
637.486328	8460.866211
636.232422	8291.692383
634.980469	8392.065430
633.728516	8402.589844
632.474609	8449.029297
631.222656	8345.813477
629.968750	8517.920898
628.714844	8496.501953
627.462891	8588.756836
626.208984	8507.519531
624.953125	8535.950195
623.699219	8564.370117
622.445313	8379.554688
621.191406	8587.307617
619.935547	8621.679688
618.679688	8660.022461
617.425781	8501.205078
616.169922	8623.177734
614.914063	8663.490234
613.658203	8691.845703
612.400391	8949.041992
611.144531	8674.910156
609.888672	8743.034180
608.630859	8789.256836
607.373047	8918.984375
606.117188	8700.717773
604.859375	9025.233398
603.601563	8928.266602
602.343750	9026.083008
601.083984	8972.860352
599.826172	9072.621094
598.568359	8973.725586
597.308594	9136.999023
596.048828	9228.737305
594.791016	9417.716797
593.531250	9350.585938
592.271484	9293.400391
591.011719	9398.934570
589.750000	9393.338867
588.490234	9572.207031
587.230469	9606.245117
585.968750	9545.097656
584.707031	9591.022461
583.447266	9607.200195
582.185547	9639.224609
580.923828	9728.699219
579.662109	9715.126953
578.398438	9826.344727
577.136719	9785.034180
575.875000	9872.440430
574.611328	9951.896484
573.347656	9869.018555
572.085938	10017.711914
570.822266	9968.487305
569.558594	9968.738281
568.292969	9901.736328
567.029297	9931.662109
565.765625	9975.417969
564.500000	9985.549805
563.236328	10007.538086
561.970703	10080.900391
560.705078	9974.428711
559.439453	10118.891602
558.173828	9961.093750
556.908203	10010.712891
555.642578	9987.256836
554.376953	9811.794922
553.109375	10200.917969
551.843750	10092.578125
550.576172	9944.812500
549.308594	10091.049805
548.041016	10049.848633
546.773438	10197.989258
545.505859	10180.445313
544.238281	10060.390625
542.968750	9983.742188
541.701172	10204.708008
540.431641	9925.105469
539.164063	10120.392578
537.894531	10175.758789
536.625000	10118.849609
535.355469	10343.536133
534.085938	10251.179688
532.814453	10241.526367
531.544922	10269.269531
530.273438	10332.420898
529.003906	10308.986328
527.732422	10177.373047
526.460938	10297.540039
525.189453	10364.574219
523.917969	10358.841797
522.646484	10410.116211
521.375000	10321.833984
520.101563	10237.512695
518.830078	10436.127930
517.556641	10351.814453
516.283203	10438.394531
515.011719	10611.342773
513.738281	10413.172852
512.462891	10505.583984
511.189453	10529.272461
509.916016	10564.725586
508.642578	10545.233398
507.367188	10584.593750
506.091797	10621.979492
504.818359	10749.551758
503.542969	10592.800781
502.267578	10983.000000
500.992188	10892.897461
499.714844	10655.862305
498.439453	10750.009766
497.164063	10752.058594
495.886719	10650.306641
494.609375	10750.279297
493.333984	10740.579102
492.056641	10860.075195
490.779297	10701.616211
489.501953	10668.447266
488.222656	10605.942383
486.945313	10778.192383
485.666016	10891.708984
484.388672	10670.805664
483.109375	10846.863281
481.830078	10649.501953
480.550781	10647.649414
479.271484	10626.256836
477.992188	10722.094727
476.712891	10821.806641
475.433594	10683.209961
474.152344	10782.892578
472.871094	10650.208008
471.591797	10552.705078
470.310547	10632.839844
469.029297	10533.421875
467.748047	10670.111328
466.466797	10494.644531
465.183594	10559.129883
463.902344	10590.442383
462.619141	10543.756836
461.337891	10654.982422
460.054688	10692.107422
458.771484	10602.556641
457.488281	10579.280273
456.205078	10507.311523
454.921875	10410.048828
453.638672	10546.493164
452.353516	10671.208984
451.070313	10669.350586
449.785156	10616.889648
448.500000	10667.581055
447.214844	10619.029297
445.929688	10753.347656
444.644531	10823.436523
443.359375	10858.498047
442.072266	10969.373047
440.787109	10914.976563
439.500000	10918.906250
438.214844	10971.414063
436.927734	11086.076172
435.640625	10983.131836
434.353516	11113.288086
433.066406	11169.608398
431.777344	11239.498047
430.490234	11126.891602
429.203125	11284.102539
427.914063	11188.991211
426.625000	11256.887695
425.335938	11594.397461
424.046875	11270.419922
422.757813	11442.979492
421.468750	11534.047852
420.179688	11413.790039
418.888672	11553.285156
417.599609	11460.194336
416.308594	11508.570313
415.017578	11589.860352
413.728516	11516.177734
412.437500	11610.992188
411.144531	11694.157227
409.853516	11504.346680
408.562500	11707.498047
407.269531	11713.196289
405.978516	11662.784180
404.685547	11703.307617
403.392578	11647.111328
402.099609	11660.549805
400.806641	11753.252930
399.513672	11635.217773
398.220703	11799.403320
396.927734	11582.847656
395.632813	11623.332031
394.337891	11700.504883
393.044922	11522.706055
391.750000	11796.836914
390.455078	11530.269531
389.160156	11356.453125
387.865234	11416.232422
386.568359	11340.910156
385.273438	11558.879883
383.976563	11261.718750
382.681641	11533.628906
381.384766	11558.612305
380.087891	11554.666016
378.791016	11404.216797
377.494141	11197.925781
376.197266	11369.402344
374.898438	11219.062500
373.601563	11282.598633
372.302734	11363.447266
371.005859	11392.273438
369.707031	11511.580078
368.408203	11320.918945
367.109375	11276.598633
365.810547	11378.542969
364.509766	11501.614258
363.210938	11351.483398
361.910156	11655.308594
360.611328	11545.584961
359.310547	11735.832031
358.009766	11560.773438
356.708984	11626.022461
355.408203	11808.468750
354.107422	11608.510742
352.804688	11673.715820
351.503906	11621.739258
350.201172	11638.910156
348.900391	11646.475586
347.597656	11573.414063
346.294922	11586.745117
344.992188	11264.254883
343.689453	11736.183594
342.386719	11596.015625
341.082031	11281.362305
339.779297	11519.091797
338.474609	11509.408203
337.169922	11438.385742
335.867188	11428.718750
334.562500	11221.678711
333.257813	11238.875977
331.951172	11508.925781
330.646484	11382.419922
329.341797	11349.790039
328.035156	11447.363281
326.728516	11328.590820
325.423828	11301.728516
324.117188	11414.566406
322.810547	11280.554688
321.503906	11416.310547
320.195313	11291.908203
318.888672	11251.686523
317.580078	11419.877930
316.273438	11517.282227
314.964844	11383.390625
313.656250	11471.210938
312.347656	11455.829102
311.039063	11503.490234
309.730469	11486.197266
308.421875	11279.861328
307.111328	11594.820313
305.802734	11571.792969
304.492188	11586.944336
303.181641	11520.035156
301.871094	11634.399414
300.560547	11533.168945
299.250000	11452.952148
297.939453	11552.012695
296.628906	11481.352539
295.316406	11433.591797
294.005859	11410.625000
292.693359	11347.647461
291.380859	11393.291016
290.068359	11242.712891
288.755859	11265.502930
287.443359	11448.239258
286.130859	11499.542969
284.816406	11172.018555
283.503906	11267.125000
282.189453	11107.209961
280.875000	10994.915039
279.560547	11093.806641
278.246094	11129.900391
276.931641	11285.779297
275.617188	11086.073242
274.300781	11201.985352
272.986328	11122.098633
271.669922	11171.455078
270.355469	11161.896484
269.039063	11158.040039
267.722656	11101.005859
266.406250	11119.947266
265.089844	10949.025391
263.771484	10958.495117
262.455078	11195.708008
261.136719	10897.724609
259.820313	10979.291016
258.501953	10890.108398
257.183594	10937.508789
255.865234	10804.750000
254.546875	10910.920898
253.228516	10912.797852
251.908203	11058.711914
250.589844	10859.702148
249.269531	11024.518555
247.949219	10846.419922
246.628906	11085.042969
245.310547	10867.230469
243.988281	11045.181641
242.667969	11185.210938
241.347656	11238.132813
240.025391	11071.535156
238.705078	11325.000000
237.382813	11245.457031
236.060547	11086.509766
234.738281	11349.291992
233.416016	11468.296875
232.093750	11273.477539
230.771484	11560.656250
229.449219	11505.717773
228.125000	11367.669922
226.800781	11401.563477
225.478516	11446.776367
224.154297	11276.710938
222.830078	11493.730469
221.505859	11250.098633
220.181641	11357.583984
218.855469	11357.475586
217.531250	11134.748047
216.205078	11234.650391
214.878906	11326.973633
213.554688	11213.732422
212.228516	11290.944336
210.902344	11166.438477
209.574219	11319.014648
208.248047	11162.514648
206.921875	11275.473633
205.593750	11350.720703
204.265625	11297.876953
202.939453	11371.209961
201.611328	11241.191406
200.283203	11340.860352
198.955078	11527.063477
197.625000	11289.832031
196.296875	11487.265625
194.968750	11426.935547
193.638672	11650.604492
192.308594	11552.659180
190.978516	11654.027344
189.648438	11595.587891
188.318359	11758.929688
186.988281	11972.945313
185.658203	11841.211914
184.326172	12053.258789
182.996094	11962.873047
181.664063	12133.513672
180.332031	12137.011719
179.000000	12020.378906
177.667969	12204.055664
176.335938	12308.860352
175.003906	12246.661133
173.669922	12148.846680
172.337891	12253.603516
171.003906	12339.574219
169.669922	12247.416992
168.335938	12425.201172
167.001953	12319.941406
165.667969	12396.468750
164.333984	12152.621094
163.000000	12423.946289
161.664063	12361.832031
160.328125	12303.484375
158.994141	12179.633789
157.658203	12529.375000
156.322266	12351.256836
154.986328	12511.866211
153.650391	12436.703125
152.312500	12447.606445
150.976563	12538.917969
149.638672	12648.894531
148.302734	12691.533203
146.964844	12829.480469
145.626953	12930.001953
144.289063	12798.801758
142.949219	12932.918945
141.611328	13052.046875
140.273438	13296.250000
138.933594	13256.565430
137.595703	13211.292969
136.255859	13216.430664
134.916016	13333.534180
133.576172	13290.136719
132.236328	13435.166992
130.894531	13658.482422
129.554688	13745.585938
128.212891	13720.789063
126.873047	13638.211914
125.531250	13715.952148
124.189453	13834.662109
122.847656	13785.643555
121.505859	13872.629883
120.164063	13907.433594
118.820313	13983.193359
117.478516	13859.706055
116.134766	13961.507813
114.792969	14035.355469
113.449219	14155.698242
112.105469	13719.693359
110.761719	14156.285156
109.417969	14138.909180
108.072266	14274.022461
106.728516	14386.777344
105.382813	14324.753906
104.039063	14246.024414
102.693359	14063.260742
101.347656	14081.215820
100.001953	14251.488281
98.654297	14451.415039
97.308594	14486.003906
95.962891	14758.226563
94.615234	14809.453125
93.269531	14777.144531
91.921875	15062.158203
90.574219	15402.731445
89.226563	15073.536133
87.878906	14950.323242
86.529297	15094.174805
85.181641	15154.544922
83.832031	15322.407227
82.484375	15447.581055
81.134766	15253.993164
79.785156	15097.526367
78.435547	14922.590820
77.085938	15055.153320
75.736328	15137.672852
74.384766	15209.053711
73.035156	14962.029297
71.683594	14996.400391
70.332031	14721.743164
68.982422	14717.291992
67.630859	14328.095703
66.279297	14406.938477
64.925781	14001.291992
63.574219	13703.015625
62.220703	13750.501953
60.869141	14014.199219
59.515625	13847.269531
58.162109	13155.721680
56.808594	12610.340820
55.455078	12183.347656
54.101563	11714.036133
52.748047	11579.041992
51.392578	11111.848633
