#Wave		#Intensity
4002.114258	6017.120605
4001.416016	6063.653809
4000.717773	5944.575195
4000.018555	5982.981445
3999.320313	6046.419922
3998.621094	5766.427246
3997.921875	5955.061035
3997.223633	5871.854980
3996.524414	5835.156738
3995.824219	5849.015625
3995.125000	5862.874023
3994.425781	5876.732910
3993.725586	5890.591797
3993.026367	5904.450684
3992.326172	5918.309082
3991.625977	5932.167969
3990.925781	5984.777832
3990.225586	5933.832031
3989.525391	6107.794922
3988.825195	6074.690918
3988.125000	6013.049316
3987.423828	5937.154785
3986.723633	5957.605469
3986.022461	5871.043457
3985.321289	6094.775879
3984.620117	5908.379883
3983.918945	5957.342285
3983.217773	5931.433594
3982.516602	6019.580078
3981.814453	5929.527344
3981.113281	6124.531250
3980.411133	6080.800293
3979.708984	5990.780762
3979.006836	6025.429199
3978.304688	6117.035645
3977.602539	5863.294434
3976.900391	5979.812988
3976.198242	6110.529297
3975.495117	6020.590820
3974.792969	5980.489258
3974.089844	5975.971191
3973.386719	6014.133301
3972.683594	6098.510742
3971.980469	6040.644531
3971.277344	6064.558105
3970.574219	6045.812500
3969.870117	5952.444824
3969.166992	5976.360840
3968.462891	6060.662109
3967.759766	5988.648926
3967.055664	5923.761230
3966.351563	6032.886230
3965.647461	6177.478516
3964.943359	6045.146973
3964.238281	6122.256836
3963.534180	6185.147949
3962.829102	6038.686523
3962.125000	5973.862793
3961.419922	6167.980469
3960.714844	5982.583008
3960.009766	6112.813477
3959.304688	6126.012207
3958.599609	6047.047852
3957.893555	6063.796875
3957.188477	5885.650879
3956.482422	5990.991699
3955.777344	6152.975586
3955.071289	6091.777832
3954.365234	5924.364746
3953.659180	6015.468750
3952.953125	5979.102539
3952.246094	5988.760742
3951.540039	5835.626465
3950.833008	5937.300781
3950.126953	6031.866699
3949.419922	6059.195313
3948.712891	5973.343750
3948.005859	5933.487793
3947.298828	6045.670410
3946.591797	6143.677246
3945.884766	6022.522949
3945.176758	6081.629883
3944.469727	6193.716309
3943.761719	5892.447266
3943.053711	6075.168945
3942.345703	6169.543945
3941.637695	6112.058594
3940.929688	6128.729004
3940.221680	5933.605469
3939.513672	5890.301758
3938.804688	6058.732422
3938.095703	6011.894043
3937.387695	6074.424805
3936.678711	5957.059082
3935.969727	6076.000488
3935.260742	5905.784668
3934.551758	6056.423340
3933.841797	5794.622559
3933.132813	6107.340820
3932.422852	6035.888672
3931.713867	6094.811035
3931.003906	6076.220215
3930.293945	5973.110352
3929.583984	5951.023438
3928.874023	6013.441406
3928.164063	5854.067871
3927.453125	6022.069824
3926.743164	5883.859863
3926.032227	6076.432129
3925.322266	6050.831543
3924.611328	6229.245605
3923.900391	6048.888672
3923.189453	5921.333496
3922.478516	6085.619141
3921.766602	6088.157715
3921.055664	5992.287598
3920.344727	5991.325684
3919.632813	5923.609375
3918.920898	6006.966797
3918.208984	6065.711426
3917.497070	6226.276855
3916.785156	5846.072754
3916.073242	6206.725098
3915.361328	5921.416504
3914.648438	5850.276855
3913.936523	5951.096191
3913.223633	5943.124023
3912.510742	6082.481445
3911.797852	5997.332031
3911.084961	6112.088867
3910.372070	5967.358398
3909.659180	6047.027344
3908.945313	5979.462891
3908.232422	6055.600098
3907.518555	5995.062988
3906.804688	6057.159668
3906.091797	6241.831055
3905.377930	6265.344238
3904.663086	6103.265625
3903.949219	6056.772949
3903.235352	6244.826172
3902.520508	6016.330078
3901.806641	6123.844238
3901.091797	6112.365234
3900.376953	6303.786133
3899.662109	6124.394043
3898.947266	6056.966309
3898.232422	6171.379883
3897.517578	6212.341309
3896.802734	6043.564941
3896.086914	6122.976563
3895.372070	6083.556641
3894.656250	5998.730957
3893.940430	5938.384766
3893.224609	6066.658203
3892.508789	6093.621094
3891.792969	6155.489746
3891.076172	6070.720215
3890.360352	5999.938477
3889.643555	6176.956055
3888.927734	6130.604492
3888.210938	5927.277344
3887.494141	5978.647949
3886.777344	6092.778320
3886.060547	5983.703613
3885.342773	6171.011719
3884.625977	5985.269531
3883.909180	6127.207520
3883.191406	6098.346191
3882.473633	6034.651855
3881.755859	6190.448242
3881.038086	6088.445313
3880.320313	5982.992188
3879.602539	5982.032227
3878.884766	6099.440918
3878.166016	6230.734863
3877.448242	6355.025879
3876.729492	6072.147461
3876.010742	6172.069336
3875.291992	6143.250488
3874.573242	6104.005859
3873.854492	6064.773926
3873.135742	6046.416504
3872.416016	6045.446289
3871.697266	6089.662598
3870.977539	5946.199219
3870.257813	5969.568359
3869.539063	5989.455566
3868.819336	6071.861328
3868.099609	6056.995117
3867.378906	6226.175293
3866.659180	6134.906250
3865.938477	6165.164551
3865.218750	6188.471191
3864.498047	6142.365234
3863.777344	6023.409668
3863.056641	6039.789551
3862.335938	6184.501465
3861.615234	6110.680664
3860.894531	6244.932129
3860.173828	6136.455566
3859.452148	5989.883789
3858.730469	6037.444336
3858.009766	6202.808594
3857.288086	5990.466797
3856.566406	6145.392578
3855.844727	6113.234375
3855.122070	6039.530273
3854.400391	6090.498535
3853.678711	6002.973633
3852.956055	6123.158691
3852.233398	6146.402344
3851.510742	5903.198242
3850.788086	6203.245605
3850.065430	6070.803223
3849.342773	6142.459961
3848.620117	5940.908691
3847.896484	6175.064453
3847.173828	6108.392578
3846.450195	6197.278320
3845.727539	6116.800781
3845.003906	6108.909180
3844.280273	6149.385742
3843.555664	6245.116211
3842.832031	6133.599121
3842.108398	6288.002441
3841.383789	6224.849121
3840.660156	6199.687500
3839.935547	6119.311035
3839.210938	6114.878906
3838.486328	6069.044434
3837.761719	6192.261719
3837.037109	6060.199707
3836.312500	6159.238281
3835.586914	6206.523438
3834.862305	6184.842773
3834.136719	5970.139160
3833.411133	6262.126953
3832.685547	6150.854980
3831.959961	6177.431152
3831.234375	6255.669922
3830.508789	6254.666504
3829.782227	6191.678223
3829.056641	6070.176758
3828.330078	6203.462402
3827.603516	6333.263672
3826.876953	6273.743652
3826.150391	6097.251953
3825.423828	6020.586914
3824.697266	6109.056152
3823.970703	6163.104004
3823.243164	6148.361328
3822.516602	6253.957520
3821.789063	6149.827148
3821.061523	6169.463379
3820.333984	6061.943359
3819.606445	6146.869141
3818.878906	6118.400879
3818.151367	6055.592773
3817.422852	6161.084473
3816.695313	6245.939453
3815.966797	6087.012207
3815.238281	6086.036133
3814.509766	6239.503418
3813.781250	6265.955078
3813.052734	6127.711914
3812.324219	6113.007813
3811.595703	6187.484863
3810.866211	6196.780762
3810.136719	6014.062012
3809.408203	6085.090820
3808.678711	6474.869141
3807.949219	6244.214355
3807.219727	6171.254883
3806.489258	6173.691406
3805.759766	6282.316895
3805.030273	6137.462891
3804.299805	6228.937012
3803.569336	6207.395508
3802.839844	6182.437500
3802.109375	6034.269043
3801.378906	6146.233398
3800.647461	6196.572266
3799.916992	6079.262207
3799.186523	6119.333984
3798.455078	6220.952637
3797.723633	6240.471680
3796.993164	6126.647949
3796.261719	6303.419434
3795.530273	6018.732422
3794.798828	6301.398926
3794.066406	6255.971680
3793.334961	6128.570801
3792.602539	6271.043945
3791.871094	6239.303223
3791.138672	6313.421875
3790.406250	6015.395508
3789.673828	6263.610352
3788.941406	6184.110352
3788.208984	6213.829590
3787.476563	6130.951172
3786.743164	6348.286621
3786.010742	6299.519531
3785.277344	6209.846191
3784.543945	6239.537109
3783.810547	6214.673828
3783.077148	6213.677246
3782.343750	6263.800293
3781.610352	6245.759277
3780.875977	6319.708984
3780.142578	6236.944824
3779.408203	6099.714355
3778.673828	6153.220215
3777.939453	6199.899414
3777.205078	6352.090820
3776.470703	6221.736816
3775.736328	6268.381836
3775.000977	6376.256836
3774.266602	6130.294922
3773.531250	6183.734863
3772.795898	6165.739258
3772.061523	6140.948730
3771.326172	6167.162598
3770.589844	6261.352051
3769.854492	6114.205566
3769.119141	6082.642578
3768.382813	6207.377930
3767.647461	6284.515137
3766.911133	6341.248047
3766.174805	6350.419434
3765.438477	6295.075195
3764.702148	6331.409668
3763.965820	6276.085938
3763.229492	6254.717285
3762.492188	6318.186035
3761.755859	6225.570801
3761.018555	6160.122559
3760.281250	6376.197266
3759.543945	6276.834961
3758.806641	6347.029297
3758.069336	6210.413574
3757.332031	6300.932617
3756.593750	6343.978027
3755.856445	6292.136230
3755.118164	6216.596680
3754.379883	6334.153809
3753.641602	6468.606934
3752.903320	6352.440918
3752.165039	6317.566406
3751.426758	6350.404785
3750.688477	6258.004395
3749.949219	6250.233398
3749.210938	6496.223633
3748.471680	6309.122559
3747.732422	6301.346680
3746.993164	6384.882324
3746.253906	6255.370605
3745.514648	6420.024414
3744.774414	6290.547852
3744.035156	6363.892090
3743.294922	6342.597656
3742.554688	6270.631348
3741.815430	6340.564941
3741.075195	6420.608398
3740.334961	6433.087402
3739.593750	6300.376465
3738.853516	6326.374023
3738.113281	6308.483398
3737.372070	6317.596680
3736.630859	6380.694824
3735.890625	6332.440430
3735.149414	6439.367188
3734.408203	6411.354004
3733.666016	6376.605957
3732.924805	6358.726074
3732.183594	6270.061035
3731.441406	6481.395508
3730.699219	6503.946289
3729.958008	6546.706055
3729.215820	6350.264160
3728.473633	6345.878418
3727.731445	6334.757813
3726.988281	6401.087402
3726.246094	6416.895020
3725.502930	6287.953125
3724.760742	6435.032227
3724.017578	6511.397461
3723.274414	6449.792480
3722.531250	6546.314453
3721.788086	6380.456543
3721.044922	6423.152344
3720.300781	6338.063477
3719.557617	6511.863281
3718.813477	6426.787598
3718.070313	6321.574219
3717.326172	6330.642090
3716.582031	6457.295410
3715.837891	6338.690918
3715.092773	6572.776855
3714.348633	6494.488281
3713.604492	6516.950195
3712.859375	6452.123535
3712.114258	6417.524902
3711.369141	6463.479492
3710.624023	6553.038574
3709.878906	6404.375977
3709.133789	6443.601563
3708.388672	6338.602539
3707.642578	6300.701172
3706.897461	6403.625000
3706.151367	6496.458984
3705.405273	6525.582520
3704.659180	6427.355957
3703.913086	6406.222656
3703.166992	6408.546387
3702.420898	6387.422363
3701.673828	6506.960449
3700.927734	6559.492188
3700.180664	6575.180176
3699.433594	6584.168457
3698.687500	6542.952148
3697.940430	6541.903809
3697.192383	6494.016113
3696.445313	6543.152832
3695.698242	6458.488770
3694.950195	6427.356934
3694.202148	6453.075684
3693.455078	6565.704590
3692.707031	6247.115723
3691.958984	6593.678223
3691.210938	6559.207520
3690.461914	6511.384277
3689.713867	6353.344727
3688.964844	6462.540527
3688.216797	6394.719727
3687.467773	6503.873535
3686.718750	6329.244629
3685.969727	6685.361816
3685.220703	6680.953613
3684.471680	6539.745605
3683.721680	6485.320801
3682.972656	6454.261719
3682.222656	6349.842773
3681.473633	6585.572266
3680.723633	6601.187012
3679.973633	6446.792969
3679.223633	6579.074707
3678.472656	6571.355957
3677.722656	6613.616211
3676.972656	6612.556641
3676.221680	6514.906250
3675.470703	6600.447266
3674.719727	6526.137207
3673.968750	6368.622559
3673.217773	6753.719238
3672.466797	6702.716309
3671.715820	6531.938477
3670.963867	6447.717285
3670.212891	6533.172363
3669.460938	6532.125488
3668.708984	6584.285156
3667.957031	6526.707520
3667.205078	6465.824219
3666.453125	6507.997559
3665.701172	6576.743652
3664.948242	6555.753418
3664.196289	6584.603027
3663.443359	6620.086426
3662.690430	6705.375488
3661.937500	6700.980469
3661.184570	6537.223145
3660.431641	6781.821777
3659.678711	6618.104004
3658.924805	6567.266602
3658.171875	6496.537598
3657.417969	6585.066895
3656.664063	6696.786133
3655.910156	6669.182129
3655.156250	6522.217773
3654.402344	6617.315918
3653.648438	6675.921387
3652.893555	6658.280762
3652.139648	6508.098145
3651.384766	6679.339844
3650.629883	6585.516113
3649.875000	6614.270020
3649.120117	6719.180664
3648.365234	6757.836426
3647.610352	6806.411621
3646.854492	6749.051270
3646.099609	6741.351074
3645.343750	6707.182129
3644.587891	6527.454590
3643.832031	6886.965332
3643.076172	6558.436523
3642.320313	6544.158691
3641.564453	6612.541992
3640.808594	6561.896484
3640.051758	6560.845215
3639.294922	6754.770020
3638.539063	6839.596191
3637.782227	6673.319336
3637.025391	6695.371582
3636.267578	6793.375977
3635.510742	6762.569336
3634.753906	6830.817383
3633.996094	6895.742676
3633.239258	6620.700684
3632.481445	6748.336914
3631.723633	6674.669434
3630.965820	6667.002441
3630.208008	6880.326172
3629.449219	6991.349121
3628.691406	6723.149414
3627.933594	6850.645508
3627.174805	6869.325684
3626.416016	6584.795410
3625.657227	6732.022949
3624.898438	6628.810547
3624.139648	6802.336426
3623.380859	6662.916504
3622.621094	6866.018555
3621.862305	6934.061523
3621.102539	6844.066406
3620.342773	6767.266113
3619.583984	6706.945313
3618.824219	6761.807617
3618.063477	6869.291016
3617.303711	6808.981934
3616.543945	6870.378906
3615.783203	6849.548340
3615.023438	6917.494629
3614.262695	6909.812012
3613.501953	7004.020020
3612.741211	7045.618652
3611.980469	6913.062988
3611.219727	6757.553223
3610.458008	7052.086914
3609.697266	6975.422852
3608.935547	7000.573730
3608.173828	6887.829102
3607.412109	6890.007813
3606.650391	6875.776367
3605.888672	6933.741211
3605.126953	6860.449707
3604.365234	7026.651855
3603.602539	6996.007324
3602.839844	6935.857910
3602.078125	7013.438965
3601.315430	7038.541504
3600.552734	6853.857910
3599.790039	6921.582520
3599.026367	7025.329102
3598.263672	7086.451660
3597.500000	6954.289063
3596.737305	6959.725098
3595.973633	6948.786621
3595.209961	6813.434570
3594.446289	7002.210938
3593.682617	7125.465820
3592.918945	6937.789551
3592.154297	6894.141602
3591.390625	6925.752441
3590.625977	6999.875000
3589.861328	6926.803711
3589.096680	7187.288086
3588.332031	6967.086914
3587.567383	6884.249023
3586.802734	7170.760742
3586.038086	7078.112793
3585.272461	7041.038574
3584.506836	7026.843262
3583.742188	7202.095703
3582.976563	6933.151855
3582.210938	6798.167480
3581.445313	6996.224121
3580.678711	6978.782715
3579.913086	7042.937500
3579.146484	7097.282227
3578.380859	7180.972656
3577.614258	6840.566406
3576.847656	6960.147949
3576.081055	7079.690918
3575.314453	7010.085938
3574.547852	6982.883301
3573.780273	7027.396973
3573.013672	6980.645996
3572.246094	7152.223633
3571.478516	6958.862305
3570.710938	6993.578613
3569.943359	6784.019531
3569.175781	7189.974121
3568.408203	7136.729004
3567.639648	7164.883301
3566.872070	7212.557129
3566.103516	7016.146973
3565.334961	7018.276367
3564.567383	7091.975586
3563.798828	7071.323730
3563.029297	6842.539551
3562.260742	7179.613770
3561.492188	7074.427734
3560.722656	7005.031738
3559.953125	6932.407715
3559.184570	7022.284668
3558.415039	6822.968750
3557.645508	6981.052734
3556.875000	7077.374023
3556.105469	7004.795898
3555.335938	6958.216309
3554.565430	7090.205078
3553.794922	6943.003418
3553.025391	7146.350586
3552.254883	6911.575195
3551.484375	7095.395508
3550.712891	6938.555176
3549.942383	6995.823242
3549.171875	7059.558105
3548.400391	7311.324219
3547.628906	6914.659180
3546.858398	6949.205078
3546.086914	7048.553711
3545.315430	7015.022461
3544.542969	7088.411133
3543.771484	6795.751465
3543.000000	6998.696777
3542.227539	6881.003418
3541.455078	6902.563965
3540.682617	6953.251465
3539.911133	6978.029785
3539.137695	6976.912109
3538.365234	6979.029785
3537.592773	7091.136719
3536.819336	6950.917480
3536.046875	7008.015625
3535.273438	6945.457031
3534.500000	7118.922852
3533.726563	7104.852539
3532.953125	6942.119141
3532.179688	6970.089355
3531.406250	7004.512207
3530.631836	7003.390137
3529.857422	6953.820313
3529.083984	6917.184082
3528.309570	6928.990723
3527.535156	6953.707031
3526.760742	6978.415039
3525.985352	7077.341309
3525.210938	7066.527344
3524.436523	7294.455566
3523.661133	6786.853516
3522.885742	7072.806641
3522.110352	7107.144531
3521.334961	7083.437012
3520.559570	7043.618652
3519.784180	6910.342773
3519.008789	6799.667480
3518.232422	6895.240234
3517.456055	7035.883789
3516.680664	6983.220215
3515.904297	7059.393555
3515.127930	6984.202637
3514.351563	6905.815430
3513.574219	7007.716309
3512.797852	6790.956543
3512.020508	6937.894043
3511.244141	7030.087891
3510.466797	6996.792480
3509.689453	6992.455078
3508.912109	7042.788574
3508.134766	7038.444824
3507.356445	7214.134277
3506.579102	7241.907227
3505.800781	7063.986328
3505.023438	6998.588379
3504.245117	7077.787109
3503.466797	6919.250977
3502.688477	7168.660156
3501.910156	7048.695313
3501.130859	6954.454590
3500.352539	7056.067383
3499.573242	7058.146484
3498.794922	6899.765137
3498.015625	6869.781250
3497.236328	7025.880371
3496.457031	7079.284668
3495.677734	7171.157715
3494.897461	7096.256348
3494.118164	7114.355469
3493.337891	7081.159668
3492.557617	7057.589355
3491.777344	7066.072266
3490.998047	6956.002441
3490.216797	7188.746094
3489.436523	7072.285156
3488.656250	7003.899414
3487.875000	6954.747070
3487.094727	7200.146973
3486.313477	7010.135742
3485.532227	6887.395020
3484.750977	7075.088379
3483.969727	6987.569824
3483.188477	7136.799316
3482.406250	7068.489258
3481.625000	7057.762695
3480.842773	7126.974609
3480.060547	7125.832520
3479.278320	7067.155762
3478.496094	7117.157227
3477.713867	7090.453613
3476.931641	7108.486816
3476.148438	7113.736328
3475.366211	7150.921875
3474.583008	7121.036133
3473.799805	6918.750000
3473.016602	7185.791504
3472.233398	7117.613281
3471.450195	7090.942871
3470.666992	7070.662109
3469.882813	6992.963867
3469.099609	7221.501953
3468.315430	7041.750000
3467.531250	7066.130859
3466.747070	6998.046875
3465.962891	7079.804688
3465.178711	7215.717773
3464.394531	7004.242676
3463.609375	7238.894043
3462.825195	7209.063477
3462.040039	7121.910156
3461.254883	7104.845703
3460.469727	7122.812012
3459.684570	7194.892578
3458.899414	7305.146973
3458.113281	7144.848145
3457.328125	6882.775391
3456.541992	7171.192383
3455.755859	7154.137695
3454.969727	7232.504395
3454.183594	7148.665039
3453.397461	7131.621582
3452.611328	7187.700684
3451.824219	7122.979004
3451.038086	7099.591797
3450.250977	7069.856934
3449.463867	7256.164063
3448.676758	7032.649902
3447.889648	7222.079102
3447.102539	7125.658691
3446.315430	7083.242676
3445.527344	7120.200195
3444.740234	7265.058594
3443.952148	7051.276855
3443.164063	7192.926758
3442.375977	7166.395020
3441.587891	7406.308105
3440.799805	6951.616699
3440.011719	7042.457520
3439.222656	7082.542969
3438.434570	7198.691895
3437.645508	7283.109863
3436.856445	7094.981934
3436.067383	7147.706055
3435.278320	7238.426758
3434.489258	7196.091797
3433.699219	7245.606934
3432.910156	6991.143555
3432.120117	7119.819336
3431.330078	7134.504883
3430.540039	7177.667480
3429.750000	7315.744141
3428.959961	7143.729492
3428.169922	7076.156738
3427.378906	7302.738770
3426.588867	7121.321777
3425.797852	7189.737793
3425.006836	7100.071777
3424.215820	7105.254883
3423.424805	7334.810059
3422.633789	7194.608398
3421.842773	7168.181641
3421.050781	7255.475586
3420.259766	7112.194824
3419.467773	6968.959961
3418.675781	7150.958008
3417.883789	7077.208984
3417.091797	7170.758789
3416.299805	7097.029785
3415.506836	7136.908691
3414.714844	7205.166504
3413.921875	7036.843262
3413.128906	7165.013184
3412.336914	7015.668457
3411.543945	7291.973145
3410.750000	7048.092773
3409.957031	7062.720703
3409.164063	7187.631836
3408.370117	7006.896484
3407.576172	7194.777832
3406.783203	6957.406738
3405.989258	7230.260254
3405.195313	7115.752930
3404.400391	7215.350098
3403.606445	7173.275391
3402.812500	7005.331543
3402.017578	7130.070313
3401.222656	7097.466797
3400.427734	7234.732910
3399.633789	7101.481445
3398.837891	6971.417480
3398.042969	7202.957520
3397.248047	7066.631348
3396.452148	7078.070801
3395.657227	7281.199219
3394.861328	7154.351563
3394.065430	7005.553711
3393.269531	7233.723633
3392.473633	7069.258301
3391.677734	7064.984863
3390.880859	7321.290527
3390.084961	7153.750488
3389.288086	7284.419922
3388.491211	7239.320313
3387.694336	7194.234863
3386.897461	7127.205078
3386.100586	7019.422363
3385.302734	7231.542480
3384.505859	7076.745605
3383.708008	7204.144043
3382.911133	7014.921387
3382.113281	7139.155273
3381.315430	7210.080078
3380.517578	7133.732910
3379.718750	7123.191895
3378.920898	7172.161133
3378.123047	7202.325684
3377.324219	7085.325684
3376.525391	7046.624512
3375.726563	6998.545410
3374.927734	7210.225098
3374.128906	7074.524902
3373.330078	7114.060059
3372.530273	7069.128418
3371.731445	7340.081055
3370.931641	7176.304199
3370.131836	7075.107422
3369.332031	7067.721191
3368.532227	7204.106445
3367.732422	7059.205078
3366.932617	7139.308105
3366.131836	7038.197754
3365.332031	7068.303223
3364.531250	7104.645020
3363.730469	7112.873047
3362.929688	7320.900879
3362.128906	7010.706543
3361.327148	7090.726074
3360.526367	7136.395508
3359.725586	7222.608887
3358.923828	7102.912598
3358.122070	7136.081543
3357.320313	7203.542480
3356.518555	7364.519043
3355.716797	7042.244141
3354.915039	7200.077637
3354.112305	7136.594238
3353.310547	7204.000000
3352.507813	7233.999023
3351.705078	7344.976074
3350.902344	7231.679199
3350.099609	7090.393066
3349.296875	7070.575195
3348.493164	7193.958008
3347.690430	7055.857910
3346.886719	7151.195801
3346.083008	7178.051758
3345.279297	6993.355957
3344.475586	7119.761719
3343.671875	7155.938965
3342.868164	7073.946289
3342.063477	7138.099121
3341.259766	7140.062988
3340.455078	7132.702148
3339.650391	7193.706543
3338.845703	7018.564453
3338.041016	7303.230957
3337.236328	7255.470703
3336.431641	7185.987305
3335.625977	7101.000977
3334.821289	7087.444336
3334.015625	7123.555176
3333.209961	7165.860840
3332.404297	7248.491211
3331.598633	7206.996582
3330.791992	7174.820801
3329.986328	7124.046875
3329.180664	7234.538574
3328.374023	7140.364258
3327.567383	7257.017578
3326.760742	7305.445313
3325.954102	7279.481445
3325.147461	7216.344238
3324.339844	7057.189941
3323.533203	7189.249512
3322.725586	7281.005859
3321.918945	7159.075195
3321.111328	7170.310547
3320.303711	7144.396484
3319.496094	7254.670410
3318.687500	7207.088867
3317.879883	7267.812988
3317.071289	7217.150879
3316.263672	7079.900879
3315.455078	7125.152832
3314.646484	7297.162598
3313.837891	7088.859863
3313.029297	7260.820313
3312.219727	7086.585938
3311.411133	7066.908691
3310.601563	7217.162598
3309.792969	7141.867676
3308.983398	7128.367676
3308.173828	7158.104492
3307.364258	7320.596680
3306.553711	7205.201172
3305.744141	7170.092773
3304.933594	7162.770508
3304.124023	7269.616211
3303.313477	7253.024414
3302.502930	7159.323242
3301.692383	7136.585938
3300.881836	7332.791016
3300.070313	7205.207520
3299.259766	7268.786133
3298.448242	7310.769531
3297.637695	7281.862305
3296.826172	7172.854492
3296.014648	7184.025879
3295.203125	7210.594727
3294.390625	7092.411133
3293.579102	7300.655273
3292.766602	7240.989258
3291.955078	7286.000000
3291.142578	7315.607422
3290.330078	7185.192383
3289.517578	7211.729980
3288.705078	7312.086426
3287.891602	7150.977539
3287.079102	7226.709961
3286.265625	7173.280273
3285.453125	7298.171875
3284.639648	7223.231445
3283.826172	7169.827637
3283.012695	7202.477051
3282.198242	7069.215332
3281.384766	7310.748535
3280.570313	7278.862793
3279.756836	7173.289063
3278.942383	7150.645996
3278.127930	7170.986816
3277.313477	7243.499023
3276.499023	7128.791504
3275.683594	7118.442383
3274.869141	7215.469727
3274.053711	7070.148438
3273.238281	7197.819824
3272.423828	7233.460938
3271.608398	7220.036621
3270.791992	7047.218750
3269.976563	7150.292480
3269.161133	7185.917480
3268.344727	7233.785645
3267.528320	7201.991211
3266.712891	7341.728027
3265.896484	7254.802734
3265.080078	7275.071777
3264.262695	7252.474121
3263.446289	7211.518066
3262.629883	7207.300293
3261.812500	7068.446289
3260.995117	7284.532227
3260.177734	7121.238770
3259.360352	7117.037109
3258.542969	6941.590820
3257.725586	7160.614746
3256.907227	7211.434570
3256.089844	7332.536621
3255.271484	7218.287598
3254.453125	7180.462891
3253.634766	7258.740723
3252.816406	7291.175293
3251.998047	7259.464844
3251.179688	7148.371582
3250.360352	7180.807617
3249.541992	7213.233398
3248.722656	7325.002441
3247.903320	7223.124023
3247.083984	7276.884277
3246.264648	7162.843750
3245.444336	7329.450684
3244.625000	7175.791992
3243.804688	7272.212891
3242.985352	7088.125977
3242.165039	7282.070801
3241.344727	7235.186523
3240.524414	7218.789063
3239.703125	7351.685059
3238.882813	7234.749023
3238.061523	7264.044434
3237.241211	7074.073730
3236.419922	7234.309570
3235.598633	7096.156738
3234.777344	7384.175293
3233.956055	7221.695801
3233.134766	7232.707520
3232.312500	7237.019531
3231.490234	7241.331055
3230.668945	7245.643066
3229.846680	7249.954590
3229.024414	7254.266602
3228.202148	7292.619629
3227.378906	7276.259766
3226.556641	7259.899414
3225.733398	7243.539063
3224.911133	7227.179199
3224.087891	7408.263672
3223.264648	7194.488770
3222.441406	7287.463379
3221.618164	7301.473145
3220.793945	7458.145020
3219.970703	7387.143066
3219.146484	7422.370605
3218.322266	7272.512207
3217.498047	7219.774902
3216.673828	7373.299805
3215.849609	7284.172363
3215.025391	7395.188477
3214.201172	7433.411621
3213.375977	7283.694824
3212.550781	7403.749023
3211.725586	7335.897461
3210.900391	7346.837891
3210.075195	7463.794434
3209.250000	7335.392578
3208.424805	7346.327148
3207.598633	7317.897949
3206.772461	7374.239258
3205.947266	7357.921387
3205.121094	7477.788574
3204.294922	7627.874512
3203.467773	7460.260742
3202.641602	7286.650879
3201.815430	7370.160645
3200.988281	7420.381348
3200.161133	7425.235840
3199.333984	7369.632813
3198.506836	7383.560547
3197.679688	7572.750977
3196.852539	7347.954102
3196.024414	7389.065918
3195.197266	7282.165527
3194.369141	7537.687988
3193.541016	7485.146973
3192.712891	7656.023926
3191.884766	7301.635254
3191.056641	7451.360840
3190.227539	7477.321289
3189.399414	7684.292969
3188.570313	7453.803711
3187.741211	7392.285645
3186.913086	7662.497070
3186.083008	7323.579590
3185.253906	7310.344727
3184.424805	7508.100586
3183.594727	7419.499512
3182.765625	7614.160645
3181.935547	7468.331055
3181.105469	7665.933594
3180.275391	7580.375000
3179.445313	7404.508301
3178.615234	7656.217773
3177.784180	7549.630371
3176.954102	7590.553711
3176.123047	7550.213867
3175.291992	7317.325684
3174.460938	7583.887207
3173.629883	7522.512695
3172.798828	7554.384766
3171.966797	7526.109375
3171.135742	7491.830566
3170.303711	7547.738281
3169.471680	7447.347656
3168.639648	7638.464844
3167.807617	7691.316895
3166.975586	7590.951172
3166.143555	7316.416992
3165.310547	7480.405273
3164.478516	7488.210449
3163.645508	7435.973145
3162.812500	7440.781250
3161.979492	7493.604492
3161.146484	7384.380371
3160.312500	7725.202637
3159.479492	7534.986328
3158.645508	7461.796875
3157.812500	7649.511719
3156.978516	7597.313965
3156.144531	7371.267578
3155.310547	7462.996094
3154.475586	7533.717773
3153.641602	7577.450195
3152.807617	7687.075195
3151.972656	7518.104980
3151.137695	7585.776855
3150.302734	7479.757324
3149.467773	7586.332520
3148.632813	7447.419922
3147.796875	7506.080078
3146.961914	7687.408203
3146.125977	7464.772461
3145.290039	7520.409668
3144.455078	7462.373535
3143.618164	7401.364746
3142.782227	7567.613770
3141.946289	7599.281738
3141.109375	7367.906738
3140.273438	7537.068359
3139.436523	7604.582031
3138.599609	7549.583496
3137.762695	7461.744141
3136.925781	7496.384277
3136.088867	7548.929688
3135.250977	7455.161133
3134.414063	7522.621582
3133.576172	7425.902344
3132.738281	7391.882324
3131.900391	7524.961914
3131.062500	7413.372070
3130.224609	7659.750000
3129.385742	7416.953125
3128.547852	7412.778809
3127.708984	7509.971191
3126.870117	7481.936035
3126.031250	7471.791992
3125.192383	7434.832031
3124.353516	7573.669434
3123.514648	7426.483887
3122.674805	7615.911133
3121.835938	7436.008301
3120.996094	7393.127441
3120.156250	7469.341309
3119.316406	7542.554199
3118.476563	7377.657715
3117.635742	7489.543945
3116.795898	7550.816895
3115.955078	7573.399902
3115.114258	7485.931641
3114.274414	7550.148926
3113.433594	7510.283203
3112.591797	7601.229980
3111.750977	7617.840820
3110.910156	7456.141113
3110.068359	7731.271484
3109.226563	7429.977051
3108.384766	7544.625000
3107.542969	7590.929199
3106.701172	7509.535645
3105.859375	7502.390137
3105.017578	7616.951660
3104.174805	7502.945313
3103.332031	7477.999023
3102.490234	7598.442871
3101.647461	7644.685059
3100.803711	7572.270508
3099.960938	7523.604004
3099.118164	7709.193848
3098.274414	7464.856934
3097.431641	7591.113770
3096.587891	7551.365234
3095.744141	7683.493164
3094.900391	7587.451660
3094.056641	7781.737305
3093.211914	7425.077148
3092.368164	7672.628906
3091.523438	7564.806641
3090.678711	7536.946777
3089.833984	7689.645996
3088.989258	7389.514160
3088.144531	7409.037598
3087.299805	7609.017090
3086.454102	7533.845215
3085.609375	7553.335449
3084.763672	7646.743652
3083.917969	7601.166016
3083.072266	7709.316406
3082.226563	7569.165039
3081.380859	7677.285645
3080.534180	7525.365723
3079.688477	7651.182617
3078.841797	7649.951660
3077.995117	7539.453613
3077.148438	7446.707031
3076.301758	7472.079102
3075.455078	7577.139648
3074.607422	7605.433594
3073.760742	7583.554199
3072.913086	7635.439941
3072.065430	7554.565430
3071.217773	7665.426270
3070.370117	7614.062012
3069.522461	7766.154785
3068.673828	7502.537598
3067.826172	7645.756836
3066.977539	7567.904297
3066.128906	7678.654785
3065.280273	7279.702148
3064.431641	7525.959473
3063.583008	7403.999023
3062.734375	7644.267578
3061.884766	7757.859863
3061.035156	7659.469727
3060.186523	7549.338379
3059.336914	7730.573242
3058.487305	7549.851074
3057.636719	7869.291504
3056.787109	7541.538574
3055.937500	7628.550293
3055.086914	7630.263184
3054.236328	7717.231934
3053.385742	7680.716797
3052.535156	7526.655273
3051.684570	7531.321289
3050.833984	7688.761230
3049.982422	7699.273926
3049.130859	7762.649902
3048.280273	7473.615234
3047.428711	7510.581543
3046.577148	7641.477051
3045.725586	7607.959961
3044.873047	7609.670410
3044.021484	7681.800781
3043.168945	7618.955566
3042.316406	7535.597656
3041.464844	7692.756348
3040.612305	7638.735840
3039.758789	7391.229492
3038.906250	7627.482910
3038.053711	7643.840332
3037.200195	7355.425781
3036.346680	7626.729980
3035.493164	7604.995605
3034.639648	7571.551758
3033.786133	7467.833496
3032.932617	7826.786133
3032.079102	7515.198730
3031.224609	7636.928711
3030.370117	7691.306152
3029.515625	7821.747070
3028.661133	7697.606934
3027.806641	7503.300293
3026.952148	7595.685547
3026.097656	7655.873535
3025.242188	7581.544434
3024.386719	7726.493164
3023.532227	7602.486816
3022.676758	7367.467773
3021.820313	7646.790039
3020.964844	7812.084473
3020.109375	7629.722656
3019.252930	7689.825684
3018.397461	7659.386719
3017.541016	7477.137207
3016.684570	7706.545898
3015.828125	7463.054688
3014.970703	7476.443848
3014.114258	7460.651367
3013.256836	7541.133301
3012.400391	7662.424316
3011.542969	7422.051758
3010.685547	7633.713867
3009.828125	7600.415039
3008.970703	7657.489746
3008.112305	7571.737305
3007.254883	7692.905273
3006.396484	7857.736328
3005.538086	7536.036133
3004.679688	7584.335938
3003.821289	7868.500488
3002.962891	7765.326172
3002.104492	7714.585449
3001.245117	7669.682617
3000.385742	7581.140625
2999.527344	7722.497559
2998.667969	7729.981445
2997.808594	7519.301270
2996.948242	7692.591309
2996.088867	7519.787109
2995.229492	7631.964844
2994.369141	7624.921387
2993.508789	7478.369141
2992.648438	7756.141602
2991.788086	7720.025391
2990.927734	7718.781738
2990.067383	7659.446289
2989.206055	7722.103516
2988.344727	7735.377930
2987.484375	7559.939453
2986.623047	7564.526855
2985.761719	7624.255859
2984.899414	7736.197754
2984.038086	7676.924805
2983.176758	7617.670410
2982.314453	7604.841309
2981.452148	7548.517578
2980.589844	7677.777344
2979.727539	7688.136230
2978.865234	7855.011719
2978.002930	7662.474121
2977.139648	7745.269531
2976.276367	7746.918945
2975.414063	7763.050293
2974.550781	7588.027832
2973.687500	7867.690918
2972.824219	7779.564941
2971.959961	7656.729980
2971.096680	7771.269531
2970.232422	7613.748535
2969.368164	7829.525879
2968.503906	7790.656250
2967.639648	7824.110352
2966.775391	8007.937012
2965.911133	7783.998535
2965.045898	7762.506836
2964.181641	7564.694824
2963.316406	7615.498047
2962.451172	7796.319824
2961.585938	7673.716797
2960.720703	7678.257324
2959.854492	7590.371582
2958.989258	7823.060547
2958.123047	7657.221191
2957.256836	7999.524902
2956.391602	7672.071289
2955.524414	7742.983398
2954.658203	7707.109375
2953.791992	7795.302246
2952.924805	7664.241211
2952.058594	7616.860352
2951.191406	7702.141113
2950.324219	7749.913086
2949.457031	7858.205566
2948.589844	7854.056641
2947.722656	7795.155273
2946.854492	7646.952637
2945.986328	7654.362305
2945.119141	7791.385742
2944.250977	7640.375000
2943.382813	7881.015625
2942.513672	7514.115723
2941.645508	7800.754883
2940.777344	7874.326172
2939.908203	7674.503418
2939.039063	7998.380371
2938.169922	7882.024414
2937.300781	7734.067871
2936.431641	7833.471191
2935.562500	7901.214355
2934.692383	7761.950195
2933.822266	7803.813477
2932.953125	8026.716797
2932.083008	7916.232910
2931.212891	7857.497559
2930.341797	7936.660156
2929.471680	7800.395508
2928.601563	7750.320801
2927.730469	7838.074707
2926.859375	7825.328125
2925.988281	7795.364746
2925.117188	7871.589355
2924.246094	7858.842773
2923.375000	7892.000488
2922.502930	7850.571289
2921.630859	8038.583496
2920.759766	8020.082520
2919.887695	7740.697266
2919.015625	7925.768555
2918.142578	7881.500000
2917.270508	8115.203125
2916.397461	7973.505371
2915.525391	7771.696289
2914.652344	7767.578613
2913.779297	7843.645020
2912.906250	7911.097168
2912.033203	8052.959473
2911.159180	8111.768555
2910.286133	8076.117676
2909.412109	8037.617188
2908.538086	8013.433105
2907.664063	8015.000977
2906.790039	7847.828125
2905.916016	7929.488281
2905.041992	7951.081543
2904.166992	8004.112305
2903.291992	7959.948730
2902.417969	7992.956543
2901.542969	7974.523926
2900.666992	8078.937500
2899.791992	7940.531250
2898.916992	7836.439453
2898.041016	8000.787109
2897.165039	7822.491211
2896.290039	8052.440430
2895.414063	8034.017090
2894.538086	7835.826172
2893.661133	7962.950195
2892.785156	7887.497070
2891.908203	7983.197754
2891.032227	8084.570801
2890.155273	7943.555176
2889.278320	7993.587402
2888.401367	7929.590332
2887.523438	7802.916504
2886.646484	7904.235840
2885.768555	7922.902832
2884.891602	7764.957520
2884.013672	7997.241699
2883.135742	7759.603516
2882.256836	8017.437500
2881.378906	8093.002441
2880.500977	7915.232910
2879.622070	7985.098633
2878.743164	7872.844238
2877.865234	8010.968750
2876.985352	7955.633301
2876.106445	7732.525879
2875.227539	7927.474121
2874.348633	7875.020996
2873.468750	8101.150391
2872.588867	7824.163574
2871.708984	7976.346680
2870.829102	7815.955566
2869.949219	8127.167969
2869.069336	7912.839844
2868.188477	8030.832031
2867.308594	8043.731934
2866.427734	7911.846680
2865.546875	8072.356934
2864.666016	7886.588379
2863.785156	7828.565918
2862.903320	8164.905762
2862.022461	8004.740723
2861.140625	8031.809082
2860.258789	8084.389160
2859.376953	7907.302734
2858.495117	8059.100586
2857.613281	7893.412109
2856.731445	7889.303711
2855.848633	7856.862793
2854.965820	8130.384277
2854.083984	7922.303711
2853.201172	7844.561523
2852.318359	7865.946777
2851.434570	7867.507324
2850.551758	7917.187500
2849.667969	7915.908691
2848.785156	7911.800781
2847.901367	7975.595215
2847.017578	7931.875488
2846.133789	7919.280762
2845.249023	7782.264648
2844.365234	8072.229980
2843.480469	7873.040039
2842.596680	7916.992188
2841.711914	7989.189941
2840.827148	7948.341797
2839.942383	7924.456543
2839.056641	8058.760254
2838.171875	7828.697754
2837.286133	7931.912109
2836.401367	7806.405762
2835.515625	7971.691895
2834.629883	7995.805664
2833.743164	8005.801758
2832.857422	7993.222168
2831.971680	7867.806152
2831.084961	8086.538574
2830.198242	8071.131836
2829.311523	8010.615234
2828.424805	7958.575195
2827.538086	7948.833496
2826.651367	8102.554199
2825.763672	7949.082520
2824.876953	7978.789063
2823.989258	7991.584473
2823.101563	8038.172852
2822.213867	8036.874023
2821.325195	7965.186523
2820.437500	7997.680664
2819.549805	8010.461426
2818.661133	7986.653320
2817.772461	8069.774902
2816.883789	8015.018555
2815.995117	8039.038574
2815.106445	8161.483398
2814.216797	7923.963867
2813.328125	7992.969727
2812.438477	8132.228027
2811.548828	8049.407715
2810.659180	8126.789063
2809.769531	8159.191406
2808.879883	8202.819336
2807.989258	7962.751465
2807.099609	8135.577637
2806.208984	8055.643555
2805.318359	8211.553711
2804.427734	8159.702148
2803.537109	8242.577148
2802.646484	7924.165527
2801.754883	8091.217773
2800.863281	8075.884277
2799.972656	8153.108887
2799.081055	8118.140625
2798.189453	8268.230469
2797.296875	8244.466797
2796.405273	8159.049316
2795.513672	8418.351563
2794.621094	8218.053711
2793.728516	8255.945313
2792.835938	7991.314453
2791.943359	8034.831543
2791.050781	8179.138184
2790.157227	8152.618652
2789.264648	8375.237305
2788.371094	8222.750000
2787.477539	8263.395508
2786.583984	8304.026367
2785.690430	8243.938477
2784.796875	8332.107422
2783.903320	8252.458008
2783.008789	8365.761719
2782.114258	8205.059570
2781.219727	8254.045898
2780.325195	8378.471680
2779.430664	8279.318359
2778.536133	8272.391602
2777.640625	8382.787109
2776.746094	8208.272461
2775.850586	8153.889160
2774.955078	8306.128906
2774.059570	8050.756836
2773.164063	8275.531250
2772.267578	8430.467773
2771.372070	8169.618164
2770.475586	8332.889648
2769.579102	8320.384766
2768.683594	8132.188477
2767.786133	8222.888672
2766.889648	8430.652344
2765.993164	8228.590820
2765.095703	8179.880371
2764.199219	8139.545410
2763.301758	8436.342773
2762.404297	8173.125488
2761.506836	8397.405273
2760.608398	8376.552734
2759.710938	8210.923828
2758.812500	8231.866211
2757.914063	8288.985352
2757.016602	8295.993164
2756.118164	8275.173828
2755.218750	8371.206055
2754.320313	8283.622070
2753.421875	8154.348633
2752.522461	8364.362305
2751.623047	8343.546875
2750.723633	8414.471680
2749.824219	8324.170898
2748.924805	8420.085938
2748.025391	8463.177734
2747.125000	8289.572266
2746.224609	8288.230469
2745.325195	8375.756836
2744.424805	8241.121094
2743.523438	8334.178711
2742.623047	8349.484375
2741.722656	8306.502930
2740.821289	8280.184570
2739.919922	8436.986328
2739.019531	8510.517578
2738.118164	8276.165039
2737.215820	8302.555664
2736.314453	8284.576172
2735.413086	8413.526367
2734.510742	8342.872070
2733.608398	8410.802734
2732.706055	8345.712891
2731.803711	8275.102539
2730.901367	8484.276367
2729.999023	8397.049805
2729.095703	8343.078125
2728.193359	8419.248047
2727.290039	8282.246094
2726.386719	8327.956055
2725.483398	8464.969727
2724.579102	8319.725586
2723.675781	8282.416016
2722.771484	8427.666992
2721.868164	8404.179688
2720.963867	8353.048828
2720.059570	8282.582031
2719.155273	8430.501953
2718.250000	8337.936523
2717.345703	8474.746094
2716.440430	8456.797852
2715.536133	8331.124023
2714.630859	8244.157227
2713.725586	8306.334961
2712.819336	8525.866211
2711.914063	8419.585938
2711.007813	8630.748047
2710.102539	8472.051758
2709.196289	8329.960938
2708.290039	8397.580078
2707.383789	8467.935547
2706.477539	8452.774414
2705.570313	8451.405273
2704.664063	8298.404297
2703.756836	8302.573242
2702.849609	8339.813477
2701.942383	8459.708984
2701.035156	8282.007813
2700.127930	8390.854492
2699.219727	8455.597656
2698.312500	8520.319336
2697.404297	8587.773438
2696.496094	8382.666016
2695.587891	8565.723633
2694.679688	8468.014648
2693.770508	8353.827148
2692.862305	8368.980469
2691.953125	8444.644531
2691.043945	8410.273438
2690.134766	8447.407227
2689.225586	8481.780273
2688.316406	8461.164063
2687.406250	8440.553711
2686.497070	8321.020508
2685.586914	8465.293945
2684.676758	8452.933594
2683.766602	8533.963867
2682.856445	8389.776367
2681.946289	8473.536133
2681.035156	8510.598633
2680.124023	8462.555664
2679.213867	8200.459961
2678.302734	8339.076172
2677.391602	8513.312500
2676.479492	8402.208008
2675.568359	8310.336914
2674.657227	8262.372070
2673.745117	8526.987305
2672.833008	8473.519531
2671.920898	8568.077148
2671.008789	8468.032227
2670.096680	8411.858398
2669.183594	8399.537109
2668.270508	8576.218750
2667.358398	8394.075195
2666.445313	8450.216797
2665.532227	8380.402344
2664.619141	8392.730469
2663.705078	8536.425781
2662.791992	8576.088867
2661.877930	8372.232422
2660.963867	8578.779297
2660.049805	8459.777344
2659.135742	8567.792969
2658.221680	8424.222656
2657.306641	8491.202148
2656.392578	8443.358398
2655.477539	8668.821289
2654.562500	8429.690430
2653.647461	8302.649414
2652.732422	8558.072266
2651.817383	8551.222656
2650.901367	8443.337891
2649.986328	8491.113281
2649.070313	8585.280273
2648.154297	8499.277344
2647.238281	8574.308594
2646.321289	8428.307617
2645.405273	8285.082031
2644.489258	8474.670898
2643.572266	8576.928711
2642.655273	8501.916016
2641.738281	8533.251953
2640.821289	8523.690430
2639.903320	8604.069336
2638.986328	8349.252930
2638.068359	8508.644531
2637.151367	8550.849609
2636.233398	8563.080078
2635.315430	8877.581055
2634.396484	8674.657227
2633.478516	8564.358398
2632.559570	8426.875977
2631.641602	8479.936523
2630.722656	8587.399414
2629.803711	8640.416992
2628.884766	8693.416992
2627.965820	8550.584961
2627.045898	8609.019531
2626.125977	8648.404297
2625.207031	8475.746094
2624.287109	8623.854492
2623.367188	8633.325195
2622.447266	8458.035156
2621.526367	8565.325195
2620.606445	8498.749023
2619.685547	8701.045898
2618.764648	8561.156250
2617.843750	8671.073242
2616.922852	8593.664063
2616.001953	8649.261719
2615.080078	8693.986328
2614.159180	8575.915039
2613.237305	8609.787109
2612.315430	8567.707031
2611.393555	8802.235352
2610.471680	8838.764648
2609.548828	8609.619141
2608.626953	8738.321289
2607.704102	8623.083984
2606.781250	8697.550781
2605.858398	8465.867188
2604.935547	8526.791016
2604.012695	8652.692383
2603.089844	8773.136719
2602.166016	8522.638672
2601.242188	8434.634766
2600.318359	8690.376953
2599.394531	8856.738281
2598.470703	8836.361328
2597.546875	8615.811523
2596.622070	8627.936523
2595.698242	8875.325195
2594.773438	8714.359375
2593.848633	8821.079102
2592.923828	8789.915039
2591.998047	8645.255859
2591.073242	8903.248047
2590.147461	8812.649414
2589.222656	8759.895508
2588.296875	8591.027344
2587.371094	8754.349609
2586.445313	8858.222656
2585.518555	8505.859375
2584.592773	8720.396484
2583.666016	8786.443359
2582.739258	8868.657227
2581.812500	8694.566406
2580.885742	8712.034180
2579.958984	8529.934570
2579.031250	8738.864258
2578.104492	8559.514648
2577.176758	8768.371094
2576.249023	8853.187500
2575.321289	8770.911133
2574.393555	8804.510742
2573.465820	8676.474609
2572.537109	8688.532227
2571.608398	8703.277344
2570.680664	8607.628906
2569.751953	8891.579102
2568.823242	8717.875977
2567.893555	8896.762695
2566.964844	8895.317383
2566.035156	8944.986328
2565.105469	8905.875977
2564.176758	8839.883789
2563.246094	8768.536133
2562.316406	8656.883789
2561.386719	8792.566406
2560.456055	8844.889648
2559.526367	8902.569336
2558.595703	8922.616211
2557.665039	8754.616211
2556.734375	8761.250977
2555.802734	8652.410156
2554.872070	8855.062500
2553.940430	8928.791016
2553.009766	8884.393555
2552.078125	8732.664063
2551.146484	8980.785156
2550.213867	9043.711914
2549.282227	9018.100586
2548.349609	8901.312500
2547.417969	8779.198242
2546.485352	8946.676758
2545.552734	8859.442383
2544.620117	8957.168945
2543.686523	8963.751953
2542.753906	8919.425781
2541.820313	8901.902344
2540.887695	8884.384766
2539.954102	8925.788086
2539.020508	8959.144531
2538.085938	8858.633789
2537.152344	8851.840820
2536.217773	9029.710938
2535.284180	9194.143555
2534.349609	8828.794922
2533.415039	8763.160156
2532.480469	8777.782227
2531.544922	9164.097656
2530.610352	8892.568359
2529.674805	8765.480469
2528.739258	8975.205078
2527.803711	8987.106445
2526.868164	8950.910156
2525.932617	9037.613281
2524.997070	9022.788086
2524.060547	8823.695313
2523.124023	9051.894531
2522.187500	8898.247070
2521.250977	8947.516602
2520.314453	9050.147461
2519.377930	9147.407227
2518.440430	9036.530273
2517.503906	8936.360352
2516.566406	8849.558594
2515.628906	9034.788086
2514.691406	9057.314453
2513.752930	8991.860352
2512.815430	9059.698242
2511.876953	8951.625000
2510.938477	9000.794922
2510.000000	9073.924805
2509.061523	8979.220703
2508.123047	9036.350586
2507.184570	9002.925781
2506.245117	8956.201172
2505.306641	9015.967773
2504.367188	8985.224609
2503.427734	9079.560547
2502.487305	9131.294922
2501.547852	8975.517578
2500.608398	8843.728516
2499.667969	9049.716797
2498.727539	8798.307617
2497.787109	9134.500977
2496.846680	9042.640625
2495.906250	9027.880859
2494.964844	8821.808594
2494.024414	9099.331055
2493.083008	9028.785156
2492.141602	8814.845703
2491.200195	9110.820313
2490.258789	9077.476563
2489.317383	8993.707031
2488.375000	9013.476563
2487.432617	9065.083008
2486.490234	8832.771484
2485.547852	8958.669922
2484.605469	8962.516602
2483.663086	9109.568359
2482.720703	8938.385742
2481.777344	9019.115234
2480.833984	9134.277344
2479.890625	9146.041016
2478.947266	9067.706055
2478.003906	9060.930664
2477.059570	9146.871094
2476.116211	9073.871094
2475.171875	9037.968750
2474.227539	8927.942383
2473.283203	8955.607422
2472.338867	9049.433594
2471.394531	9132.644531
2470.449219	9123.218750
2469.503906	8992.102539
2468.559570	9064.700195
2467.614258	8991.818359
2466.667969	8966.555664
2465.722656	8877.849609
2464.777344	9122.236328
2463.831055	9012.389648
2462.884766	9058.487305
2461.938477	8837.719727
2460.992188	8902.320313
2460.045898	9151.785156
2459.099609	9168.779297
2458.152344	8723.707031
2457.205078	9194.831055
2456.257813	8968.976563
2455.310547	9044.047852
2454.363281	8995.079102
2453.416016	8967.231445
2452.467773	8897.188477
2451.520508	9109.362305
2450.572266	8947.027344
2449.624023	9143.304688
2448.675781	8925.659180
2447.726563	8926.839844
2446.778320	8870.045898
2445.829102	9029.320313
2444.879883	9091.073242
2443.930664	8976.333984
2442.981445	9024.906250
2442.032227	8991.838867
2441.083008	8845.580078
2440.132813	8967.850586
2439.182617	9005.865234
2438.232422	8838.624023
2437.282227	9039.761719
2436.332031	8864.677734
2435.381836	9086.785156
2434.430664	9119.489258
2433.480469	8954.993164
2432.529297	9011.366211
2431.578125	8833.798828
2430.626953	8848.125977
2429.674805	8946.527344
2428.723633	8942.441406
2427.771484	8838.545898
2426.819336	9081.338867
2425.867188	8809.406250
2424.915039	8933.985352
2423.962891	8898.404297
2423.010742	8978.311523
2422.057617	8942.735352
2421.104492	9038.350586
2420.151367	8761.442383
2419.198242	8731.163086
2418.245117	8915.924805
2417.291992	8977.395508
2416.337891	8910.394531
2415.383789	9037.373047
2414.430664	8894.385742
2413.475586	8871.972656
2412.521484	8828.609375
2411.567383	8811.453125
2410.612305	8904.296875
2409.658203	8716.931641
2408.703125	8760.016602
2407.748047	8865.911133
2406.792969	8859.230469
2405.837891	8808.066406
2404.881836	8872.038086
2403.925781	8671.780273
2402.970703	8942.376953
2402.013672	8752.632813
2401.058594	8921.156250
2400.101563	8736.706055
2399.144531	8868.583008
2398.189453	8757.375000
2397.232422	8797.752930
2396.275391	8874.692383
2395.318359	8818.390625
2394.361328	8837.844727
2393.404297	8901.683594
2392.445313	8738.360352
2391.488281	8789.142578
2390.529297	8612.840820
2389.572266	8721.035156
2388.613281	8737.875977
2387.656250	8848.622070
2386.697266	8570.704102
2385.738281	8715.342773
2384.779297	8541.832031
2383.820313	8850.666992
2382.861328	8622.453125
2381.902344	8459.465820
2380.943359	8838.516602
2379.982422	8816.231445
2379.023438	8525.654297
2378.064453	8677.922852
2377.103516	8705.150391
2376.142578	8724.557617
2375.183594	8686.689453
2374.222656	8591.573242
2373.261719	8790.546875
2372.300781	8760.491211
2371.339844	8535.335938
2370.378906	8492.326172
2369.417969	8571.557617
2368.455078	8754.770508
2367.494141	8638.951172
2366.533203	8650.537109
2365.570313	8630.932617
2364.609375	8535.977539
2363.646484	8441.053711
2362.683594	8548.775391
2361.720703	8705.808594
2360.757813	8673.224609
2359.794922	8599.110352
2358.832031	8548.383789
2357.869141	8596.301758
2356.906250	8615.658203
2355.943359	8414.461914
2354.978516	8560.958984
2354.015625	8541.403320
2353.050781	8540.007813
2352.085938	8642.331055
2351.123047	8526.847656
2350.158203	8626.546875
2349.193359	8508.511719
2348.228516	8590.041992
2347.263672	8666.363281
2346.298828	8584.644531
2345.333984	8440.791992
2344.367188	8522.279297
2343.402344	8539.010742
2342.437500	8633.398438
2341.470703	8533.631836
2340.503906	8617.636719
2339.539063	8437.694336
2338.572266	8607.059570
2337.605469	8623.758789
2336.638672	8508.557617
2335.671875	8576.982422
2334.705078	8604.019531
2333.738281	8499.215820
2332.771484	8469.397461
2331.802734	8648.898438
2330.835938	8849.009766
2329.867188	9054.221680
2328.900391	8799.625977
2327.931641	8599.343750
2326.962891	8675.396484
2325.994141	8562.972656
2325.027344	8512.531250
2324.058594	8420.814453
2323.089844	8378.153320
2322.119141	8490.297852
2321.150391	8323.825195
2320.181641	8423.045898
2319.210938	8504.183594
2318.242188	8322.321289
2317.271484	8483.358398
2316.302734	8275.785156
2315.332031	8465.122070
2314.361328	8535.879883
2313.390625	8490.690430
2312.419922	8283.250977
2311.449219	8482.762695
2310.478516	8383.533203
2309.507813	8459.393555
2308.537109	8319.016602
2307.564453	8369.125977
2306.593750	8491.266602
2305.621094	8366.388672
2304.650391	8303.285156
2303.677734	8381.654297
2302.705078	8403.426758
2301.732422	8504.891602
2300.759766	8482.935547
2299.787109	8437.855469
2298.814453	8541.833984
2297.841797	8229.548828
2296.869141	8490.230469
2295.896484	8458.019531
2294.921875	8353.913086
2293.949219	8414.168945
2292.974609	8328.074219
2292.000000	8544.889648
2291.027344	8243.224609
2290.052734	8331.684570
2289.078125	8268.748047
2288.103516	8295.611328
2287.128906	8291.688477
2286.154297	8328.795898
2285.177734	8355.634766
2284.203125	8477.313477
2283.228516	8258.068359
2282.251953	8497.601563
2281.277344	8442.404297
2280.300781	8295.001953
2279.324219	8332.064453
2278.347656	8448.502930
2277.371094	8301.170898
2276.394531	8281.891602
2275.417969	8431.556641
2274.441406	8450.650391
2273.464844	8416.001953
2272.488281	8414.624023
2271.509766	8390.224609
2270.533203	8299.334961
2269.554688	8453.962891
2268.578125	8368.206055
2267.599609	8471.645508
2266.621094	8347.575195
2265.642578	8384.540039
2264.664063	8380.612305
2263.685547	8402.231445
2262.707031	8314.011719
2261.728516	8389.264648
2260.750000	8492.579102
2259.769531	8355.880859
2258.791016	8609.767578
2257.810547	8437.364258
2256.832031	8354.327148
2255.851563	8475.421875
2254.871094	8244.454102
2253.890625	8380.828125
2252.910156	8578.359375
2251.929688	8347.487305
2250.949219	8506.719727
2249.968750	8365.142578
2248.988281	8325.546875
2248.005859	8441.388672
2247.025391	8312.628906
2246.042969	8283.248047
2245.062500	8327.732422
2244.080078	8443.497070
2243.097656	8419.200195
2242.115234	8293.093750
2241.132813	8497.882813
2240.150391	8605.909180
2239.167969	8517.996094
2238.185547	8297.833984
2237.203125	8344.797852
2236.218750	8195.939453
2235.236328	8392.914063
2234.253906	8409.333008
2233.269531	8471.498047
2232.285156	8332.879883
2231.300781	8234.960938
2230.318359	8439.387695
2229.333984	8412.603516
2228.349609	8540.745117
2227.365234	8361.601563
2226.378906	8380.541016
2225.394531	8399.473633
2224.410156	8349.875977
2223.423828	8335.819336
2222.439453	8638.907227
2221.453125	8229.081055
2220.468750	8433.170898
2219.482422	8431.789063
2218.496094	8377.161133
2217.509766	8411.278320
2216.523438	8470.730469
2215.537109	8497.217773
2214.550781	8386.871094
2213.564453	8301.893555
2212.576172	8503.169922
2211.589844	8337.159180
2210.601563	8363.645508
2209.615234	8448.352539
2208.626953	8408.997070
2207.638672	8486.075195
2206.650391	8348.038086
2205.664063	8538.953125
2204.675781	8355.417969
2203.685547	8445.099609
2202.697266	8403.253906
2201.708984	8457.500000
2200.720703	8435.888672
2199.730469	8560.882813
2198.742188	8443.229492
2197.751953	8335.720703
2196.763672	8339.406250
2195.773438	8380.978516
2194.783203	8581.643555
2193.792969	8388.329102
2192.802734	8525.808594
2191.812500	8299.750977
2190.822266	8318.580078
2189.832031	8438.339844
2188.839844	8419.293945
2187.849609	8357.370117
2186.857422	8429.141602
2185.867188	8571.499023
2184.875000	8423.853516
2183.882813	8407.345703
2182.892578	8370.677734
2181.900391	8523.031250
2180.908203	8496.435547
2179.916016	8522.752930
2178.921875	8332.438477
2177.929688	8535.065430
2176.937500	8435.460938
2175.943359	8549.886719
2174.951172	8465.415039
2173.957031	8610.000000
2172.964844	8414.824219
2171.970703	8423.506836
2170.976563	8391.936523
2169.982422	8415.709961
2168.988281	8452.049805
2167.994141	8581.407227
2167.000000	8559.886719
2166.005859	8618.804688
2165.009766	8549.536133
2164.015625	8543.106445
2163.019531	8476.384766
2162.025391	8655.846680
2161.029297	8669.493164
2160.033203	8540.006836
2159.039063	8649.071289
2158.042969	8579.875000
2157.046875	8799.328125
2156.050781	8526.869141
2155.052734	8633.354492
2154.056641	8667.055664
2153.060547	8858.758789
2152.062500	8486.160156
2151.066406	8667.799805
2150.068359	8558.579102
2149.072266	8574.718750
2148.074219	8500.632813
2147.076172	8697.184570
2146.078125	8660.681641
2145.080078	8706.851563
2144.082031	8788.066406
2143.083984	8714.005859
2142.085938	8712.574219
2141.085938	8666.084961
2140.087891	8697.197266
2139.087891	8693.265625
2138.089844	8604.267578
2137.089844	8630.371094
2136.089844	8671.471680
2135.089844	8540.008789
2134.089844	8776.135742
2133.089844	8769.693359
2132.089844	8660.773438
2131.089844	8666.846680
2130.089844	8712.897461
2129.089844	8616.530273
2128.087891	8647.585938
2127.087891	8681.128906
2126.085938	8769.594727
2125.083984	8645.818359
2124.082031	8774.200195
2123.082031	8667.934570
2122.080078	8773.810547
2121.078125	8822.267578
2120.076172	8701.078125
2119.072266	8884.214844
2118.070313	8720.660156
2117.068359	8706.759766
2116.064453	8747.708008
2115.062500	8576.777344
2114.058594	8642.654297
2113.054688	8666.149414
2112.052734	8614.898438
2111.048828	8615.972656
2110.044922	8793.870117
2109.041016	8443.814453
2108.037109	8644.086914
2107.031250	8742.235352
2106.027344	8805.506836
2105.023438	8711.986328
2104.017578	8747.874023
2103.013672	8781.261719
2102.007813	8919.099609
2101.001953	8713.715820
2099.998047	8602.880859
2098.992188	8718.306641
2097.986328	8766.583008
2096.980469	8829.754883
2095.972656	8726.427734
2094.966797	8811.943359
2093.960938	8778.202148
2092.955078	8764.339844
2091.947266	8678.471680
2090.939453	8510.703125
2089.933594	8658.240234
2088.925781	8788.354492
2087.917969	8722.389648
2086.910156	8678.776367
2085.902344	8731.922852
2084.894531	8740.406250
2083.886719	8741.447266
2082.878906	8653.228516
2081.871094	8741.048828
2080.861328	8759.438477
2079.853516	8621.695313
2078.843750	8645.053711
2077.833984	8685.746094
2076.826172	8800.735352
2075.816406	8598.682617
2074.806641	8636.885742
2073.796875	8870.661133
2072.787109	8807.317383
2071.777344	8761.317383
2070.765625	8524.793945
2069.755859	8696.579102
2068.744141	8823.781250
2067.734375	8792.648438
2066.722656	8843.130859
2065.712891	8705.687500
2064.701172	8649.867188
2063.689453	8794.272461
2062.677734	8864.491211
2061.666016	8712.307617
2060.654297	8836.866211
2059.642578	8758.838867
2058.628906	8799.379883
2057.617188	8689.284180
2056.605469	8759.449219
2055.591797	8607.431641
2054.578125	8630.693359
2053.566406	8802.004883
2052.552734	8694.464844
2051.539063	8843.507813
2050.525391	8797.655273
2049.511719	9151.309570
2048.498047	8750.375977
2047.484375	8665.118164
2046.468750	8742.562500
2045.455078	8854.483398
2044.439453	8732.290039
2043.425781	8923.007813
2042.410156	8855.032227
2041.394531	8806.781250
2040.380859	8970.306641
2039.365234	8720.172852
2038.349609	8745.812500
2037.333984	8951.104492
2036.316406	8961.932617
2035.300781	8906.329102
2034.285156	8715.448242
2033.267578	8819.769531
2032.251953	8860.120117
2031.234375	8856.201172
2030.218750	8884.240234
2029.201172	8875.402344
2028.183594	8790.384766
2027.166016	8771.736328
2026.148438	8657.283203
2025.130859	8790.950195
2024.113281	8944.218750
2023.093750	8625.991211
2022.076172	8742.411133
2021.056641	8740.969727
2020.039063	8835.243164
2019.019531	8816.609375
2018.001953	8952.546875
2016.982422	8855.402344
2015.962891	8944.688477
2014.943359	8840.220703
2013.923828	8662.232422
2012.904297	8800.533203
2011.882813	8875.062500
2010.863281	8552.571289
2009.843750	8837.832031
2008.822266	8865.771484
2007.802734	8624.269531
2006.781250	8676.724609
2005.759766	8925.047852
2004.738281	8759.547852
2003.716797	8677.326172
2002.695313	8499.684570
2001.673828	8728.295898
2000.652344	8687.710938
1999.630859	8945.569336
1998.609375	8860.937500
1997.585938	8632.058594
1996.564453	8701.537109
1995.541016	8680.544922
1994.517578	8583.791016
1993.494141	8692.341797
1992.472656	8585.844727
1991.449219	8709.016602
1990.425781	8819.934570
1989.400391	8681.720703
1988.376953	8580.176758
1987.353516	8742.328125
1986.328125	8523.644531
1985.304688	8783.371094
1984.279297	8696.517578
1983.255859	8778.032227
1982.230469	8647.299805
1981.205078	8448.322266
1980.179688	8546.905273
1979.154297	8511.360352
1978.128906	8612.337891
1977.103516	8571.919922
1976.078125	8565.629883
1975.050781	8408.281250
1974.025391	8543.312500
1972.998047	8670.993164
1971.972656	8671.996094
1970.945313	8524.471680
1969.917969	8622.876953
1968.892578	8511.919922
1967.865234	8724.675781
1966.837891	8487.208984
1965.808594	8424.985352
1964.781250	8540.351563
1963.753906	8444.090820
1962.724609	8532.666992
1961.697266	8686.857422
1960.667969	8447.199219
1959.640625	8564.895508
1958.611328	8539.179688
1957.582031	8547.487305
1956.552734	8516.924805
1955.523438	8447.509766
1954.494141	8358.689453
1953.464844	8580.688477
1952.435547	8489.447266
1951.404297	8468.626953
1950.375000	8566.727539
1949.343750	8329.947266
1948.314453	8469.281250
1947.283203	8356.301758
1946.251953	8427.677734
1945.222656	8300.193359
1944.191406	8703.701172
1943.158203	8481.676758
1942.126953	8771.109375
1941.095703	8481.295898
1940.064453	8535.618164
1939.031250	8354.948242
1938.000000	8561.861328
1936.966797	8676.683594
1935.935547	8491.236328
1934.902344	8400.261719
1933.869141	8444.860352
1932.835938	8482.184570
1931.802734	8543.692383
1930.769531	8428.576172
1929.736328	8470.720703
1928.703125	8508.014648
1927.667969	8504.190430
1926.634766	8350.473633
1925.599609	8540.052734
1924.566406	8412.965820
1923.531250	8515.480469
1922.496094	8550.312500
1921.460938	8592.379883
1920.425781	8706.888672
1919.390625	8669.226563
1918.355469	8633.990234
1917.320313	8632.561523
1916.285156	8676.993164
1915.248047	8530.763672
1914.212891	8608.975586
1913.175781	8622.026367
1912.138672	8577.182617
1911.103516	8669.817383
1910.066406	8576.755859
1909.029297	8529.531250
1907.992188	8501.604492
1906.955078	8748.431641
1905.917969	8563.851563
1904.878906	8721.444336
1903.841797	8857.304688
1902.802734	8605.360352
1901.765625	8796.580078
1900.726563	8402.677734
1899.687500	8685.341797
1898.650391	8575.596680
1897.611328	8665.622070
1896.572266	8964.944336
1895.533203	8607.422852
1894.494141	8646.887695
1893.453125	8626.217773
1892.414063	8788.291992
1891.375000	8575.280273
1890.333984	8775.767578
1889.292969	8668.571289
1888.253906	8861.768555
1887.212891	8689.725586
1886.171875	8786.771484
1885.130859	8600.387695
1884.089844	8697.416016
1883.048828	8772.803711
1882.007813	8807.358398
1880.964844	8729.096680
1879.923828	8672.458008
1878.880859	8671.022461
1877.839844	8583.225586
1876.796875	8565.014648
1875.753906	8798.609375
1874.712891	8749.198242
1873.669922	8750.146484
1872.626953	8669.598633
1871.583984	8723.282227
1870.539063	8609.219727
1869.496094	8670.082031
1868.453125	8750.085938
1867.408203	8602.546875
1866.365234	8483.790039
1865.320313	8693.067383
1864.275391	8619.814453
1863.230469	8615.993164
1862.187500	8612.172852
1861.142578	8515.043945
1860.095703	8523.201172
1859.050781	8674.860352
1858.005859	8596.899414
1856.960938	8487.881836
1855.914063	8601.221680
1854.869141	8463.556641
1853.822266	8552.964844
1852.775391	8501.371094
1851.730469	8533.407227
1850.683594	8426.895508
1849.636719	8564.012695
1848.589844	8536.327148
1847.541016	8305.722656
1846.494141	8564.528320
1845.447266	8472.416992
1844.400391	8669.067383
1843.351563	8579.355469
1842.302734	8575.546875
1841.255859	8428.639648
1840.207031	8417.703125
1839.158203	8571.282227
1838.109375	8653.294922
1837.060547	8561.289063
1836.011719	8540.804688
1834.962891	8551.301758
1833.912109	8476.033203
1832.863281	8498.446289
1831.814453	8499.417969
1830.763672	8395.623047
1829.712891	8415.656250
1828.664063	8469.005859
1827.613281	8489.020508
1826.562500	8542.339844
1825.511719	8452.896484
1824.460938	8518.097656
1823.408203	8454.848633
1822.357422	8446.312500
1821.306641	8359.320313
1820.253906	8393.589844
1819.203125	8374.380859
1818.150391	8355.171875
1817.097656	8335.962891
1816.046875	8316.753906
1814.994141	8486.383789
1813.941406	8610.837891
1812.888672	8440.829102
1811.833984	8484.533203
1810.781250	8416.665039
1809.728516	8353.566406
1808.673828	8430.481445
1807.621094	8315.207031
1806.566406	8596.093750
1805.511719	8440.512695
1804.458984	8334.779297
1803.404297	8304.945313
1802.349609	8400.753906
1801.294922	8624.510742
1800.238281	8386.116211
1799.183594	8619.278320
1798.128906	8399.913086
1797.072266	8220.884766
1796.017578	8532.103516
1794.960938	8525.951172
1793.906250	8503.229492
1792.849609	8426.078125
1791.792969	8476.741211
1790.736328	8683.548828
1789.679688	8511.776367
1788.623047	8569.495117
1787.564453	8629.559570
1786.507813	8545.368164
1785.451172	8411.557617
1784.392578	8497.618164
1783.335938	8531.657227
1782.277344	8400.277344
1781.218750	8625.687500
1780.160156	8621.891602
1779.101563	8500.009766
1778.042969	8576.522461
1776.984375	8379.135742
1775.925781	8538.263672
1774.865234	8617.091797
1773.806641	8622.739258
1772.746094	8621.306641
1771.687500	8671.772461
1770.626953	8557.117188
1769.566406	8560.411133
1768.507813	8540.125977
1767.447266	8600.000000
1766.386719	8461.861328
1765.324219	8660.771484
1764.263672	8588.643555
1763.203125	8674.383789
1762.140625	8602.277344
1761.080078	8459.540039
1760.017578	8634.737305
1758.957031	8572.089844
1757.894531	8525.940430
1756.832031	8503.340820
1755.769531	8546.636719
1754.707031	8552.273438
1753.644531	8482.632813
1752.582031	8622.340820
1751.517578	8515.085938
1750.455078	8539.533203
1749.390625	8596.882813
1748.328125	8680.068359
1747.263672	8474.172852
1746.199219	8517.406250
1745.136719	8640.499023
1744.072266	8430.014648
1743.007813	8701.033203
1741.941406	8631.492188
1740.876953	8557.278320
1739.812500	8459.616211
1738.748047	8615.451172
1737.681641	8658.601563
1736.615234	8619.623047
1735.550781	8639.299805
1734.484375	8593.301758
1733.417969	8603.596680
1732.351563	8618.577148
1731.285156	8753.104492
1730.218750	8751.647461
1729.152344	8558.034180
1728.085938	8755.763672
1727.017578	8550.500000
1725.951172	8787.983398
1724.882813	8650.694336
1723.814453	8742.912109
1722.748047	8565.878906
1721.679688	8679.145508
1720.611328	8680.041016
1719.542969	8641.158203
1718.474609	8857.291016
1717.404297	8804.356445
1716.335938	8671.923828
1715.267578	8565.255859
1714.197266	8640.981445
1713.128906	8609.154297
1712.058594	8731.589844
1710.988281	8702.094727
1709.917969	8660.927734
1708.847656	8820.667969
1707.777344	8742.125000
1706.707031	8635.584961
1705.636719	8790.579102
1704.566406	8581.351563
1703.494141	8691.956055
1702.423828	8594.829102
1701.351563	8579.397461
1700.281250	8675.949219
1699.208984	8683.833984
1698.136719	8600.764648
1697.064453	8627.311523
1695.992188	8777.410156
1694.919922	8733.991211
1693.847656	8681.264648
1692.773438	8747.392578
1691.701172	8673.711914
1690.626953	8439.330078
1689.554688	8600.952148
1688.480469	8625.133789
1687.406250	8593.429688
1686.332031	8603.636719
1685.257813	8709.265625
1684.183594	8658.946289
1683.109375	8666.809570
1682.035156	8511.831055
1680.960938	8715.090820
1679.884766	8685.731445
1678.810547	8684.284180
1677.734375	8845.567383
1676.658203	8525.659180
1675.583984	8600.927734
1674.507813	8794.672852
1673.431641	8563.212891
1672.355469	8694.183594
1671.279297	8657.898438
1670.201172	8596.083008
1669.125000	8708.409180
1668.048828	8672.138672
1666.970703	8700.863281
1665.892578	8520.737305
1664.816406	8579.637695
1663.738281	8608.363281
1662.660156	8465.450195
1661.582031	8735.351563
1660.503906	8638.834961
1659.425781	8672.166016
1658.347656	8652.177734
1657.267578	8636.830078
1656.189453	8489.419922
1655.109375	8622.366211
1654.031250	8509.750000
1652.951172	8522.225586
1651.871094	8643.521484
1650.791016	8577.257813
1649.710938	8636.008789
1648.630859	8650.767578
1647.550781	8649.324219
1646.470703	8627.059570
1645.388672	8551.599609
1644.308594	8529.358398
1643.226563	8400.755859
1642.146484	8311.500000
1641.064453	8532.023438
1639.982422	8606.869141
1638.900391	8362.797852
1637.818359	8506.958984
1636.736328	8519.399414
1635.654297	8481.022461
1634.570313	8685.131836
1633.488281	8251.921875
1632.406250	8347.500977
1631.322266	8385.344727
1630.238281	8381.637695
1629.156250	8382.545898
1628.072266	8376.532227
1626.988281	8250.579102
1625.904297	8233.058594
1624.820313	8293.940430
1623.734375	8370.939453
1622.650391	8346.491211
1621.566406	8381.971680
1620.480469	8382.875977
1619.396484	8335.398438
1618.310547	8366.254883
1617.224609	8189.822266
1616.138672	8172.335449
1615.052734	8378.179688
1613.966797	8141.981934
1612.880859	8186.653320
1611.794922	8143.864746
1610.708984	8292.055664
1609.621094	8442.497070
1608.535156	8227.184570
1607.447266	8195.915039
1606.359375	8334.799805
1605.273438	8241.453125
1604.185547	8389.477539
1603.097656	8378.882813
1602.009766	8354.505859
1600.921875	8307.163086
1599.832031	8367.791992
1598.744141	8322.758789
1597.654297	8321.368164
1596.566406	8253.399414
1595.476563	8330.064453
1594.388672	8303.426758
1593.298828	8405.297852
1592.208984	8488.780273
1591.119141	8294.675781
1590.029297	8421.724609
1588.939453	8326.298828
1587.847656	8407.445313
1586.757813	8408.332031
1585.666016	8269.408203
1584.576172	8384.896484
1583.484375	8339.961914
1582.392578	8391.255859
1581.302734	8524.988281
1580.210938	8287.687500
1579.119141	8490.082031
1578.025391	8387.933594
1576.933594	8425.442383
1575.841797	8405.725586
1574.750000	8308.217773
1573.656250	8537.890625
1572.562500	8593.647461
1571.470703	8525.886719
1570.376953	8542.753906
1569.283203	8580.190430
1568.189453	8656.473633
1567.095703	8664.166992
1566.001953	8639.867188
1564.908203	8332.272461
1563.812500	8668.957031
1562.718750	8669.790039
1561.623047	8471.954102
1560.529297	8655.472656
1559.433594	8633.479492
1558.337891	8705.071289
1557.242188	8687.640625
1556.146484	8818.521484
1555.050781	8718.952148
1553.955078	8961.545898
1552.859375	8624.814453
1551.761719	8648.451172
1550.666016	8608.249023
1549.568359	8561.220703
1548.472656	8723.873047
1547.375000	8660.890625
1546.277344	8682.222656
1545.179688	8858.439453
1544.082031	8597.328125
1542.984375	8768.945313
1541.886719	8787.966797
1540.787109	8579.352539
1539.689453	8561.985352
1538.589844	8601.510742
1537.492188	8656.949219
1536.392578	8610.003906
1535.292969	8526.683594
1534.193359	8507.063477
1533.095703	8612.500000
1531.994141	8563.319336
1530.894531	8691.437500
1529.794922	8589.993164
1528.695313	8534.023438
1527.593750	8457.626953
1526.494141	8531.164063
1525.392578	8627.386719
1524.291016	8562.365234
1523.189453	8660.819336
1522.089844	8418.767578
1520.988281	8637.492188
1519.884766	8626.968750
1518.783203	8450.834961
1517.681641	8662.638672
1516.580078	8697.473633
1515.476563	8607.582031
1514.373047	8574.399414
1513.271484	8495.892578
1512.167969	8514.866211
1511.064453	8540.630859
1509.960938	8654.747070
1508.857422	8320.302734
1507.753906	8586.164063
1506.650391	8405.829102
1505.544922	8329.704102
1504.441406	8432.439453
1503.335938	8548.720703
1502.232422	8565.391602
1501.126953	8509.653320
1500.021484	8607.764648
1498.916016	8490.966797
1497.810547	8496.327148
1496.705078	8436.114258
1495.599609	8430.178711
1494.494141	8557.603516
1493.386719	8348.252930
1492.281250	8274.546875
1491.173828	8456.153320
1490.068359	8296.618164
1488.960938	8277.159180
1487.853516	8553.510742
1486.746094	8468.541992
1485.638672	8385.859375
1484.531250	8402.507813
1483.423828	8416.893555
1482.314453	8456.092773
1481.207031	8267.444336
1480.097656	8315.675781
1478.990234	8312.025391
1477.880859	8319.649414
1476.771484	8406.169922
1475.662109	8393.489258
1474.552734	8263.630859
1473.443359	8377.154297
1472.333984	8202.286133
1471.224609	8457.680664
1470.113281	8478.780273
1469.003906	8495.371094
1467.892578	8185.524414
1466.783203	8359.717773
1465.671875	8407.825195
1464.560547	8406.414063
1463.449219	8360.007813
1462.337891	8576.791992
1461.226563	8175.033691
1460.115234	8322.069336
1459.001953	8385.870117
1457.890625	8267.574219
1456.777344	8538.129883
1455.666016	8294.009766
1454.552734	8420.679688
1453.439453	8484.409180
1452.326172	8307.799805
1451.212891	8486.050781
1450.099609	8495.851563
1448.986328	8516.873047
1447.873047	8515.442383
1446.757813	8424.249023
1445.644531	8546.237305
1444.529297	8600.884766
1443.414063	8357.202148
1442.300781	8539.688477
1441.185547	8502.378906
1440.070313	8577.171875
1438.955078	8649.698242
1437.839844	8383.799805
1436.722656	8485.462891
1435.607422	8419.068359
1434.492188	8413.172852
1433.375000	8443.113281
1432.257813	8553.653320
1431.142578	8637.290039
1430.025391	8483.625977
1428.908203	8526.960938
1427.791016	8402.455078
1426.673828	8678.467773
1425.556641	8468.975586
1424.437500	8391.509766
1423.320313	8524.268555
1422.201172	8500.477539
1421.083984	8487.872070
1419.964844	8412.688477
1418.845703	8420.212891
1417.726563	8427.734375
1416.607422	8453.124023
1415.488281	8440.535156
1414.369141	8479.312500
1413.250000	8424.299805
1412.128906	8436.277344
1411.009766	8352.273438
1409.888672	8567.339844
1408.769531	8253.518555
1407.648438	8553.303711
1406.527344	8308.736328
1405.406250	8483.521484
1404.285156	8210.060547
1403.164063	8391.491211
1402.042969	8365.560547
1400.919922	8353.009766
1399.798828	8206.765625
1398.675781	8178.649902
1397.554688	8322.063477
1396.431641	8300.619141
1395.308594	8343.757813
1394.185547	8237.712891
1393.062500	8209.614258
1391.939453	8415.218750
1390.816406	8289.186523
1389.693359	8376.788086
1388.568359	8066.167480
1387.445313	8373.968750
1386.320313	8321.412109
1385.197266	8282.212891
1384.072266	8387.524414
1382.947266	8323.877930
1381.822266	8220.251953
1380.697266	8203.314453
1379.572266	8326.339844
1378.445313	8229.427734
1377.320313	8223.600586
1376.195313	8359.881836
1375.068359	8200.850586
1373.941406	8428.095703
1372.816406	8233.597656
1371.689453	8414.163086
1370.562500	8257.447266
1369.435547	8355.875000
1368.308594	8325.635742
1367.179688	8284.320313
1366.052734	8313.963867
1364.923828	8434.480469
1363.796875	8366.570313
1362.667969	8398.400391
1361.541016	8470.098633
1360.412109	8302.533203
1359.283203	8345.430664
1358.154297	8490.177734
1357.025391	8380.257813
1355.894531	8381.059570
1354.765625	8277.833984
1353.636719	8340.615234
1352.505859	8319.295898
1351.376953	8404.169922
1350.246094	8349.669922
1349.115234	8553.928711
1347.984375	8479.520508
1346.853516	8398.505859
1345.722656	8576.127930
1344.591797	8537.113281
1343.460938	8559.979492
1342.328125	8395.053711
1341.197266	8559.302734
1340.064453	8586.570313
1338.933594	8461.468750
1337.800781	8515.235352
1336.667969	8540.288086
1335.535156	8611.678711
1334.402344	8585.953125
1333.269531	8489.636719
1332.134766	8569.823242
1331.001953	8683.063477
1329.869141	8730.112305
1328.734375	8638.245117
1327.599609	8519.955078
1326.466797	8628.718750
1325.332031	8484.026367
1324.197266	8436.327148
1323.062500	8450.324219
1321.927734	8565.632813
1320.791016	8451.877930
1319.656250	8472.469727
1318.519531	8517.270508
1317.384766	8564.255859
1316.248047	8554.007813
1315.113281	8548.164063
1313.976563	8511.523438
1312.839844	8468.294922
1311.703125	8497.654297
1310.566406	8700.710938
1309.427734	8672.860352
1308.291016	8510.937500
1307.154297	8445.767578
1306.015625	8472.908203
1304.878906	8423.144531
1303.740234	8423.918945
1302.601563	8354.414063
1301.462891	8517.692383
1300.324219	8353.789063
1299.185547	8411.647461
1298.046875	8383.889648
1296.906250	8483.415039
1295.767578	8519.281250
1294.626953	8421.323242
1293.488281	8441.833008
1292.347656	8471.108398
1291.207031	8445.559570
1290.066406	8415.635742
1288.925781	8381.337891
1287.785156	8384.305664
1286.644531	8385.080078
1285.503906	8493.197266
1284.361328	8239.878906
1283.220703	8203.448242
1282.078125	8464.808594
1280.937500	8316.703125
1279.794922	8275.900391
1278.652344	8184.775391
1277.509766	8268.727539
1276.367188	8372.339844
1275.224609	8316.242188
1274.080078	8404.502930
1272.937500	8282.819336
1271.794922	8126.198242
1270.650391	8371.826172
1269.505859	8160.604980
1268.363281	8229.149414
1267.218750	8350.104492
1266.074219	8208.892578
1264.929688	8554.762695
1263.783203	8387.360352
1262.638672	8329.177734
1261.494141	8290.660156
1260.347656	8380.924805
1259.203125	8316.225586
1258.056641	8330.091797
1256.910156	8315.594727
1255.763672	8377.439453
1254.617188	8380.384766
1253.470703	8189.279297
1252.324219	8386.270508
1251.177734	8162.534668
1250.031250	8331.132813
1248.882813	8386.374023
1247.734375	8317.422852
1246.587891	8226.713867
1245.439453	8501.894531
1244.291016	8432.958008
1243.142578	8525.142578
1241.994141	8432.282227
1240.845703	8404.740234
1239.697266	8377.208008
1238.546875	8443.232422
1237.398438	8378.723633
1236.248047	8455.598633
1235.099609	8621.598633
1233.949219	8696.232422
1232.798828	8412.180664
1231.648438	8447.704102
1230.498047	8439.754883
1229.347656	8470.916016
1228.197266	8569.404297
1227.044922	8448.501953
1225.894531	8618.619141
1224.742188	8610.647461
1223.591797	8593.994141
1222.439453	8635.947266
1221.287109	8643.165039
1220.134766	8533.219727
1218.982422	8690.132813
1217.830078	8398.027344
1216.677734	8470.335938
1215.523438	8464.565430
1214.371094	8569.354492
1213.216797	8463.866211
1212.064453	8646.634766
1210.910156	8510.833984
1209.755859	8626.375000
1208.601563	8722.382813
1207.447266	8671.096680
1206.292969	8611.166992
1205.136719	8562.081055
1203.982422	8848.509766
1202.828125	8606.791992
1201.671875	8689.720703
1200.515625	8642.817383
1199.361328	8630.538086
1198.205078	8577.170898
1197.048828	8662.209961
1195.892578	8753.706055
1194.736328	8654.952148
1193.578125	8798.286133
1192.421875	8671.466797
1191.265625	8654.874023
1190.107422	8500.039063
1188.949219	8541.792969
1187.792969	8840.499023
1186.634766	8696.505859
1185.476563	8621.637695
1184.318359	8579.168945
1183.160156	8733.084961
1182.000000	8701.398438
1180.841797	8749.539063
1179.681641	8726.487305
1178.523438	8847.925781
1177.363281	8607.099609
1176.203125	8760.852539
1175.044922	8746.434570
1173.884766	8641.512695
1172.724609	8728.386719
1171.562500	8679.512695
1170.402344	8671.579102
1169.242188	8833.776367
1168.080078	8823.666016
1166.919922	8880.294922
1165.757813	8829.282227
1164.595703	8705.117188
1163.433594	8849.956055
1162.271484	8842.000977
1161.109375	8786.726563
1159.947266	8765.879883
1158.785156	8824.599609
1157.621094	9038.090820
1156.458984	8961.324219
1155.294922	9078.006836
1154.132813	9044.234375
1152.968750	9068.480469
1151.804688	9122.791016
1150.640625	9295.206055
1149.476563	9184.115234
1148.312500	9433.750977
1147.146484	9232.515625
1145.982422	9145.099609
1144.818359	9272.299805
1143.652344	9433.784180
1142.486328	9279.877930
1141.320313	9323.342773
1140.156250	9426.835938
1138.990234	9285.872070
1137.822266	9393.623047
1136.656250	9458.471680
1135.490234	9673.303711
1134.324219	9568.817383
1133.156250	9528.631836
1131.988281	9509.878906
1130.822266	9945.129883
1129.654297	9939.159180
1128.486328	9939.611328
1127.318359	9929.361328
1126.150391	10000.436523
1124.982422	9851.099609
1123.812500	9975.646484
1122.644531	10211.375977
1121.474609	10211.779297
1120.306641	10160.865234
1119.136719	10345.133789
1117.966797	10311.313477
1116.796875	10322.383789
1115.626953	10354.818359
1114.457031	10425.697266
1113.287109	10716.564453
1112.115234	10650.672852
1110.945313	10520.743164
1109.773438	10691.886719
1108.603516	10632.435547
1107.431641	10673.313477
1106.259766	10993.713867
1105.087891	10932.106445
1103.916016	11021.973633
1102.744141	11064.888672
1101.572266	11097.125977
1100.398438	11144.277344
1099.226563	11187.147461
1098.052734	11310.994141
1096.880859	11221.701172
1095.707031	11104.740234
1094.533203	11379.784180
1093.359375	11384.238281
1092.185547	11326.935547
1091.011719	11601.799805
1089.837891	11518.932617
1088.662109	11755.358398
1087.488281	11959.782227
1086.312500	11891.788086
1085.138672	12006.769531
1083.962891	11972.822266
1082.787109	12043.090820
1081.611328	11964.497070
1080.435547	12070.881836
1079.259766	12009.313477
1078.082031	12107.153320
1076.906250	12340.948242
1075.728516	12481.187500
1074.552734	12619.253906
1073.375000	12508.795898
1072.197266	12678.660156
1071.019531	12710.470703
1069.841797	12610.665039
1068.664063	12829.237305
1067.486328	13013.783203
1066.308594	13026.418945
1065.128906	13164.201172
1063.951172	13021.984375
1062.771484	13193.646484
1061.591797	13348.290039
1060.412109	13388.412109
1059.232422	13252.610352
1058.052734	13421.996094
1056.873047	13498.102539
1055.693359	13540.288086
1054.513672	13601.521484
1053.332031	13887.198242
1052.152344	13950.467773
1050.970703	13992.545898
1049.789063	13899.152344
1048.607422	14118.981445
1047.425781	14569.356445
1046.244141	14065.516602
1045.062500	14325.389648
1043.880859	14246.820313
1042.697266	14508.686523
1041.515625	14554.836914
1040.332031	14436.107422
1039.150391	14663.994141
1037.966797	14691.076172
1036.783203	14832.226563
1035.599609	14707.192383
1034.416016	14955.994141
1033.232422	14951.333008
1032.046875	14984.673828
1030.863281	15169.977539
1029.677734	15095.638672
1028.494141	15084.625000
1027.308594	15120.028320
1026.123047	15336.819336
1024.937500	15661.092773
1023.751953	15443.345703
1022.566406	15651.537109
1021.380859	15606.710938
1020.193359	15675.705078
1019.007813	15691.997070
1017.820313	15716.709961
1016.634766	15857.267578
1015.447266	15507.060547
1014.259766	15683.402344
1013.072266	15924.949219
1011.884766	15842.243164
1010.697266	15908.994141
1009.509766	15923.115234
1008.320313	15918.294922
1007.132813	16111.211914
1005.943359	16060.088867
1004.753906	16034.217773
1003.566406	16102.967773
1002.376953	16037.156250
1001.187500	16156.323242
999.998047	16119.943359
998.806641	15936.501953
997.617188	15963.192383
996.427734	16086.489258
995.236328	16470.140625
994.046875	16227.972656
992.855469	16160.125977
991.664063	16041.927734
990.472656	16249.043945
989.281250	16246.270508
988.089844	16180.562500
986.898438	16081.316406
985.705078	16177.135742
984.513672	16300.179688
983.320313	16041.635742
982.126953	16070.337891
980.935547	16111.603516
979.742188	16190.570313
978.548828	16141.715820
977.355469	16017.472656
976.162109	16052.433594
974.966797	15961.749023
973.773438	15917.152344
972.578125	15958.390625
971.384766	16095.883789
970.189453	16162.185547
968.994141	15989.963867
967.798828	16188.041016
966.603516	16082.796875
965.408203	15983.862305
964.212891	16006.219727
963.015625	15953.317383
961.820313	15904.612305
960.623047	15924.879883
959.427734	15940.961914
958.230469	15875.571289
957.033203	15837.353516
955.835938	15995.436523
954.638672	15905.014648
953.441406	15898.121094
952.244141	15653.299805
951.044922	15882.252930
949.847656	15902.489258
948.648438	15906.028320
947.449219	15838.653320
946.251953	16015.283203
945.052734	15895.787109
943.853516	15790.923828
942.654297	15831.993164
941.453125	15889.719727
940.253906	15937.006836
939.054688	15803.041016
937.853516	15898.231445
936.652344	15716.420898
935.453125	15751.210938
934.251953	15942.120117
933.050781	15658.404297
931.849609	15653.644531
930.646484	15848.632813
929.445313	15808.475586
928.244141	16026.250000
927.041016	15601.343750
925.839844	15631.943359
924.636719	15527.402344
923.433594	15624.516602
922.230469	15567.809570
921.027344	15818.642578
919.824219	15718.293945
918.621094	15464.270508
917.417969	15245.639648
916.212891	15674.926758
915.009766	15406.506836
913.804688	15416.324219
912.599609	15338.972656
911.394531	15483.671875
910.189453	15302.601563
908.984375	15254.347656
907.779297	15340.916016
906.574219	15408.791016
905.367188	15072.363281
904.162109	15237.685547
902.955078	15013.317383
901.750000	14840.829102
900.542969	14929.447266
899.335938	14955.890625
898.128906	14837.348633
896.921875	14619.450195
895.712891	14884.026367
894.505859	14806.956055
893.298828	14655.402344
892.089844	14681.862305
890.880859	14592.451172
889.673828	14540.304688
888.464844	14500.584961
887.255859	14264.426758
886.046875	14305.401367
884.835938	14307.084961
883.626953	14184.756836
882.417969	14054.203125
881.207031	14049.728516
879.998047	14010.137695
878.787109	14065.568359
877.576172	13984.684570
876.365234	13901.763672
875.154297	13779.647461
873.943359	13859.846680
872.732422	13838.897461
871.519531	13465.130859
870.308594	13621.669922
869.095703	13466.702148
867.884766	13216.923828
866.671875	13280.638672
865.458984	13364.946289
864.246094	13092.639648
863.033203	13174.888672
861.820313	13189.113281
860.605469	13149.768555
859.392578	12830.308594
858.177734	13091.713867
856.964844	12908.271484
855.750000	12747.536133
854.535156	12811.216797
853.320313	12846.063477
852.105469	12623.691406
850.890625	12609.181641
849.675781	12491.830078
848.458984	12491.743164
847.244141	12615.030273
846.027344	12425.780273
844.810547	12664.145508
843.595703	12417.406250
842.378906	12485.139648
841.162109	12300.148438
839.943359	12392.527344
838.726563	12277.443359
837.509766	12412.915039
836.291016	12207.530273
835.074219	12414.812500
833.855469	12318.272461
832.636719	12236.129883
831.417969	12176.582031
830.199219	12248.338867
828.980469	11996.019531
827.761719	12092.388672
826.542969	11998.051758
825.322266	12092.336914
824.103516	11916.048828
822.882813	12022.609375
821.664063	11991.861328
820.443359	12129.098633
819.222656	12176.170898
818.001953	12098.311523
816.779297	11952.913086
815.558594	11940.625000
814.337891	11983.601563
813.115234	11895.594727
811.894531	11961.070313
810.671875	12016.293945
809.449219	12098.087891
808.226563	12057.155273
807.003906	11940.584961
805.781250	11916.045898
804.558594	11999.842773
803.333984	12134.699219
802.111328	12106.051758
800.886719	12144.829102
799.664063	11944.618164
798.439453	12248.888672
797.214844	12075.271484
795.990234	12183.434570
794.765625	12140.518555
793.541016	12042.515625
792.314453	12228.162109
791.089844	12168.938477
789.863281	12121.972656
788.638672	12252.446289
787.412109	12138.194336
786.185547	12221.730469
784.958984	12193.130859
783.732422	12127.857422
782.505859	12125.772461
781.279297	12211.288086
780.050781	12135.859375
778.824219	12196.905273
777.595703	12235.531250
776.367188	12184.566406
775.140625	12182.469727
773.912109	12060.300781
772.683594	12263.740234
771.453125	12121.252930
770.224609	12204.599609
768.996094	12314.356445
767.765625	12424.074219
766.537109	12391.440430
765.306641	12364.916016
764.076172	12370.916992
762.845703	12293.603516
761.615234	12315.868164
760.384766	12437.657227
759.154297	12541.125977
757.921875	12337.937500
756.691406	12591.625977
755.458984	12337.750000
754.228516	12447.250977
752.996094	12301.035156
751.763672	12367.898438
750.531250	12475.307617
749.298828	12414.342773
748.066406	12416.260742
746.832031	12476.973633
745.599609	12468.744141
744.365234	12494.970703
743.132813	12754.225586
741.898438	12494.719727
740.664063	12583.724609
739.429688	12488.389648
738.195313	12789.991211
736.960938	12609.617188
735.724609	12615.541992
734.490234	12665.992188
733.255859	12833.793945
732.019531	12623.185547
730.783203	12608.873047
729.546875	12770.528320
728.310547	12679.349609
727.074219	12580.115234
725.837891	12834.680664
724.601563	12893.104492
723.363281	12618.069336
722.126953	12735.103516
720.888672	12827.854492
719.650391	12839.781250
718.414063	12740.634766
717.175781	12819.202148
715.937500	12958.304688
714.697266	12782.488281
713.458984	12760.103516
712.220703	12826.504883
710.980469	12701.235352
709.742188	12860.405273
708.501953	13057.835938
707.261719	12839.839844
706.021484	12946.486328
704.781250	12936.191406
703.541016	13004.494141
702.300781	12889.416016
701.058594	12770.347656
699.818359	12826.556641
698.576172	12675.317383
697.335938	12993.281250
696.093750	12884.340820
694.851563	13014.964844
693.609375	12843.670898
692.367188	13078.886719
691.123047	12853.321289
689.880859	13068.338867
688.638672	12949.439453
687.394531	13112.085938
686.150391	13055.541992
684.908203	13147.761719
683.664063	13115.346680
682.419922	13062.848633
681.175781	12978.223633
679.929688	12977.992188
678.685547	13126.375977
677.439453	13098.005859
676.195313	13184.080078
674.949219	13011.184570
673.703125	13275.860352
672.458984	13181.264648
671.212891	13176.982422
669.964844	12929.987305
668.718750	13156.386719
667.472656	13390.728516
666.224609	13236.045898
664.978516	13384.098633
663.730469	13271.557617
662.482422	13094.932617
661.234375	13142.757813
659.986328	13260.673828
658.738281	13250.372070
657.490234	13336.189453
656.242188	13083.625000
654.992188	13267.525391
653.744141	13283.245117
652.494141	13350.986328
651.244141	13082.585938
649.994141	13330.369141
648.744141	13488.066406
647.494141	13247.775391
646.244141	13405.430664
644.994141	13187.224609
643.742188	13308.859375
642.492188	13198.651367
641.240234	13128.440430
639.988281	13333.919922
638.738281	13271.697266
637.486328	13191.523438
636.232422	13021.531250
634.980469	13194.946289
633.728516	13144.763672
632.474609	13312.109375
631.222656	13345.720703
629.968750	13249.655273
628.714844	13127.694336
627.462891	13171.289063
626.208984	13123.153320
624.953125	13370.064453
623.699219	13234.213867
622.445313	13251.851563
621.191406	13341.209961
619.935547	13394.679688
618.679688	13478.005859
617.425781	13603.122070
616.169922	13343.924805
614.914063	13327.680664
613.658203	13629.897461
612.400391	13904.148438
611.144531	13505.800781
609.888672	13799.870117
608.630859	13674.166016
607.373047	13785.150391
606.117188	13929.896484
604.859375	14172.001953
603.601563	13897.248047
602.343750	14029.974609
601.083984	14126.890625
599.826172	14152.256836
598.568359	14491.435547
597.308594	14407.504883
596.048828	14381.183594
594.791016	14507.730469
593.531250	14660.035156
592.271484	14548.348633
591.011719	14696.624023
589.750000	14900.394531
588.490234	14614.178711
587.230469	14891.266602
585.968750	15112.741211
584.707031	15153.736328
583.447266	14881.546875
582.185547	14940.402344
580.923828	15185.489258
579.662109	15133.331055
578.398438	15079.209961
577.136719	15246.909180
575.875000	15222.486328
574.611328	15534.619141
573.347656	15351.805664
572.085938	15238.321289
570.822266	15253.487305
569.558594	15284.474609
568.292969	15277.869141
567.029297	15427.498047
565.765625	15476.233398
564.500000	15515.065430
563.236328	15427.381836
561.970703	15606.522461
560.705078	15315.332031
559.439453	15581.354492
558.173828	15507.543945
556.908203	15388.335938
555.642578	15486.369141
554.376953	15410.637695
553.109375	15425.729492
551.843750	15557.252930
550.576172	15548.634766
549.308594	15376.273438
548.041016	15365.715820
546.773438	15597.736328
545.505859	15626.579102
544.238281	15521.351563
542.968750	15502.889648
541.701172	15549.468750
540.431641	15639.380859
539.164063	15703.650391
537.894531	15492.130859
536.625000	15704.108398
535.355469	15567.485352
534.085938	15684.875977
532.814453	15788.446289
531.544922	15762.088867
530.273438	15859.705078
529.003906	15825.474609
527.732422	15814.858398
526.460938	15776.712891
525.189453	15691.386719
523.917969	15751.574219
522.646484	16094.793945
521.375000	15936.739258
520.101563	15967.375977
518.830078	16131.596680
517.556641	16012.902344
516.283203	16271.326172
515.011719	16239.045898
513.738281	16491.449219
512.462891	16156.849609
511.189453	16191.332031
509.916016	16276.820313
508.642578	16397.591797
507.367188	16382.973633
506.091797	16282.066406
504.818359	16502.777344
503.542969	16339.145508
502.267578	16679.339844
500.992188	16384.423828
499.714844	16597.123047
498.439453	16690.238281
497.164063	16595.271484
495.886719	16572.800781
494.609375	16695.242188
493.333984	16588.576172
492.056641	16634.628906
490.779297	16751.123047
489.501953	16703.203125
488.222656	16516.392578
486.945313	16493.958984
485.666016	16704.269531
484.388672	16623.148438
483.109375	16428.658203
481.830078	16611.501953
480.550781	16274.408203
479.271484	16607.677734
477.992188	16530.548828
476.712891	16728.873047
475.433594	16257.228516
474.152344	16424.287109
472.871094	16261.334961
471.591797	16399.052734
470.310547	16351.309570
469.029297	16572.871094
467.748047	16294.893555
466.466797	16397.394531
465.183594	16441.349609
463.902344	16261.038086
462.619141	16248.458984
461.337891	16265.124023
460.054688	16330.507813
458.771484	16230.232422
457.488281	16348.202148
456.205078	16394.054688
454.921875	16268.500977
453.638672	16275.405273
452.353516	16212.215820
451.070313	16402.107422
449.785156	16414.822266
448.500000	16293.261719
447.214844	16374.083984
445.929688	16400.412109
444.644531	16539.533203
443.359375	16523.041016
442.072266	16547.382813
440.787109	16937.167969
439.500000	16842.869141
438.214844	16748.603516
436.927734	16673.800781
435.640625	16956.449219
434.353516	17283.667969
433.066406	16995.203125
431.777344	17064.078125
430.490234	17012.576172
429.203125	17271.625000
427.914063	17144.421875
426.625000	17180.238281
425.335938	17293.634766
424.046875	17515.601563
422.757813	17442.738281
421.468750	17629.703125
420.179688	17647.953125
418.888672	17757.289063
417.599609	17810.388672
416.308594	17646.474609
415.017578	17666.642578
413.728516	17866.925781
412.437500	17902.539063
411.144531	17891.673828
409.853516	18066.644531
408.562500	17866.078125
407.269531	17845.546875
405.978516	17952.716797
404.685547	17930.240234
403.392578	17768.517578
402.099609	17877.576172
400.806641	17797.119141
399.513672	17857.806641
398.220703	17879.816406
396.927734	17967.521484
395.632813	17744.128906
394.337891	17611.607422
393.044922	17803.605469
391.750000	17620.910156
390.455078	17579.220703
389.160156	17682.322266
387.865234	17447.630859
386.568359	17344.240234
385.273438	17231.238281
383.976563	17396.056641
382.681641	17238.724609
381.384766	17355.273438
380.087891	17049.542969
378.791016	16961.748047
377.494141	17111.046875
376.197266	17135.039063
374.898438	16933.597656
373.601563	16901.746094
372.302734	17237.771484
371.005859	17053.748047
369.707031	17102.753906
368.408203	16770.591797
367.109375	16960.128906
365.810547	16943.695313
364.509766	16981.138672
363.210938	16891.607422
361.910156	16994.439453
360.611328	16822.248047
359.310547	17155.771484
358.009766	16772.156250
356.708984	16967.189453
355.408203	17121.798828
354.107422	16982.394531
352.804688	16952.533203
351.503906	16980.298828
350.201172	16975.412109
348.900391	16780.449219
347.597656	16963.718750
346.294922	16901.255859
344.992188	16758.216797
343.689453	16822.439453
342.386719	16775.376953
341.082031	16605.582031
339.779297	16639.113281
338.474609	16689.888672
337.169922	16775.148438
335.867188	16726.216797
334.562500	16508.669922
333.257813	16802.751953
331.951172	16587.181641
330.646484	16463.619141
329.341797	16820.746094
328.035156	16362.128906
326.728516	16451.150391
325.423828	16505.691406
324.117188	16477.925781
322.810547	16409.992188
321.503906	16353.559570
320.195313	16260.806641
318.888672	16108.805664
317.580078	16383.213867
316.273438	16359.319336
314.964844	16165.331055
313.656250	16279.067383
312.347656	16409.958984
311.039063	16431.919922
309.730469	16373.656250
308.421875	16250.486328
307.111328	16217.093750
305.802734	16428.050781
304.492188	16366.009766
303.181641	16353.602539
301.871094	16392.712891
300.560547	16607.304688
299.250000	16396.507813
297.939453	16395.542969
296.628906	16377.419922
295.316406	16488.925781
294.005859	16375.495117
292.693359	16370.720703
291.380859	16506.935547
290.068359	16603.097656
288.755859	16510.673828
287.443359	16469.697266
286.130859	16316.404297
284.816406	16422.048828
283.503906	16449.623047
282.189453	16585.650391
280.875000	16259.308594
279.560547	16513.259766
278.246094	16211.768555
276.931641	16408.591797
275.617188	16462.751953
274.300781	16273.578125
272.986328	16367.654297
271.669922	16189.963867
270.355469	16179.525391
269.039063	16096.907227
267.722656	16496.722656
266.406250	16442.558594
265.089844	16185.268555
263.771484	16248.868164
262.455078	16327.627930
261.136719	16450.003906
259.820313	16498.343750
258.501953	16366.460938
257.183594	16369.280273
255.865234	16355.031250
254.546875	16230.825195
253.228516	16387.205078
251.908203	16283.882813
250.589844	16216.598633
249.269531	16374.791992
247.949219	16402.226563
246.628906	16336.849609
245.310547	16326.409180
243.988281	16435.244141
242.667969	16299.856445
241.347656	16667.941406
240.025391	16542.019531
238.705078	16569.386719
237.382813	16662.949219
236.060547	16741.347656
234.738281	16623.062500
233.416016	16741.142578
232.093750	16575.640625
230.771484	16820.310547
229.449219	16745.552734
228.125000	16789.843750
226.800781	16819.005859
225.478516	16755.617188
224.154297	16873.523438
222.830078	16891.328125
221.505859	16642.972656
220.181641	16770.271484
218.855469	16799.402344
217.531250	16736.080078
216.205078	16744.458984
214.878906	16641.560547
213.554688	16817.771484
212.228516	16828.011719
210.902344	16855.214844
209.574219	16850.369141
208.248047	16920.894531
206.921875	16646.630859
205.593750	16945.085938
204.265625	17023.087891
202.939453	16991.851563
201.611328	16994.513672
200.283203	17258.812500
198.955078	17150.388672
197.625000	17216.994141
196.296875	17180.103516
194.968750	17261.726563
193.638672	17283.140625
192.308594	17451.208984
190.978516	17457.541016
189.648438	17789.048828
188.318359	17725.783203
186.988281	17709.511719
185.658203	17960.017578
184.326172	17793.443359
182.996094	17942.431641
181.664063	17907.353516
180.332031	17928.609375
179.000000	18073.738281
177.667969	18162.517578
176.335938	18031.728516
175.003906	18221.787109
173.669922	18209.201172
172.337891	18582.945313
171.003906	18594.675781
169.669922	18529.537109
168.335938	18533.773438
167.001953	18468.667969
165.667969	18587.208984
164.333984	18353.509766
163.000000	18410.216797
161.664063	18714.103516
160.328125	18568.505859
158.994141	18552.132813
157.658203	18419.716797
156.322266	18637.298828
154.986328	18852.931641
153.650391	18774.783203
152.312500	18943.554688
150.976563	18637.263672
149.638672	19052.806641
148.302734	19092.447266
146.964844	19016.189453
145.626953	19076.378906
144.289063	19173.914063
142.949219	19400.312500
141.611328	19587.408203
140.273438	19722.148438
138.933594	19920.322266
137.595703	19969.083984
136.255859	20001.027344
134.916016	20062.816406
133.576172	20234.667969
132.236328	20257.216797
130.894531	20440.162109
129.554688	20550.312500
128.212891	20565.335938
126.873047	20822.693359
125.531250	20723.966797
124.189453	20656.955078
122.847656	20906.705078
121.505859	20863.898438
120.164063	20727.980469
118.820313	20715.013672
117.478516	20856.585938
116.134766	20994.384766
114.792969	20865.982422
113.449219	20839.970703
112.105469	20840.015625
110.761719	20728.447266
109.417969	20964.716797
108.072266	21176.728516
106.728516	21541.121094
105.382813	21405.337891
104.039063	21234.289063
102.693359	21440.525391
101.347656	21375.431641
100.001953	21503.548828
98.654297	21592.617188
97.308594	21739.218750
95.962891	21841.208984
94.615234	22164.060547
93.269531	22386.576172
91.921875	22547.775391
90.574219	22554.925781
89.226563	22102.041016
87.878906	22406.009766
86.529297	22453.974609
85.181641	22624.287109
83.832031	23085.562500
82.484375	22671.896484
81.134766	22573.390625
79.785156	22293.353516
78.435547	22439.457031
77.085938	22261.404297
75.736328	22637.070313
74.384766	22707.126953
73.035156	22393.990234
71.683594	22382.632813
70.332031	21901.275391
68.982422	21899.255859
67.630859	21623.474609
66.279297	21586.365234
64.925781	21099.939453
63.574219	20987.132813
62.220703	21024.089844
60.869141	21027.767578
59.515625	20532.541016
58.162109	19922.947266
56.808594	19162.103516
55.455078	18414.455078
54.101563	17665.224609
52.748047	17276.255859
51.392578	16697.304688
