#Wave		#Intensity
4002.113281	6439.498047
4001.415039	6582.677734
4000.716797	6538.672852
4000.017578	6190.523438
3999.319336	6393.460938
3998.620117	6442.513672
3997.920898	6602.425781
3997.221680	6411.834961
3996.522461	6282.087891
3995.823242	6363.300781
3995.124023	6573.162598
3994.424805	6429.156738
3993.724609	6556.757324
3993.025391	6527.123047
3992.325195	6429.629883
3991.625000	6603.597168
3990.924805	6338.291992
3990.224609	6447.952637
3989.524414	6325.545898
3988.824219	6449.449707
3988.124023	6523.353516
3987.422852	6582.960938
3986.721680	6482.015625
3986.021484	6466.706543
3985.320313	6661.812988
3984.619141	6428.971680
3983.917969	6616.890625
3983.216797	6498.196777
3982.514648	6390.233398
3981.813477	6414.150391
3981.112305	6473.687988
3980.410156	6511.833008
3979.708008	6471.608398
3979.005859	6648.625000
3978.303711	6619.072266
3977.601563	6479.169434
3976.899414	6414.059082
3976.197266	6512.676270
3975.494141	6468.930664
3974.791992	6425.199219
3974.088867	6552.223633
3973.385742	6508.492188
3972.682617	6464.774902
3971.979492	6467.291992
3971.276367	6491.136719
3970.573242	6319.489258
3969.869141	6592.108887
3969.166016	6253.502930
3968.461914	6572.228516
3967.758789	6407.781250
3967.054688	6445.817383
3966.350586	6565.510742
3965.646484	6447.297363
3964.941406	6609.547852
3964.237305	6572.995117
3963.533203	6657.104980
3962.828125	6436.060059
3962.124023	6534.354004
3961.418945	6664.538086
3960.713867	6425.866699
3960.008789	6531.206055
3959.303711	6466.344238
3958.598633	6433.404785
3957.892578	6439.459473
3957.187500	6424.251465
3956.481445	6504.705566
3955.776367	6514.288086
3955.070313	6410.531738
3954.364258	6416.584473
3953.658203	6461.581543
3952.952148	6333.103027
3952.245117	6569.229492
3951.539063	6302.757813
3950.832031	6496.353516
3950.125977	6551.914063
3949.418945	6515.490234
3948.711914	6468.467773
3948.004883	6555.830078
3947.297852	6515.887207
3946.590820	6401.723633
3945.883789	6418.367676
3945.175781	6406.735352
3944.468750	6363.308105
3943.760742	6436.472168
3943.052734	6499.015625
3942.344727	6727.520020
3941.636719	6606.388184
3940.928711	6520.598145
3940.220703	6463.074219
3939.511719	6479.683105
3938.803711	6482.171387
3938.094727	6537.580078
3937.386719	6490.672363
3936.677734	6500.211426
3935.968750	6513.272949
3935.259766	6572.166504
3934.550781	6521.757813
3933.840820	6566.531738
3933.131836	6614.815430
3932.421875	6469.287109
3931.712891	6482.340332
3931.002930	6488.344727
3930.292969	6526.043457
3929.583008	6514.432129
3928.873047	6365.514648
3928.163086	6357.452148
3927.452148	6433.863281
3926.742188	6408.197266
3926.031250	6537.352539
3925.321289	6437.801270
3924.610352	6447.319824
3923.899414	6432.217773
3923.188477	6522.606934
3922.477539	6591.873535
3921.765625	6379.909180
3921.054688	6255.875977
3920.342773	6427.056641
3919.631836	6566.561523
3918.919922	6435.532227
3918.208008	6378.302734
3917.496094	6661.728027
3916.784180	6474.567383
3916.072266	6441.932617
3915.359375	6630.440430
3914.647461	6503.035156
3913.934570	6575.678223
3913.222656	6448.322754
3912.509766	6436.764648
3911.796875	6565.498047
3911.083984	6508.337891
3910.371094	6461.714355
3909.658203	6586.875977
3908.944336	6350.986816
3908.231445	6462.107910
3907.517578	6415.520996
3906.803711	6425.000977
3906.089844	6515.040527
3905.375977	6510.492676
3904.662109	6390.394043
3903.948242	6445.384766
3903.234375	6353.338379
3902.519531	6534.313477
3901.805664	6491.272949
3901.090820	6577.700684
3900.375977	6440.214355
3899.661133	6495.143555
3898.946289	6403.176758
3898.231445	6569.982910
3897.516602	6327.706543
3896.801758	6515.443359
3896.085938	6633.222656
3895.370117	6523.834961
3894.655273	6599.650391
3893.939453	6549.687012
3893.223633	6545.143066
3892.507813	6568.537109
3891.791992	6476.704590
3891.075195	6304.609863
3890.359375	6561.885254
3889.642578	6578.281738
3888.925781	6378.338867
3888.209961	6464.532715
3887.493164	6585.579590
3886.776367	6588.010742
3886.059570	6524.187500
3885.341797	6306.980957
3884.625000	6490.721191
3883.907227	6451.341309
3883.190430	6544.394531
3882.472656	6525.923828
3881.754883	6409.916016
3881.037109	6259.114746
3880.319336	6630.741699
3879.601563	6518.254395
3878.883789	6607.725586
3878.165039	6512.682129
3877.447266	6535.999512
3876.728516	6677.620117
3876.009766	6593.048340
3875.291016	6585.033691
3874.572266	6389.205566
3873.853516	6579.443359
3873.134766	6491.463867
3872.415039	6556.474121
3871.696289	6569.325684
3870.976563	6547.419922
3870.256836	6511.622559
3869.537109	6427.197754
3868.817383	6620.688965
3868.097656	6522.381348
3867.377930	6573.422363
3866.658203	6742.492676
3865.937500	6633.798340
3865.217773	6563.317871
3864.497070	6614.318848
3863.776367	6422.423828
3863.055664	6376.294922
3862.334961	6364.866211
3861.614258	6450.546387
3860.893555	6706.104980
3860.171875	6486.613281
3859.451172	6523.702637
3858.729492	6609.301270
3858.007813	6455.770020
3857.287109	6399.299316
3856.565430	6568.016113
3855.842773	6459.591309
3855.121094	6604.002441
3854.399414	6561.393555
3853.676758	6754.208496
3852.955078	6479.677246
3852.232422	6679.365234
3851.509766	6657.532227
3850.787109	6428.124023
3850.064453	6541.245117
3849.341797	6571.323242
3848.619141	6559.895020
3847.895508	6697.142090
3847.172852	6409.143066
3846.449219	6601.672363
3845.725586	6742.301758
3845.001953	6637.562500
3844.278320	6563.949219
3843.554688	6790.870605
3842.831055	6492.771973
3842.107422	6584.962891
3841.382813	6518.309570
3840.659180	6620.822266
3839.934570	6498.961914
3839.209961	6563.485352
3838.485352	6669.391602
3837.760742	6716.618164
3837.036133	6605.167480
3836.310547	6569.622070
3835.585938	6534.087891
3834.860352	6653.702637
3834.135742	6587.143555
3833.410156	6565.408691
3832.684570	6488.546875
3831.958984	6559.857910
3831.233398	6593.253418
3830.507813	6723.075684
3829.781250	6518.822266
3829.055664	6479.903320
3828.329102	6599.353027
3827.602539	6715.322266
3826.875977	6614.443848
3826.149414	6486.070313
3825.422852	6598.561523
3824.696289	6611.262207
3823.969727	6383.212891
3823.242188	6626.335938
3822.515625	6518.691406
3821.788086	6668.899414
3821.060547	6578.467285
3820.333008	6536.174805
3819.605469	6511.075195
3818.877930	6650.881348
3818.150391	6670.424316
3817.421875	6604.103516
3816.694336	6575.574707
3815.965820	6650.050293
3815.237305	6449.892090
3814.508789	6452.290039
3813.780273	6571.358398
3813.051758	6549.719238
3812.323242	6456.047363
3811.593750	6571.627930
3810.865234	6563.715820
3810.135742	6751.245605
3809.407227	6486.190430
3808.677734	6509.144043
3807.948242	6538.944336
3807.218750	6620.133789
3806.488281	6612.220215
3805.758789	6597.458496
3805.029297	6685.448730
3804.298828	6667.254883
3803.568359	6580.590332
3802.837891	6709.619629
3802.107422	6585.326172
3801.376953	6676.668945
3800.646484	6607.166016
3799.916016	6595.843750
3799.185547	6670.037598
3798.454102	6453.509277
3797.722656	6835.451660
3796.992188	6540.331543
3796.260742	6522.191406
3795.529297	6596.336914
3794.796875	6537.186523
3794.065430	6597.639160
3793.333984	6712.730469
3792.601563	6595.523926
3791.870117	6775.464355
3791.137695	6798.279785
3790.405273	6561.626953
3789.672852	6703.937988
3788.940430	6610.716309
3788.208008	6647.191895
3787.474609	6724.597168
3786.742188	6563.191406
3786.008789	6742.905273
3785.276367	6663.391602
3784.542969	6536.168945
3783.809570	6668.073242
3783.076172	6707.906250
3782.342773	6717.054688
3781.608398	6651.237793
3780.875000	6769.411133
3780.140625	6638.886719
3779.407227	6808.110352
3778.672852	6623.137695
3777.938477	6778.690430
3777.204102	6532.507324
3776.469727	6749.289063
3775.735352	6731.191895
3775.000000	6634.843262
3774.265625	6630.377930
3773.530273	6479.653809
3772.794922	6652.058594
3772.059570	6603.388184
3771.324219	6748.519043
3770.588867	6693.050293
3769.853516	6671.585449
3769.118164	6667.117676
3768.381836	6645.663574
3767.646484	6715.936035
3766.910156	6711.463379
3766.173828	6696.803711
3765.437500	6702.521484
3764.701172	6670.893066
3763.964844	6887.060059
3763.227539	6906.318848
3762.491211	6647.326660
3761.753906	6802.324707
3761.017578	6414.530762
3760.280273	6627.173340
3759.542969	6710.887207
3758.805664	6658.954102
3758.068359	6596.867676
3757.331055	6741.555176
3756.592773	6754.030273
3755.855469	6641.132813
3755.117188	6762.028809
3754.378906	6825.302734
3753.640625	6665.033691
3752.902344	6691.054688
3752.164063	6656.126465
3751.425781	6800.617676
3750.686523	6664.146484
3749.948242	6608.934570
3749.208984	6773.664551
3748.470703	6819.939453
3747.731445	6710.610840
3746.992188	6925.972168
3746.252930	6718.604004
3745.512695	6734.431152
3744.773438	6831.377441
3744.034180	6826.902832
3743.293945	6697.402344
3742.553711	6679.436523
3741.813477	6735.792480
3741.073242	6809.017578
3740.333008	6865.334473
3739.592773	6806.835449
3738.852539	6853.006836
3738.111328	6784.401855
3737.371094	6931.805176
3736.629883	6805.847656
3735.888672	6619.203125
3735.147461	6722.710449
3734.406250	6930.735840
3733.665039	6717.184082
3732.923828	6867.826660
3732.181641	6863.354980
3731.440430	6703.843750
3730.698242	6729.729004
3729.956055	6917.335449
3729.214844	6949.915527
3728.472656	6702.916016
3727.729492	6792.771484
3726.987305	6784.948242
3726.245117	6851.194824
3725.501953	6890.490723
3724.759766	6892.751953
3724.016602	6851.266602
3723.273438	6742.503906
3722.530273	6812.067383
3721.787109	6895.062012
3721.043945	6729.174316
3720.299805	6728.096191
3719.556641	6831.234863
3718.812500	6752.830566
3718.068359	6761.830566
3717.325195	6861.553711
3716.581055	6830.216797
3715.835938	6960.128906
3715.091797	6901.917480
3714.347656	6884.020996
3713.602539	6953.425781
3712.858398	7039.593262
3712.113281	6877.355957
3711.368164	6866.186035
3710.623047	6932.193359
3709.877930	6867.340820
3709.132813	6812.571777
3708.387695	6918.800293
3707.641602	6864.040039
3706.896484	6879.703613
3706.150391	6938.939941
3705.404297	6780.302734
3704.658203	6826.131348
3703.912109	6825.037598
3703.166016	6850.743652
3702.419922	7077.409180
3701.672852	6855.246582
3700.926758	6834.057617
3700.179688	6839.658203
3699.432617	6905.508789
3698.685547	6777.224609
3697.938477	6873.179688
3697.191406	7116.314941
3696.444336	6881.013184
3695.696289	6899.978027
3694.949219	6945.689941
3694.201172	6857.644531
3693.454102	6829.801758
3692.706055	6979.119141
3691.958008	7098.311523
3691.208984	6976.882813
3690.460938	6908.947266
3689.712891	6851.054688
3688.963867	7073.724609
3688.215820	7049.216309
3687.466797	7021.376465
3686.717773	6726.489258
3685.968750	6902.308105
3685.219727	7064.722168
3684.470703	6976.838379
3683.720703	6835.605957
3682.971680	7067.998047
3682.221680	6860.095703
3681.471680	7055.729980
3680.722656	7021.260254
3679.972656	6963.467773
3679.221680	6979.016113
3678.471680	7187.834961
3677.721680	6960.121094
3676.970703	7072.269043
3676.220703	7171.057617
3675.469727	7033.370605
3674.718750	7018.925293
3673.967773	6981.180176
3673.216797	6983.390137
3672.465820	6889.085938
3671.714844	7333.870605
3670.962891	6737.163574
3670.211914	6875.795898
3669.459961	7031.012695
3668.708008	7122.997559
3667.956055	7264.825195
3667.204102	7050.904297
3666.452148	7092.983887
3665.699219	6992.149414
3664.947266	6984.383789
3664.194336	7239.074219
3663.442383	6965.537598
3662.689453	6937.852539
3661.936523	7132.656738
3661.183594	7094.993164
3660.430664	7219.999023
3659.676758	7152.462402
3658.923828	7240.915039
3658.169922	7004.181152
3657.416992	7178.881836
3656.663086	7045.056152
3655.909180	7269.439453
3655.155273	7016.272461
3654.401367	7161.020996
3653.646484	7219.539551
3652.892578	7195.183105
3652.137695	7167.520996
3651.383789	7355.223145
3650.628906	7135.411133
3649.874023	7220.382324
3649.119141	7162.928711
3648.364258	7112.115723
3647.609375	7240.086426
3646.853516	7185.966797
3646.098633	7287.408203
3645.342773	7282.932129
3644.586914	7258.606445
3643.831055	7313.677246
3643.075195	7252.973633
3642.319336	7331.174805
3641.563477	7379.594238
3640.806641	7338.743164
3640.050781	7178.917480
3639.293945	7230.642090
3638.537109	7212.962891
3637.780273	7264.665527
3637.023438	7263.501465
3636.266602	7321.784180
3635.509766	7389.953613
3634.752930	7180.774902
3633.995117	7318.265625
3633.237305	7511.819824
3632.480469	7414.918457
3631.722656	7304.851074
3630.964844	7247.600098
3630.207031	7309.106934
3629.448242	7495.911133
3628.690430	7498.007324
3627.931641	7315.485352
3627.173828	7452.754395
3626.415039	7520.770020
3625.656250	7364.692383
3624.897461	7221.843262
3624.138672	7296.450684
3623.379883	7440.199219
3622.620117	7422.541992
3621.861328	7539.883789
3621.101563	7439.916016
3620.341797	7353.145996
3619.582031	7509.933105
3618.822266	7571.248047
3618.062500	7533.846191
3617.302734	7572.111816
3616.542969	7403.167969
3615.782227	7556.532715
3615.021484	7423.810547
3614.261719	7721.761719
3613.500977	7641.643066
3612.740234	7630.560547
3611.979492	7734.479492
3611.217773	7424.436523
3610.457031	7643.316895
3609.695313	7707.773926
3608.934570	7660.569336
3608.172852	7544.435547
3607.411133	7530.096680
3606.649414	7604.376465
3605.887695	7701.602051
3605.125977	7624.906738
3604.363281	7604.002441
3603.601563	7599.504395
3602.838867	7565.493652
3602.076172	7633.137207
3601.314453	7681.088867
3600.551758	7607.747070
3599.788086	7554.092285
3599.025391	7608.586426
3598.262695	7604.091309
3597.499023	7501.326660
3596.736328	7830.916504
3595.972656	7751.070801
3595.208984	7720.361816
3594.445313	7519.436035
3593.681641	7691.704102
3592.916992	7752.649902
3592.153320	7718.687988
3591.389648	7723.994141
3590.625000	7680.234375
3589.860352	7914.476074
3589.095703	7573.136230
3588.331055	7630.771973
3587.566406	7698.196289
3586.801758	7716.572754
3586.036133	7718.604492
3585.271484	7648.754395
3584.505859	7725.932129
3583.741211	7678.966797
3582.975586	7752.848145
3582.209961	7767.932129
3581.443359	7626.306152
3580.677734	7745.858398
3579.912109	7522.690430
3579.145508	7811.902344
3578.379883	7647.520996
3577.613281	7525.599609
3576.846680	7759.225098
3576.080078	7715.588867
3575.313477	7727.395020
3574.545898	7693.557129
3573.779297	7878.113770
3573.012695	7498.814941
3572.245117	7699.635254
3571.477539	7675.596680
3570.709961	7648.308105
3569.942383	7705.706055
3569.174805	7678.420898
3568.407227	7680.446289
3567.638672	7841.979980
3566.871094	7756.100098
3566.102539	7862.247559
3565.333984	7672.271973
3564.565430	7814.183594
3563.796875	7624.276367
3563.028320	7772.654297
3562.259766	7547.046387
3561.490234	7770.164063
3560.721680	7804.675781
3559.952148	7696.172852
3559.182617	7594.203613
3558.413086	7774.933105
3557.643555	7517.054688
3556.874023	7554.826660
3556.104492	7732.227051
3555.333984	7545.912109
3554.564453	7460.295898
3553.793945	7731.757324
3553.023438	7655.874512
3552.252930	7657.893066
3551.482422	7728.041504
3550.711914	7713.828125
3549.941406	7605.562988
3549.169922	7620.558594
3548.399414	7635.549316
3547.627930	7705.644531
3546.856445	7730.339844
3546.084961	7567.065430
3545.313477	7501.049316
3544.541992	7603.517090
3543.770508	7579.625000
3542.998047	7458.581055
3542.226563	7758.531250
3541.454102	7643.972168
3540.681641	7600.665527
3539.909180	7641.522949
3539.136719	7491.440430
3538.364258	7512.889160
3537.591797	7679.905762
3536.818359	7549.295898
3536.045898	7561.021973
3535.272461	7847.587891
3534.499023	7581.229980
3533.725586	7618.804688
3532.952148	7756.555176
3532.178711	7519.421875
3531.404297	7466.523438
3530.630859	7597.771484
3529.856445	7648.231445
3529.082031	7627.629883
3528.308594	7590.891113
3527.534180	7276.532227
3526.759766	7653.014160
3525.984375	7458.153320
3525.209961	7485.999023
3524.434570	7484.799805
3523.660156	7580.371094
3522.884766	7588.832031
3522.109375	7552.145020
3521.333984	7563.831543
3520.558594	7717.353516
3519.783203	7587.192871
3519.006836	7460.296387
3518.231445	7633.092773
3517.455078	7486.899902
3516.678711	7476.037109
3515.902344	7507.044434
3515.125977	7428.561523
3514.349609	7585.126465
3513.573242	7580.691895
3512.796875	7563.385254
3512.019531	7520.339844
3511.242188	7483.743164
3510.465820	7350.650879
3509.688477	7478.128906
3508.911133	7702.042480
3508.132813	7549.686035
3507.355469	7474.535156
3506.578125	7582.625000
3505.799805	7452.856934
3505.021484	7663.741211
3504.244141	7511.511719
3503.465820	7574.553711
3502.687500	7711.446289
3501.908203	7546.436523
3501.129883	7513.120117
3500.351563	7717.370605
3499.572266	7574.906738
3498.792969	7464.580566
3498.014648	7594.940430
3497.235352	7503.894531
3496.455078	7557.222656
3495.675781	7616.947266
3494.896484	7506.701660
3494.116211	7755.575195
3493.336914	7667.781250
3492.556641	7688.988281
3491.776367	7453.822754
3490.996094	7600.014648
3490.215820	7419.398926
3489.435547	7652.030762
3488.655273	7493.881348
3487.874023	7764.850586
3487.092773	7641.950195
3486.312500	7541.495117
3485.531250	7613.897461
3484.750000	7468.679688
3483.968750	7553.867676
3483.186523	7475.882813
3482.405273	7637.804199
3481.623047	7479.883301
3480.841797	7792.028320
3480.059570	7503.061035
3479.277344	7460.306152
3478.495117	7657.253418
3477.712891	7633.658691
3476.930664	7498.252930
3476.147461	7509.828613
3475.365234	7716.222168
3474.582031	7619.187012
3473.798828	7592.423828
3473.015625	7524.169434
3472.232422	7621.908203
3471.449219	7706.850586
3470.666016	7759.857910
3469.881836	7659.717285
3469.098633	7588.316406
3468.314453	7654.073242
3467.530273	7722.998047
3466.746094	7603.797852
3465.961914	7577.078125
3465.177734	7703.350098
3464.392578	7568.276367
3463.608398	7684.950195
3462.823242	7597.707031
3462.039063	7746.189453
3461.253906	7608.010254
3460.468750	7568.582031
3459.683594	7541.900391
3458.897461	7712.577637
3458.112305	7533.118164
3457.326172	7694.195801
3456.541016	7715.233398
3455.754883	7621.747070
3454.968750	7690.497070
3454.182617	7682.904297
3453.396484	7694.391113
3452.610352	7632.757324
3451.823242	7526.644043
3451.037109	7690.692383
3450.250000	7679.927246
3449.462891	7643.750000
3448.675781	7760.053223
3447.888672	7806.448730
3447.101563	7649.601563
3446.314453	7648.375977
3445.526367	7748.730957
3444.739258	7703.054688
3443.951172	7892.223633
3443.163086	7649.819336
3442.375000	7715.213379
3441.586914	7587.102051
3440.798828	7681.026855
3440.009766	7584.670410
3439.221680	7558.091797
3438.432617	7680.503906
3437.644531	7530.314453
3436.855469	7662.198242
3436.066406	7638.791992
3435.277344	7634.399902
3434.487305	7775.704102
3433.698242	7609.785156
3432.908203	7618.063965
3432.119141	7458.554688
3431.329102	7533.325684
3430.539063	7671.367188
3429.749023	7654.316406
3428.958984	7801.785156
3428.168945	7484.211426
3427.377930	7492.500000
3426.587891	7712.654297
3425.796875	7613.405273
3425.005859	7858.758789
3424.214844	7541.429199
3423.423828	7707.710449
3422.632813	7564.289551
3421.840820	7689.443848
3421.049805	7473.421875
3420.257813	7690.137207
3419.466797	7786.791992
3418.674805	7763.443848
3417.882813	7585.427246
3417.090820	7817.765625
3416.297852	7620.863281
3415.505859	7600.710449
3414.713867	7564.791504
3413.920898	7667.664551
3413.127930	7524.522949
3412.334961	7747.187500
3411.541992	7654.520020
3410.749023	7492.536133
3409.956055	7636.308105
3409.162109	7600.422363
3408.369141	7476.331055
3407.575195	7771.239746
3406.781250	7606.216309
3405.987305	7686.872559
3405.193359	7638.412109
3404.399414	7564.782227
3403.605469	7522.651367
3402.810547	7430.181152
3402.016602	7501.360352
3401.221680	7374.316406
3400.426758	7631.067871
3399.631836	7620.409180
3398.836914	7487.117676
3398.041992	7611.678223
3397.247070	7638.749512
3396.451172	7637.524902
3395.655273	7494.887695
3394.860352	7751.330566
3394.064453	7505.050781
3393.268555	7544.680664
3392.472656	7552.892578
3391.675781	7517.141602
3390.879883	7701.166016
3390.083008	7734.460449
3389.287109	7453.895508
3388.490234	7782.187988
3387.693359	7652.304199
3386.896484	7867.528320
3386.099609	7659.259766
3385.301758	7654.895996
3384.504883	7606.636719
3383.707031	7545.852539
3382.909180	7754.651855
3382.112305	7596.710449
3381.314453	7520.289551
3380.515625	7644.401855
3379.717773	7455.229492
3378.919922	7557.388184
3378.121094	7490.416016
3377.323242	7558.095703
3376.524414	7594.449219
3375.725586	7618.270996
3374.926758	7479.354492
3374.127930	7684.664551
3373.328125	7573.937500
3372.529297	7575.851074
3371.729492	7649.694336
3370.930664	7532.771484
3370.130859	7678.505859
3369.331055	7583.496582
3368.531250	7526.022949
3367.731445	7759.185547
3366.930664	7501.738770
3366.130859	7612.997070
3365.330078	7511.826660
3364.529297	7588.695313
3363.729492	7734.231934
3362.928711	7720.503906
3362.126953	7491.402832
3361.326172	7711.786621
3360.525391	7517.083984
3359.723633	7671.874512
3358.922852	7564.583984
3358.121094	7644.462891
3357.319336	7721.197266
3356.517578	7829.085938
3355.715820	7656.372559
3354.913086	7661.378906
3354.111328	7538.609863
3353.308594	7506.241699
3352.506836	7576.692383
3351.704102	7547.443359
3350.901367	7758.013184
3350.098633	7747.427246
3349.294922	7522.018555
3348.492188	7642.216309
3347.688477	7703.238770
3346.885742	7462.385742
3346.082031	7626.094238
3345.278320	7659.091309
3344.474609	7592.543945
3343.670898	7578.886719
3342.867188	7630.531250
3342.062500	7759.882324
3341.258789	7559.698730
3340.454102	7723.206543
3339.649414	7557.273926
3338.844727	7568.489258
3338.040039	7436.805176
3337.235352	7684.087402
3336.429688	7816.388672
3335.625000	7619.523926
3334.819336	7565.526367
3334.014648	7561.208984
3333.208984	7615.858398
3332.403320	7530.856934
3331.596680	7715.796387
3330.791016	7655.621582
3329.985352	7691.610840
3329.178711	7721.386719
3328.373047	7782.157715
3327.566406	7585.611328
3326.759766	7646.384277
3325.953125	7626.563965
3325.145508	7637.734375
3324.338867	7639.606934
3323.532227	7731.306152
3322.724609	7720.774902
3321.916992	7694.764648
3321.109375	7727.585938
3320.301758	7723.250977
3319.494141	7610.592285
3318.686523	7726.962402
3317.878906	7648.373047
3317.070313	7767.792480
3316.261719	7534.570801
3315.454102	7663.247559
3314.645508	7649.650391
3313.836914	7642.240234
3313.027344	7582.284668
3312.218750	7445.084961
3311.410156	7570.582031
3310.600586	7606.441895
3309.791016	7747.317383
3308.981445	7724.454590
3308.171875	7485.435547
3307.362305	7471.884766
3306.552734	7736.172852
3305.743164	7555.911133
3304.932617	7514.580078
3304.122070	7713.936523
3303.312500	7543.019531
3302.501953	7575.739746
3301.691406	7688.635742
3300.879883	7628.813965
3300.069336	7658.420898
3299.258789	7654.109863
3298.447266	7671.374023
3297.635742	7685.551270
3296.824219	7631.939453
3296.012695	7720.053223
3295.201172	7567.887695
3294.389648	7853.080078
3293.578125	7679.387695
3292.765625	7841.324219
3291.953125	7673.845703
3291.141602	7531.041504
3290.329102	7609.839844
3289.516602	7700.918945
3288.703125	7711.987793
3287.890625	7590.798828
3287.078125	7543.452637
3286.264648	7600.661621
3285.451172	7636.332520
3284.637695	7665.844238
3283.824219	7744.517578
3283.010742	7611.147949
3282.197266	7708.237793
3281.383789	7627.135742
3280.569336	7810.186523
3279.754883	7640.041992
3278.940430	7595.832031
3278.126953	7698.985352
3277.311523	7614.879395
3276.497070	7837.678711
3275.682617	7621.640137
3274.867188	7534.518555
3274.052734	7634.530762
3273.237305	7737.577148
3272.421875	7745.534668
3271.606445	7581.802246
3270.791016	7540.736328
3269.975586	7352.570313
3269.159180	7611.860352
3268.343750	7779.151367
3267.527344	7701.318359
3266.710938	7758.277344
3265.894531	7677.410156
3265.078125	7565.949707
3264.261719	7472.893066
3263.445313	7578.825684
3262.627930	7553.125977
3261.811523	7674.311035
3260.994141	7581.295898
3260.176758	7632.081055
3259.359375	7692.025391
3258.541992	7531.776367
3257.724609	7710.958496
3256.906250	7462.104980
3256.088867	7687.087891
3255.270508	7581.949707
3254.452148	7678.509277
3253.633789	7750.597168
3252.815430	7462.227051
3251.997070	7671.758301
3251.177734	7719.383789
3250.359375	7815.842773
3249.540039	7652.801758
3248.720703	7709.562500
3247.902344	7741.892578
3247.083008	7728.445313
3246.262695	7669.243164
3245.443359	7561.257813
3244.624023	7599.688965
3243.803711	7677.747070
3242.983398	7484.449219
3242.163086	7577.740723
3241.342773	7546.047363
3240.522461	7755.091797
3239.702148	7546.671387
3238.881836	7511.951660
3238.060547	7769.631836
3237.240234	7710.524902
3236.418945	7608.810547
3235.597656	7701.960938
3234.776367	7782.905762
3233.955078	7714.704102
3233.132813	7762.150391
3232.311523	7654.423828
3231.489258	7613.651367
3230.666992	7575.932617
3229.845703	7784.534180
3229.022461	7445.805664
3228.200195	7803.313477
3227.377930	7710.879395
3226.555664	7788.652344
3225.732422	7723.595215
3224.909180	7731.468750
3224.086914	7675.554199
3223.263672	7725.949219
3222.440430	7834.020508
3221.616211	7608.102051
3220.792969	7886.143555
3219.968750	7757.408203
3219.145508	7628.713867
3218.321289	7785.256836
3217.497070	7601.995605
3216.672852	7661.435547
3215.848633	7557.098633
3215.024414	7546.789063
3214.199219	7763.850098
3213.375000	7641.359863
3212.549805	7740.142578
3211.724609	7829.802734
3210.899414	7940.641602
3210.074219	7833.346680
3209.249023	7683.684570
3208.422852	7879.281250
3207.597656	7790.213379
3206.771484	7695.119141
3205.945313	7690.856934
3205.119141	7853.037598
3204.292969	7969.779785
3203.466797	7790.010254
3202.640625	7679.867676
3201.813477	7760.289551
3200.987305	7759.042969
3200.160156	7842.449707
3199.333008	7904.668945
3198.505859	7613.255371
3197.678711	7805.431152
3196.850586	7912.946289
3196.023438	7878.445801
3195.195313	8010.077148
3194.368164	7972.551758
3193.540039	7690.465332
3192.711914	7779.797852
3191.883789	7860.046387
3191.055664	7834.640137
3190.226563	7803.207031
3189.398438	7958.837402
3188.569336	8057.103516
3187.740234	7778.334961
3186.911133	7927.862305
3186.082031	7872.317871
3185.252930	7892.155273
3184.423828	7710.041992
3183.593750	7747.980469
3182.763672	8020.929688
3181.934570	7781.643066
3181.104492	7804.489746
3180.274414	7872.504395
3179.444336	7871.239746
3178.613281	7785.675781
3177.783203	8064.375000
3176.952148	7939.680176
3176.122070	7863.173340
3175.291016	7861.910156
3174.459961	7974.961914
3173.628906	8048.875488
3172.796875	7876.165039
3171.965820	7944.057129
3171.133789	7918.729980
3170.302734	7923.469238
3169.470703	7798.975586
3168.638672	7890.874023
3167.806641	7910.637207
3166.974609	7936.401855
3166.141602	7833.008789
3165.309570	7990.907715
3164.476563	7809.474609
3163.644531	8018.359863
3162.811523	7909.016602
3161.978516	7901.743652
3161.144531	7915.477051
3160.311523	7773.201172
3159.478516	7897.935059
3158.644531	7953.648926
3157.810547	7913.388672
3156.977539	8008.058105
3156.143555	7898.854980
3155.308594	7921.562988
3154.474609	7818.402344
3153.640625	7838.119141
3152.805664	7788.927734
3151.970703	7808.642578
3151.136719	7729.523438
3150.301758	8090.591309
3149.466797	7891.699219
3148.630859	7761.717285
3147.795898	7853.248535
3146.959961	7789.146484
3146.125000	7928.513672
3145.289063	7972.110352
3144.453125	7943.910645
3143.617188	7846.939453
3142.781250	7896.507813
3141.945313	7913.175293
3141.108398	7899.947266
3140.271484	8024.195801
3139.435547	7822.707031
3138.598633	7851.325195
3137.761719	7808.244141
3136.924805	7833.868164
3136.086914	8023.721191
3135.250000	8013.474609
3134.412109	7764.417480
3133.575195	7966.127930
3132.737305	7988.721191
3131.899414	7897.925293
3131.061523	7980.186523
3130.222656	7895.386230
3129.384766	8067.089355
3128.545898	7749.720703
3127.708008	7608.352539
3126.869141	7917.137695
3126.030273	8193.039063
3125.191406	7923.532227
3124.352539	7832.875977
3123.512695	7900.131836
3122.673828	7985.237305
3121.833984	7787.406738
3120.994141	7967.782227
3120.154297	7853.374512
3119.314453	7864.018066
3118.474609	7999.652344
3117.634766	7888.269531
3116.793945	7946.503418
3115.954102	7906.555664
3115.113281	8003.431152
3114.272461	8043.775391
3113.431641	8018.696777
3112.590820	7797.426270
3111.750000	8022.062500
3110.908203	8011.857422
3110.067383	7826.349609
3109.225586	7851.828613
3108.383789	7803.040527
3107.541992	7938.398926
3106.700195	7794.592285
3105.858398	7962.565918
3105.015625	7946.443359
3104.173828	7921.421875
3103.331055	7884.538574
3102.488281	7862.501465
3101.645508	8101.523926
3100.802734	7690.909180
3099.959961	7832.019043
3099.116211	7854.479980
3098.273438	7900.650391
3097.429688	8000.159668
3096.585938	8040.363770
3095.743164	8136.855469
3094.898438	8005.188477
3094.054688	7900.223145
3093.210938	7795.291992
3092.366211	7948.023438
3091.522461	7854.960938
3090.677734	7803.372070
3089.833008	7828.755371
3088.988281	7836.374512
3088.143555	7917.962402
3087.297852	7851.604004
3086.453125	7953.868652
3085.607422	7801.758789
3084.762695	7806.417969
3083.916992	8056.464844
3083.071289	7963.531738
3082.225586	7938.606445
3081.378906	7981.655762
3080.533203	7891.733398
3079.686523	7961.362793
3078.839844	8030.969727
3077.994141	7879.065918
3077.147461	8049.054688
3076.299805	8050.712402
3075.453125	8025.803223
3074.606445	7791.361328
3073.758789	7931.746094
3072.912109	7936.370605
3072.064453	7746.303223
3071.216797	7883.677734
3070.369141	7864.715820
3069.520508	7875.244141
3068.672852	7823.861816
3067.824219	7919.869629
3066.976563	7865.549316
3066.127930	8153.043457
3065.279297	7871.856445
3064.430664	8062.052734
3063.582031	7886.994141
3062.732422	8047.679688
3061.883789	7875.623535
3061.034180	7859.637695
3060.184570	7914.293945
3059.334961	7992.474121
3058.485352	7961.765625
3057.635742	8039.912598
3056.786133	7962.144531
3055.935547	8019.680176
3055.084961	7956.641602
3054.235352	8196.432617
3053.384766	7939.383789
3052.534180	7838.181641
3051.683594	7845.735840
3050.832031	8038.381348
3049.981445	7860.835938
3049.129883	8038.730957
3048.278320	7955.212891
3047.426758	7836.487793
3046.575195	7935.038574
3045.723633	7839.835938
3044.872070	7967.700684
3044.019531	8069.116211
3043.167969	7815.514648
3042.315430	7867.055664
3041.462891	7915.646973
3040.610352	7967.154785
3039.757813	8047.964844
3038.905273	7929.413574
3038.051758	8016.064453
3037.199219	7903.417480
3036.345703	7902.145020
3035.492188	7956.533691
3034.638672	8195.433594
3033.785156	8059.400391
3032.931641	7894.129883
3032.077148	8050.950195
3031.223633	7827.190918
3030.369141	7852.270996
3029.514648	7962.202637
3028.660156	7744.416504
3027.805664	8070.798828
3026.951172	7934.958984
3026.095703	8036.032715
3025.241211	8052.282227
3024.385742	7989.594727
3023.530273	7979.539551
3022.674805	7899.348633
3021.819336	7976.970215
3020.963867	7867.590332
3020.107422	7813.745117
3019.251953	7862.136230
3018.395508	7878.390625
3017.539063	7780.774902
3016.682617	8086.032227
3015.826172	7868.748047
3014.969727	7858.726563
3014.113281	7860.378418
3013.255859	7748.256836
3012.398438	8085.357422
3011.541992	7955.736816
3010.684570	7919.465332
3009.827148	8075.620605
3008.968750	7791.573242
3008.111328	7941.869629
3007.252930	7809.461426
3006.395508	7965.533203
3005.537109	8089.511230
3004.678711	8059.082520
3003.820313	7906.355469
3002.961914	8056.486816
3002.102539	7994.054688
3001.244141	7835.589844
3000.384766	7770.302734
2999.525391	7830.155762
2998.666016	7843.440918
2997.806641	7952.712891
2996.947266	8082.307617
2996.087891	7915.256348
2995.227539	7902.351563
2994.367188	7967.938477
2993.507813	7792.266602
2992.647461	7866.567383
2991.787109	7754.889648
2990.925781	8105.154297
2990.065430	7923.762695
2989.205078	7890.541016
2988.343750	7837.003418
2987.482422	7777.677246
2986.621094	7872.214355
2985.759766	7839.020996
2984.898438	7820.347168
2984.037109	8045.391113
2983.174805	7957.068848
2982.312500	7810.767090
2981.451172	7980.604492
2980.588867	8077.900391
2979.726563	7920.053223
2978.864258	8060.804688
2978.000977	7856.641602
2977.138672	7898.839844
2976.275391	8155.411133
2975.412109	7713.804688
2974.548828	7984.803711
2973.685547	8079.076172
2972.822266	7979.335449
2971.958984	7778.309082
2971.094727	8193.838867
2970.231445	7987.053711
2969.367188	8034.954590
2968.502930	8036.552734
2967.638672	8148.063477
2966.774414	8031.070313
2965.909180	8145.437500
2965.044922	7990.897949
2964.179688	7940.470215
2963.314453	7994.103027
2962.450195	8117.069824
2961.583984	8156.210449
2960.718750	8001.792969
2959.853516	8315.324219
2958.987305	8002.101563
2958.122070	8142.291504
2957.255859	8164.073730
2956.389648	8047.301758
2955.523438	7953.654297
2954.657227	8154.355469
2953.791016	8179.006348
2952.923828	8114.228027
2952.056641	8072.542480
2951.190430	8056.823242
2950.323242	8078.589844
2949.456055	8149.354492
2948.587891	7952.049805
2947.720703	7962.294922
2946.853516	8009.993164
2945.985352	7928.038574
2945.117188	8105.342773
2944.249023	7983.080566
2943.380859	8163.197754
2942.512695	7992.022461
2941.644531	8258.434570
2940.775391	8176.518066
2939.907227	8062.974121
2939.038086	8208.407227
2938.168945	8077.634277
2937.299805	8165.493652
2936.430664	8241.821289
2935.560547	7812.078613
2934.691406	8178.792969
2933.821289	7973.396484
2932.951172	8360.083008
2932.081055	8131.735840
2931.210938	8216.612305
2930.340820	8097.516113
2929.470703	8081.850098
2928.599609	8008.758301
2927.729492	8148.149902
2926.858398	8304.719727
2925.987305	8154.132324
2925.116211	8175.774902
2924.244141	8128.548340
2923.373047	8173.137695
2922.501953	8025.535645
2921.629883	8253.668945
2920.757813	8232.266602
2919.885742	8276.809570
2919.013672	8074.822266
2918.141602	8216.819336
2917.269531	8278.536133
2916.396484	8242.819336
2915.523438	8195.656250
2914.651367	8162.828613
2913.778320	8178.693848
2912.904297	8188.827637
2912.031250	8230.448242
2911.158203	8080.280762
2910.284180	8204.898438
2909.411133	8541.216797
2908.537109	8322.409180
2907.663086	8223.811523
2906.789063	8411.244141
2905.915039	8141.091309
2905.040039	8168.368652
2904.166016	8278.536133
2903.291016	8122.860840
2902.416016	8250.146484
2901.541016	8283.101563
2900.666016	7996.088379
2899.791016	8249.009766
2898.915039	8347.632813
2898.040039	8254.914063
2897.164063	8213.613281
2896.288086	8046.728516
2895.412109	8268.041992
2894.536133	8124.031250
2893.660156	8171.222656
2892.783203	8272.598633
2891.907227	8177.142090
2891.030273	8235.708008
2890.153320	8046.197266
2889.276367	8261.557617
2888.399414	8365.686523
2887.522461	8315.888672
2886.644531	8197.721680
2885.767578	8110.930176
2884.889648	8169.438965
2884.011719	8173.816406
2883.133789	8101.308105
2882.255859	8159.789551
2881.377930	7927.895020
2880.499023	8068.924316
2879.621094	8249.748047
2878.742188	8231.344727
2877.863281	8056.482910
2876.984375	7907.276855
2876.105469	8207.452148
2875.226563	8075.329590
2874.346680	8179.215820
2873.466797	8209.163086
2872.587891	8003.210449
2871.708008	8237.770508
2870.828125	8134.159668
2869.948242	8206.704102
2869.067383	8066.208496
2868.187500	8280.727539
2867.306641	8038.050781
2866.425781	8050.946777
2865.544922	8049.646973
2864.664063	8011.454590
2863.783203	8092.447266
2862.902344	7796.092285
2862.020508	7990.555176
2861.139648	8045.986816
2860.257813	8090.057617
2859.375977	7978.179688
2858.494141	8132.800781
2857.612305	8091.807617
2856.729492	8107.503906
2855.847656	8222.361328
2854.964844	7932.079590
2854.082031	8112.074219
2853.199219	8082.444336
2852.316406	8010.351074
2851.433594	8009.057617
2850.549805	8058.714844
2849.666992	7980.999512
2848.783203	8022.155762
2847.899414	8272.661133
2847.015625	8030.879883
2846.131836	8080.492188
2845.248047	8135.744141
2844.363281	8069.399902
2843.479492	8212.270508
2842.594727	8086.578613
2841.709961	8260.486328
2840.825195	8067.013184
2839.940430	7989.431641
2839.055664	8137.848145
2838.169922	8161.951660
2837.285156	8081.567871
2836.399414	8043.559570
2835.513672	8208.807617
2834.627930	8080.474609
2833.742188	8050.949707
2832.856445	8337.438477
2831.969727	8065.274414
2831.083984	8063.971680
2830.197266	7969.605469
2829.310547	7917.563965
2828.423828	8026.233398
2827.537109	8160.235840
2826.649414	8119.461426
2825.762695	7895.541504
2824.875000	7942.160645
2823.987305	8211.300781
2823.099609	8150.828613
2822.211914	8034.055664
2821.324219	8162.272461
2820.436523	8034.274414
2819.547852	8196.224609
2818.659180	8062.633789
2817.771484	8052.889648
2816.882813	8090.974121
2815.993164	7934.961426
2815.104492	8068.672363
2814.215820	8151.726074
2813.326172	8127.916504
2812.437500	8188.445313
2811.547852	8029.730957
2810.658203	8160.507813
2809.768555	8055.231934
2808.877930	8183.152344
2807.988281	8170.594727
2807.097656	8222.631836
2806.207031	8159.530273
2805.317383	8273.313477
2804.426758	8218.644531
2803.535156	8113.477051
2802.644531	8266.496094
2801.753906	8001.437500
2800.862305	8087.102051
2799.970703	8178.348145
2799.079102	8252.739258
2798.187500	8307.479492
2797.295898	8219.234375
2796.404297	8178.666504
2795.511719	8152.122559
2794.619141	8198.437500
2793.727539	8166.295410
2792.834961	8366.648438
2791.942383	8303.683594
2791.048828	8240.738281
2790.156250	8256.204102
2789.262695	8145.699707
2788.370117	8292.716797
2787.476563	8070.309570
2786.583008	8147.344238
2785.689453	8126.444824
2784.794922	8223.024414
2783.901367	8246.862305
2783.006836	8206.384766
2782.113281	8110.007324
2781.218750	8198.139648
2780.324219	8308.601563
2779.429688	8217.842773
2778.534180	8325.470703
2777.639648	8150.937988
2776.744141	8171.962402
2775.848633	8240.451172
2774.954102	8278.206055
2774.058594	8357.821289
2773.162109	8144.348145
2772.266602	8198.842773
2771.370117	8417.940430
2770.474609	8307.779297
2769.578125	8320.381836
2768.681641	8427.799805
2767.785156	8314.902344
2766.888672	8282.889648
2765.991211	8197.925781
2765.094727	8377.755859
2764.197266	8543.593750
2763.299805	8305.392578
2762.402344	8354.190430
2761.504883	8255.356445
2760.607422	8312.500977
2759.708984	8333.430664
2758.811523	8351.569336
2757.913086	8311.250000
2757.014648	8365.564453
2756.116211	8319.690430
2755.217773	8243.229492
2754.319336	8336.469727
2753.419922	8365.713867
2752.520508	8347.675781
2751.622070	8371.346680
2750.722656	8108.690430
2749.823242	8099.040527
2748.922852	8336.715820
2748.023438	8396.492188
2747.124023	8284.013672
2746.223633	8118.796875
2745.323242	8311.879883
2744.422852	8241.118164
2743.522461	8195.365234
2742.622070	8538.233398
2741.720703	8489.670898
2740.820313	8266.307617
2739.918945	8448.081055
2739.017578	8194.283203
2738.116211	8278.935547
2737.214844	8269.276367
2736.313477	8259.620117
2735.411133	8435.701172
2734.509766	8486.998047
2733.607422	8236.209961
2732.705078	8487.021484
2731.802734	8341.587891
2730.900391	8398.406250
2729.997070	8488.439453
2729.094727	8307.078125
2728.191406	8150.692871
2727.288086	8320.997070
2726.384766	8186.801270
2725.481445	8290.630859
2724.578125	8377.825195
2723.673828	8348.805664
2722.770508	8375.112305
2721.866211	8415.238281
2720.961914	8275.625977
2720.057617	8371.044922
2719.153320	8231.484375
2718.249023	8337.933594
2717.343750	8098.948242
2716.439453	8313.131836
2715.534180	8226.153320
2714.628906	8108.823242
2713.723633	8397.458008
2712.818359	8365.727539
2711.912109	8234.628906
2711.006836	8302.296875
2710.100586	8405.817383
2709.194336	8398.937500
2708.289063	8254.123047
2707.381836	8385.184570
2706.475586	8284.543945
2705.569336	8294.231445
2704.662109	8405.922852
2703.754883	8308.083008
2702.848633	8281.933594
2701.941406	8288.858398
2701.033203	8282.004883
2700.125977	8319.229492
2699.218750	8381.229492
2698.310547	8440.456055
2697.402344	8287.653320
2696.494141	8126.640625
2695.585938	8323.502930
2694.677734	8066.214844
2693.769531	8265.774414
2692.860352	8118.624023
2691.951172	8227.336914
2691.042969	8374.516602
2690.133789	8320.914063
2689.224609	8465.281250
2688.314453	8458.412109
2687.405273	8220.672852
2686.495117	8230.333008
2685.585938	8512.000000
2684.675781	8307.333008
2683.765625	8231.825195
2682.854492	8337.594727
2681.944336	8102.851074
2681.034180	8389.799805
2680.123047	8363.736328
2679.211914	8123.612305
2678.300781	8372.000977
2677.389648	8211.516602
2676.478516	8284.250000
2675.567383	8304.849609
2674.655273	8306.245117
2673.743164	8321.349609
2672.831055	8281.622070
2671.918945	8206.275391
2671.006836	8383.075195
2670.094727	8189.914551
2669.182617	8224.201172
2668.269531	8242.041992
2667.356445	8084.600586
2666.443359	8288.658203
2665.530273	8199.705078
2664.617188	8387.252930
2663.704102	8284.626953
2662.790039	8277.811523
2661.875977	8301.092773
2660.962891	8357.194336
2660.048828	8416.012695
2659.134766	8236.892578
2658.219727	8396.877930
2657.305664	8239.689453
2656.390625	8230.153320
2655.476563	8070.309082
2654.561523	8161.904785
2653.646484	8198.829102
2652.730469	8413.295898
2651.815430	8452.898438
2650.900391	8325.915039
2649.984375	8406.472656
2649.068359	8238.590820
2648.152344	8155.373047
2647.236328	8271.394531
2646.320313	8335.536133
2645.404297	8364.193359
2644.487305	8302.829102
2643.570313	8391.478516
2642.653320	8351.943359
2641.736328	8217.000977
2640.819336	8349.234375
2639.902344	8345.154297
2638.984375	8313.826172
2638.067383	8080.894043
2637.149414	8482.745117
2636.231445	8323.398438
2635.313477	8275.753906
2634.395508	8402.380859
2633.476563	8322.070313
2632.558594	8350.661133
2631.639648	8362.913086
2630.720703	8326.183594
2629.801758	8360.199219
2628.882813	8225.558594
2627.963867	8466.272461
2627.044922	8296.307617
2626.125000	8341.180664
2625.205078	8462.151367
2624.285156	8474.368164
2623.365234	8448.536133
2622.445313	8436.296875
2621.525391	8440.360352
2620.604492	8452.571289
2619.683594	8318.131836
2618.763672	8417.245117
2617.842773	8478.319336
2616.920898	8330.368164
2616.000000	8396.864258
2615.079102	8311.383789
2614.157227	8415.842773
2613.235352	8251.720703
2612.314453	8236.821289
2611.391602	8417.168945
2610.469727	8274.816406
2609.547852	8387.328125
2608.625000	8204.370117
2607.703125	8303.306641
2606.780273	8394.082031
2605.857422	8530.881836
2604.934570	8429.277344
2604.011719	8338.539063
2603.087891	8272.198242
2602.165039	8538.879883
2601.241211	8366.959961
2600.317383	8357.482422
2599.393555	8320.947266
2598.469727	8406.174805
2597.544922	8475.142578
2596.621094	8430.491211
2595.696289	8380.446289
2594.771484	8316.897461
2593.846680	8280.403320
2592.921875	8395.284180
2591.997070	8245.284180
2591.072266	8273.667969
2590.146484	8447.928711
2589.220703	8549.201172
2588.294922	8358.761719
2587.369141	8349.303711
2586.443359	8320.948242
2585.517578	8343.891602
2584.590820	8607.036133
2583.665039	8548.968750
2582.738281	8515.203125
2581.811523	8462.564453
2580.884766	8450.401367
2579.957031	8351.944336
2579.030273	8337.105469
2578.102539	8546.032227
2577.175781	8380.219727
2576.248047	8381.553711
2575.320313	8490.669922
2574.391602	8384.218750
2573.463867	8582.192383
2572.536133	8570.024414
2571.607422	8495.924805
2570.678711	8427.234375
2569.750000	8372.026367
2568.821289	8615.594727
2567.892578	8498.478516
2566.962891	8376.017578
2566.034180	8460.743164
2565.104492	8448.609375
2564.174805	8425.721680
2563.245117	8429.730469
2562.315430	8557.407227
2561.384766	8429.678711
2560.455078	8522.375000
2559.524414	8636.538086
2558.593750	8546.472656
2557.663086	8461.808594
2556.732422	8586.667969
2555.801758	8287.191406
2554.870117	8457.682617
2553.939453	8456.308594
2553.007813	8489.827148
2552.076172	8432.089844
2551.144531	8529.999023
2550.212891	8391.790039
2549.280273	8554.049805
2548.348633	8625.071289
2547.416016	8409.149414
2546.483398	8549.877930
2545.550781	8540.446289
2544.618164	8522.976563
2543.685547	8532.310547
2542.751953	8546.999023
2541.819336	8609.902344
2540.885742	8640.643555
2539.952148	8716.900391
2539.018555	8412.917969
2538.084961	8553.438477
2537.150391	8426.242188
2536.216797	8553.333008
2535.282227	8562.645508
2534.347656	8628.137695
2533.413086	8525.085938
2532.478516	8636.029297
2531.543945	8682.758789
2530.608398	8411.307617
2529.673828	8516.868164
2528.738281	8515.483398
2527.802734	8532.804688
2526.867188	8437.900391
2525.930664	8519.343750
2524.995117	8544.667969
2524.058594	8372.359375
2523.123047	8451.102539
2522.186523	8524.480469
2521.250000	8544.448242
2520.312500	8580.422852
2519.375977	8434.930664
2518.439453	8550.951172
2517.501953	8525.551758
2516.564453	8404.143555
2515.626953	8466.777344
2514.689453	8558.718750
2513.751953	8533.333984
2512.813477	8523.949219
2511.875977	8405.303711
2510.937500	8654.402344
2509.999023	8471.835938
2509.060547	8638.267578
2508.122070	8564.955078
2507.182617	8552.910156
2506.244141	8500.933594
2505.304688	8331.848633
2504.365234	8474.212891
2503.425781	8499.445313
2502.486328	8572.559570
2501.546875	8451.455078
2500.606445	8402.204102
2499.666016	8517.846680
2498.726563	8588.250977
2497.786133	8727.751953
2496.845703	8534.953125
2495.904297	8576.084961
2494.963867	8537.489258
2494.022461	8296.993164
2493.081055	8476.270508
2492.140625	8538.631836
2491.199219	8574.417969
2490.256836	8565.057617
2489.315430	8491.989258
2488.373047	8633.930664
2487.431641	8470.648438
2486.489258	8697.451172
2485.546875	8611.144531
2484.604492	8601.785156
2483.661133	8632.208008
2482.718750	8439.890625
2481.775391	8494.190430
2480.833008	8468.951172
2479.889648	8517.926758
2478.945313	8429.095703
2478.001953	8745.650391
2477.058594	8479.330078
2476.114258	8689.831055
2475.169922	8704.304688
2474.226563	8454.005859
2473.282227	8622.052734
2472.336914	8567.711914
2471.392578	8460.461914
2470.447266	8461.729492
2469.502930	8470.933594
2468.557617	8361.105469
2467.612305	8473.463867
2466.666992	8453.574219
2465.721680	8399.321289
2464.775391	8551.267578
2463.829102	8594.804688
2462.883789	8426.926758
2461.937500	8555.015625
2460.991211	8572.113281
2460.043945	8293.389648
2459.097656	8593.086914
2458.150391	8396.301758
2457.204102	8439.812500
2456.256836	8599.445313
2455.309570	8479.287109
2454.362305	8369.721680
2453.414063	8487.076172
2452.466797	8374.907227
2451.518555	8508.046875
2450.570313	8535.666016
2449.622070	8502.637695
2448.673828	8461.711914
2447.725586	8428.705078
2446.776367	8540.644531
2445.828125	8476.018555
2444.878906	8403.509766
2443.929688	8378.435547
2442.980469	8305.965820
2442.030273	8402.035156
2441.081055	8503.336914
2440.130859	8299.273438
2439.181641	8232.125977
2438.231445	8325.511719
2437.281250	8418.867188
2436.331055	8417.495117
2435.379883	8345.111328
2434.429688	8393.713867
2433.478516	8316.099609
2432.527344	8330.515625
2431.576172	8334.414063
2430.625000	8269.986328
2429.673828	8258.127930
2428.721680	8348.727539
2427.770508	8510.215820
2426.818359	8435.295898
2425.866211	8410.288086
2424.914063	8319.656250
2423.960938	8423.294922
2423.008789	8495.406250
2422.055664	8609.479492
2421.103516	8293.241211
2420.150391	8430.917969
2419.197266	8510.848633
2418.243164	8491.103516
2417.290039	8379.599609
2416.335938	8155.407227
2415.382813	8416.181641
2414.428711	8420.049805
2413.474609	8319.109375
2412.520508	8309.893555
2411.565430	8494.510742
2410.611328	8383.130859
2409.656250	8423.659180
2408.701172	8280.910156
2407.746094	8423.528320
2406.791016	8364.576172
2405.835938	8339.660156
2404.879883	8338.299805
2403.923828	8391.874023
2402.968750	8427.121094
2402.013672	8370.830078
2401.056641	8345.932617
2400.099609	8375.941406
2399.144531	8429.463867
2398.187500	8375.821289
2397.230469	8473.746094
2396.273438	8373.087891
2395.316406	8183.651855
2394.359375	8250.219727
2393.402344	8376.823242
2392.443359	8372.845703
2391.486328	8264.453125
2390.529297	8320.523438
2389.570313	8447.032227
2388.613281	8497.835938
2387.654297	8488.622070
2386.695313	8495.061523
2385.736328	8399.793945
2384.777344	8408.851563
2383.818359	8287.558594
2382.859375	8330.517578
2381.900391	8310.914063
2380.941406	8366.882813
2379.982422	8321.227539
2379.021484	8416.248047
2378.062500	8365.390625
2377.101563	8291.112305
2376.142578	8422.541016
2375.181641	8291.008789
2374.220703	8490.064453
2373.259766	8387.188477
2372.298828	8279.142578
2371.337891	8381.848633
2370.376953	8333.661133
2369.416016	8386.913086
2368.455078	8507.750977
2367.492188	8480.364258
2366.531250	8343.814453
2365.568359	8243.694336
2364.607422	8374.870117
2363.644531	8108.501465
2362.681641	8507.210938
2361.718750	8360.377930
2360.757813	8525.206055
2359.794922	8495.253906
2358.830078	8203.122070
2357.867188	8463.927734
2356.904297	8192.657227
2355.941406	8388.512695
2354.976563	8205.546875
2354.013672	8240.519531
2353.048828	8350.688477
2352.085938	8362.289063
2351.121094	8363.515625
2350.156250	8460.649414
2349.191406	8327.090820
2348.226563	8450.110352
2347.261719	8334.733398
2346.296875	8429.216797
2345.332031	8383.809570
2344.367188	8234.833984
2343.400391	8409.550781
2342.435547	8366.756836
2341.468750	8336.917969
2340.503906	8338.143555
2339.537109	8313.493164
2338.570313	8250.045898
2337.603516	8142.646973
2336.636719	8257.694336
2335.669922	8315.817383
2334.703125	8322.213867
2333.736328	8362.212891
2332.769531	8526.253906
2331.800781	8545.532227
2330.833984	9022.111328
2329.865234	8950.888672
2328.898438	8910.683594
2327.929688	8532.199219
2326.962891	8486.910156
2325.994141	8397.750977
2325.025391	8509.947266
2324.056641	8265.970703
2323.087891	8179.469727
2322.119141	8165.232910
2321.148438	8406.364258
2320.179688	8301.830078
2319.210938	8292.736328
2318.240234	8456.382813
2317.271484	8204.958984
2316.300781	8306.709961
2315.330078	8189.391113
2314.359375	8159.710449
2313.390625	8323.244141
2312.419922	8360.517578
2311.449219	8214.937500
2310.476563	8190.420898
2309.505859	8317.799805
2308.535156	8138.836914
2307.564453	8294.491211
2306.591797	8100.150879
2305.621094	8029.363281
2304.648438	8249.265625
2303.675781	8319.927734
2302.703125	8297.995117
2301.732422	8265.785156
2300.759766	8413.527344
2299.787109	8209.107422
2298.814453	8364.518555
2297.839844	8167.881836
2296.867188	8261.594727
2295.894531	8329.591797
2294.919922	8035.470215
2293.947266	8337.136719
2292.972656	8297.264648
2292.000000	8360.077148
2291.025391	8240.655273
2290.050781	8077.651367
2289.076172	8271.310547
2288.101563	8154.526367
2287.126953	8137.803711
2286.152344	8336.486328
2285.175781	8299.227539
2284.201172	8238.910156
2283.226563	8178.611816
2282.250000	8307.965820
2281.275391	8357.849609
2280.298828	8274.504883
2279.322266	8247.537109
2278.345703	8235.943359
2277.371094	8045.117676
2276.394531	8161.564453
2275.417969	8196.063477
2274.439453	8263.822266
2273.462891	8152.438965
2272.486328	8427.413086
2271.507813	8300.691406
2270.531250	8294.217773
2269.552734	8172.672852
2268.576172	8401.441406
2267.597656	8080.525391
2266.619141	8094.537598
2265.640625	8088.101074
2264.662109	8107.217285
2263.683594	8246.395508
2262.705078	8229.719727
2261.726563	8098.127441
2260.748047	8219.363281
2259.767578	8330.348633
2258.789063	8283.038086
2257.808594	8233.190430
2256.830078	8303.290039
2255.849609	8233.044922
2254.869141	8162.822754
2253.888672	8133.430664
2252.908203	8251.950195
2251.927734	8169.010254
2250.947266	8109.040527
2249.966797	8283.579102
2248.986328	8103.835449
2248.003906	8189.138184
2247.023438	8276.959961
2246.041016	8270.509766
2245.060547	8139.272949
2244.078125	8219.420898
2243.095703	8205.344727
2242.115234	8206.544922
2241.132813	8284.096680
2240.150391	8122.428223
2239.166016	8197.422852
2238.183594	8366.513672
2237.201172	8156.585938
2236.218750	8328.169922
2235.234375	8161.540527
2234.251953	8244.092773
2233.267578	8184.282227
2232.283203	8249.014648
2231.300781	8151.109375
2230.316406	8220.906250
2229.332031	8211.938477
2228.347656	8210.591797
2227.363281	8194.010742
2226.378906	8304.374023
2225.392578	8224.323242
2224.408203	8131.608887
2223.423828	8097.287598
2222.437500	8154.313965
2221.451172	8289.958984
2220.466797	8103.450684
2219.480469	8208.628906
2218.494141	8278.275391
2217.507813	8013.273926
2216.521484	8176.710449
2215.535156	8051.193359
2214.548828	8072.677246
2213.562500	8122.020996
2212.574219	8009.238770
2211.587891	8235.854492
2210.599609	8166.136230
2209.613281	8060.996582
2208.625000	8236.865234
2207.636719	8071.006836
2206.650391	8077.274414
2205.662109	8199.922852
2204.673828	8180.870117
2203.685547	8106.180176
2202.695313	8291.982422
2201.707031	8247.639648
2200.718750	8107.247559
2199.728516	8181.744629
2198.740234	8099.533203
2197.750000	8176.533691
2196.761719	8243.403320
2195.771484	8173.850586
2194.781250	8152.305664
2193.791016	8196.419922
2192.800781	8030.971191
2191.810547	8148.293457
2190.820313	8235.291016
2189.830078	8198.611328
2188.837891	7917.211426
2187.847656	8107.629395
2186.857422	8048.288574
2185.865234	8369.754883
2184.873047	8239.791992
2183.882813	8140.122559
2182.890625	8053.088379
2181.898438	8006.404785
2180.906250	8083.201172
2179.914063	8311.129883
2178.921875	8324.878906
2177.927734	8159.812012
2176.935547	8251.640625
2175.943359	8179.791992
2174.949219	8135.656250
2173.955078	8252.610352
2172.962891	8082.657227
2171.968750	8345.507813
2170.974609	8200.750977
2169.980469	8184.312988
2168.986328	8316.250977
2167.992188	8118.767578
2166.998047	8311.005859
2166.003906	8181.452637
2165.007813	8139.899414
2164.013672	8296.861328
2163.019531	8192.496094
2162.023438	8181.103027
2161.027344	8260.125977
2160.033203	8226.125977
2159.037109	8254.902344
2158.041016	8218.403320
2157.044922	8375.169922
2156.048828	8348.701172
2155.052734	8387.472656
2154.054688	8305.821289
2153.058594	8164.000977
2152.062500	8147.613281
2151.064453	8181.377441
2150.066406	8297.858398
2149.070313	8228.819336
2148.072266	8307.662109
2147.074219	8201.058594
2146.076172	8370.069336
2145.078125	8253.470703
2144.080078	8369.823242
2143.082031	8320.871094
2142.083984	8234.380859
2141.083984	8350.678711
2140.085938	8354.311523
2139.085938	8370.455078
2138.087891	8253.989258
2137.087891	8392.719727
2136.087891	8421.354492
2135.089844	8359.953125
2134.089844	8326.074219
2133.089844	8202.209961
2132.087891	8163.369629
2131.087891	8244.498047
2130.087891	8280.623047
2129.087891	8221.801758
2128.085938	8340.346680
2127.085938	8393.919922
2126.083984	8205.261719
2125.082031	8303.778320
2124.082031	8274.954102
2123.080078	8211.199219
2122.078125	8239.793945
2121.076172	8338.238281
2120.074219	8189.687012
2119.070313	8315.542969
2118.068359	8162.056641
2117.066406	8267.927734
2116.062500	8151.893555
2115.060547	8379.865234
2114.056641	8281.294922
2113.054688	8187.739746
2112.050781	8315.940430
2111.046875	8304.609375
2110.042969	8258.415039
2109.039063	8309.347656
2108.035156	8161.091309
2107.031250	8304.125000
2106.025391	8252.982422
2105.021484	8293.927734
2104.015625	8329.883789
2103.011719	8216.571289
2102.005859	8446.529297
2101.000000	8295.931641
2099.996094	8311.971680
2098.990234	8357.837891
2097.984375	8368.890625
2096.978516	8183.611816
2095.972656	8361.166992
2094.964844	8183.403320
2093.958984	8065.312012
2092.953125	8270.117188
2091.945313	8246.408203
2090.939453	8110.985352
2089.931641	8208.942383
2088.923828	8262.192383
2087.916016	8211.203125
2086.908203	8242.105469
2085.900391	8270.516602
2084.892578	8169.945801
2083.884766	8213.238281
2082.876953	8246.597656
2081.869141	8041.960449
2080.859375	8238.925781
2079.851563	8272.264648
2078.841797	8379.925781
2077.833984	8269.541016
2076.824219	8250.840820
2075.814453	8279.201172
2074.804688	8287.743164
2073.794922	8209.629883
2072.785156	8072.133301
2071.775391	8140.103027
2070.763672	8178.354980
2069.753906	8132.474121
2068.744141	8249.874023
2067.732422	8283.141602
2066.720703	8056.742676
2065.710938	8144.425781
2064.699219	8261.745117
2063.687500	8252.969727
2062.675781	8207.126953
2061.664063	8267.546875
2060.652344	8184.659668
2059.640625	8200.602539
2058.628906	8088.116699
2057.615234	8267.040039
2056.603516	8243.458008
2055.589844	8274.189453
2054.578125	8171.637695
2053.564453	8412.118164
2052.550781	8260.232422
2051.537109	8179.933594
2050.523438	8346.300781
2049.509766	8169.840332
2048.496094	8062.473633
2047.482422	8263.290039
2046.466797	8128.830566
2045.453125	8221.136719
2044.439453	8185.286621
2043.423828	8215.963867
2042.408203	8194.905273
2041.394531	8223.107422
2040.378906	8246.375000
2039.363281	8316.412109
2038.347656	8219.041992
2037.332031	8286.598633
2036.316406	8312.300781
2035.298828	8210.057617
2034.283203	8243.143555
2033.265625	8185.215820
2032.250000	8370.757813
2031.232422	8268.571289
2030.216797	8104.961426
2029.199219	8280.592773
2028.181641	8171.098633
2027.164063	8120.609863
2026.146484	8168.404297
2025.128906	8314.432617
2024.111328	8244.297852
2023.091797	8093.156250
2022.074219	8244.034180
2021.056641	8230.401367
2020.037109	8194.684570
2019.017578	8193.333984
2018.000000	8236.143555
2016.980469	8171.007324
2015.960938	8392.847656
2014.941406	8332.610352
2013.921875	8208.645508
2012.902344	8283.285156
2011.882813	8235.349609
2010.861328	8202.133789
2009.841797	8105.223145
2008.820313	8165.130371
2007.800781	8082.954102
2006.779297	8115.906250
2005.757813	8090.081543
2004.738281	8120.572754
2003.716797	8040.904785
2002.695313	8059.156738
2001.671875	8145.917480
2000.650391	8115.214355
1999.628906	8001.352539
1998.607422	8061.175781
1997.583984	8147.877930
1996.562500	7806.687012
1995.539063	8047.407227
1994.515625	8156.065430
1993.494141	8142.500488
1992.470703	7987.227051
1991.447266	8017.666992
1990.423828	8128.699219
1989.400391	7834.303711
1988.375000	8042.997559
1987.351563	8056.317871
1986.328125	8106.247070
1985.302734	8165.921387
1984.279297	8001.086426
1983.253906	7975.368652
1982.228516	7986.248535
1981.203125	8087.363281
1980.177734	7805.601563
1979.152344	7926.217285
1978.126953	7920.033203
1977.101563	7887.040527
1976.076172	7849.185059
1975.050781	7911.237305
1974.023438	7907.494629
1972.998047	7957.337891
1971.970703	7770.943359
1970.943359	8013.146484
1969.917969	7812.197266
1968.890625	8008.065918
1967.863281	7675.765137
1966.835938	7932.422852
1965.808594	7734.051270
1964.779297	7951.694824
1963.751953	7926.060547
1962.724609	7737.514160
1961.695313	7779.998047
1960.667969	7781.144043
1959.638672	7787.149414
1958.609375	7909.795410
1957.580078	7898.770020
1956.550781	7807.583008
1955.521484	7648.417969
1954.492188	7703.008301
1953.462891	7835.277832
1952.433594	7746.587891
1951.404297	7847.251465
1950.373047	7833.820801
1949.343750	7686.939941
1948.312500	7845.787598
1947.281250	7844.491211
1946.250000	7797.115234
1945.220703	7815.225098
1944.189453	7859.997559
1943.158203	7708.408691
1942.125000	7755.606934
1941.093750	7759.171387
1940.062500	7631.901367
1939.031250	7720.269531
1937.998047	7694.772949
1936.964844	7887.230957
1935.933594	7774.550781
1934.900391	7836.206543
1933.867188	7788.922852
1932.833984	7620.653320
1931.800781	7827.480957
1930.767578	7814.090332
1929.734375	7820.054688
1928.701172	7922.753906
1927.666016	7771.525879
1926.632813	7663.865234
1925.597656	7797.962402
1924.564453	7762.837402
1923.529297	7824.380371
1922.494141	7852.078613
1921.458984	7838.701660
1920.423828	7827.744141
1919.388672	7722.611816
1918.353516	7767.208496
1917.318359	7905.937012
1916.283203	7771.879395
1915.246094	7801.965820
1914.210938	7882.711426
1913.173828	7818.684082
1912.138672	8020.000977
1911.101563	7852.271484
1910.064453	8080.039063
1909.027344	7936.462891
1907.990234	7903.813965
1906.953125	8023.007813
1905.916016	7973.487305
1904.876953	7887.844727
1903.839844	7860.041992
1902.802734	7885.233887
1901.763672	7780.383301
1900.724609	7868.178223
1899.687500	7691.146973
1898.648438	7928.151855
1897.609375	7922.026367
1896.570313	7865.375977
1895.531250	7856.856934
1894.492188	7831.503906
1893.451172	7991.332520
1892.412109	8016.458984
1891.373047	8084.849121
1890.332031	7975.346191
1889.291016	7885.104980
1888.251953	7903.021973
1887.210938	7817.627441
1886.169922	7801.920410
1885.128906	7742.988281
1884.087891	8013.049805
1883.046875	7850.864258
1882.005859	7964.787109
1880.962891	7795.462402
1879.921875	7837.365723
1878.880859	7888.852051
1877.837891	7786.791992
1876.794922	7768.712891
1875.753906	7834.572754
1874.710938	7924.387207
1873.667969	7834.374512
1872.625000	7763.566406
1871.582031	7697.574707
1870.537109	7713.072266
1869.494141	7730.960449
1868.451172	7672.191895
1867.406250	7764.322754
1866.363281	7695.989746
1865.318359	7941.309082
1864.273438	7949.568359
1863.230469	7790.291016
1862.185547	7576.028809
1861.140625	7658.512207
1860.095703	7662.027344
1859.048828	7835.354980
1858.003906	7692.966797
1856.958984	7818.412598
1855.912109	7797.992188
1854.867188	7677.191895
1853.820313	7647.242188
1852.773438	7808.451172
1851.728516	7692.486328
1850.681641	7600.445313
1849.634766	7575.303711
1848.587891	7650.457031
1847.541016	7541.756348
1846.492188	7783.979004
1845.445313	7558.348633
1844.398438	7642.998535
1843.349609	7670.360840
1842.302734	7669.088867
1841.253906	7548.566406
1840.205078	7714.238281
1839.156250	7629.511230
1838.107422	7604.407715
1837.058594	7669.882813
1836.009766	7649.546387
1834.960938	7681.634766
1833.912109	7575.541992
1832.861328	7588.576172
1831.812500	7644.472656
1830.761719	7545.581055
1829.710938	7427.676758
1828.662109	7690.654785
1827.611328	7644.161621
1826.560547	7557.231934
1825.509766	7615.455566
1824.458984	7635.600098
1823.408203	7498.770508
1822.355469	7580.752930
1821.304688	7572.362305
1820.251953	7454.627441
1819.201172	7536.575684
1818.148438	7549.583008
1817.095703	7557.833984
1816.044922	7537.575684
1814.992188	7621.829590
1813.939453	7411.586914
1812.886719	7600.305176
1811.832031	7618.035645
1810.779297	7574.046875
1809.726563	7522.953125
1808.671875	7623.733887
1807.619141	7456.401367
1806.564453	7493.115723
1805.509766	7404.122559
1804.457031	7628.157715
1803.402344	7532.059082
1802.347656	7568.734863
1801.292969	7569.848633
1800.238281	7388.500000
1799.181641	7527.058105
1798.126953	7549.496582
1797.070313	7723.508301
1796.015625	7478.315918
1794.958984	7543.368652
1793.904297	7392.978027
1792.847656	7694.710449
1791.791016	7568.008789
1790.734375	7580.948730
1789.677734	7596.249512
1788.621094	7592.622559
1787.562500	7562.982422
1786.505859	7561.726074
1785.449219	7484.817871
1784.390625	7578.124023
1783.333984	7517.781738
1782.275391	7516.532715
1781.216797	7574.347656
1780.158203	7665.213867
1779.099609	7526.957520
1778.041016	7589.464355
1776.982422	7628.339844
1775.923828	7636.514648
1774.865234	7599.842773
1773.804688	7456.991211
1772.746094	7590.238770
1771.685547	7579.541504
1770.625000	7601.868164
1769.566406	7572.306152
1768.505859	7592.268066
1767.445313	7572.146484
1766.384766	7582.673340
1765.322266	7489.502930
1764.261719	7408.144043
1763.201172	7616.586914
1762.140625	7450.436035
1761.078125	7538.691406
1760.015625	7601.015625
1758.955078	7531.476563
1757.892578	7683.229980
1756.830078	7479.547852
1755.767578	7570.077148
1754.705078	7535.879883
1753.642578	7487.579590
1752.580078	7448.702637
1751.515625	7753.169922
1750.453125	7544.975586
1749.390625	7550.773438
1748.326172	7476.654785
1747.261719	7527.111816
1746.199219	7427.175781
1745.134766	7414.194336
1744.070313	7558.589355
1743.005859	7524.454102
1741.941406	7509.113770
1740.875000	7428.043945
1739.810547	7577.034180
1738.746094	7533.529785
1737.679688	7642.562012
1736.615234	7505.215820
1735.548828	7365.569824
1734.482422	7514.445313
1733.416016	7562.438965
1732.349609	7516.634277
1731.283203	7463.812012
1730.216797	7565.695801
1729.150391	7496.479004
1728.083984	7523.347168
1727.015625	7538.493164
1725.949219	7591.109375
1724.880859	7470.413086
1723.812500	7420.000000
1722.746094	7460.903809
1721.677734	7494.771484
1720.609375	7399.913574
1719.541016	7536.734375
1718.472656	7453.597656
1717.404297	7534.225098
1716.333984	7659.261230
1715.265625	7524.701660
1714.195313	7453.311035
1713.126953	7367.918945
1712.056641	7537.304199
1710.986328	7538.385742
1709.916016	7476.384766
1708.845703	7503.171875
1707.775391	7492.580078
1706.705078	7388.583008
1705.634766	7413.035645
1704.564453	7484.168457
1703.492188	7415.234863
1702.421875	7561.019531
1701.349609	7461.763184
1700.279297	7551.502441
1699.207031	7459.277832
1698.134766	7509.341309
1697.062500	7398.500488
1695.990234	7427.574707
1694.917969	7475.287109
1693.845703	7439.083496
1692.771484	7507.748535
1691.699219	7529.795410
1690.625000	7451.671387
1689.552734	7422.481934
1688.478516	7677.391113
1687.404297	7489.854980
1686.330078	7539.818848
1685.255859	7403.571289
1684.181641	7567.557617
1683.107422	7687.282715
1682.033203	7665.065430
1680.958984	7531.212402
1679.882813	7664.835938
1678.808594	7563.578613
1677.732422	7401.912109
1676.656250	7379.759277
1675.582031	7606.275879
1674.505859	7505.094727
1673.429688	7482.935059
1672.353516	7256.377441
1671.277344	7485.084961
1670.199219	7653.343750
1669.123047	7457.051270
1668.046875	7509.196289
1666.968750	7435.998047
1665.890625	7560.062988
1664.814453	7563.442383
1663.736328	7536.664551
1662.658203	7512.214844
1661.580078	7561.978027
1660.501953	7470.294434
1659.423828	7538.592773
1658.345703	7439.989746
1657.265625	7517.539063
1656.187500	7405.069824
1655.107422	7408.467773
1654.029297	7555.469238
1652.949219	7378.206543
1651.869141	7372.344727
1650.789063	7216.006836
1649.708984	7353.682617
1648.628906	7262.198730
1647.548828	7344.287109
1646.468750	7241.267578
1645.386719	7404.290527
1644.306641	7183.345703
1643.224609	7246.892578
1642.144531	7273.426758
1641.062500	7440.957520
1639.980469	7268.687988
1638.898438	7309.069336
1637.816406	7261.641113
1636.734375	7204.988281
1635.652344	7178.379395
1634.570313	7338.829590
1633.486328	7365.311035
1632.404297	7057.052246
1631.320313	7150.506348
1630.236328	7207.005859
1629.154297	7161.963379
1628.070313	7183.836914
1626.986328	7247.221191
1625.902344	7188.356934
1624.818359	7230.966797
1623.734375	7402.664551
1622.648438	7168.621094
1621.564453	7132.854492
1620.478516	7083.273926
1619.394531	7089.002930
1618.308594	7023.321289
1617.222656	7125.787598
1616.136719	6963.407715
1615.050781	7063.546875
1613.964844	7122.217773
1612.878906	7079.600098
1611.792969	7152.054688
1610.707031	7086.437988
1609.619141	7027.744141
1608.533203	7017.369629
1607.445313	7131.179199
1606.357422	6874.770508
1605.271484	7009.255371
1604.183594	7042.561523
1603.095703	7117.222168
1602.007813	7093.055664
1600.919922	7022.950195
1599.830078	7003.400879
1598.742188	7098.686523
1597.652344	7086.019043
1596.564453	7160.596191
1595.474609	7111.195801
1594.386719	7119.187012
1593.296875	7315.336914
1592.207031	6947.031738
1591.117188	7042.213867
1590.027344	7112.134766
1588.937500	7065.083496
1587.845703	7219.808105
1586.755859	7225.478027
1585.664063	7134.883301
1584.574219	7163.480957
1583.482422	7205.815918
1582.390625	7126.723633
1581.300781	7171.340332
1580.208984	7170.141113
1579.117188	7111.700684
1578.025391	7222.686035
1576.931641	6994.877441
1575.839844	7098.979004
1574.748047	7315.164551
1573.654297	7153.798340
1572.560547	7111.429199
1571.468750	7149.118652
1570.375000	7211.947266
1569.281250	7162.730469
1568.187500	7154.674805
1567.093750	7231.183105
1566.000000	7316.806152
1564.906250	7349.852539
1563.810547	7175.015137
1562.716797	7411.343262
1561.621094	7225.135742
1560.527344	7333.518555
1559.431641	7272.939453
1558.335938	7365.300781
1557.240234	7375.478027
1556.144531	7517.986816
1555.048828	7598.853516
1553.953125	7287.383301
1552.857422	7386.505371
1551.759766	7517.515137
1550.664063	7379.473145
1549.566406	7264.270996
1548.470703	7345.097656
1547.373047	7289.181641
1546.275391	7379.089355
1545.177734	7368.743164
1544.080078	7340.180176
1542.982422	7329.842773
1541.884766	7267.145508
1540.785156	7286.415039
1539.687500	7223.745605
1538.587891	7261.219727
1537.490234	7462.492188
1536.390625	7040.410156
1535.291016	7475.913574
1534.193359	7254.083008
1533.093750	7161.922852
1531.992188	7276.659180
1530.892578	7289.077148
1529.792969	7156.052246
1528.693359	7157.125488
1527.591797	7219.535156
1526.492188	7159.270508
1525.390625	7173.968262
1524.289063	7052.425293
1523.189453	7126.160645
1522.087891	7131.775879
1520.986328	7096.539551
1519.882813	7111.233887
1518.781250	7116.848145
1517.679688	7115.655762
1516.578125	7182.500977
1515.474609	7113.270996
1514.371094	7125.681641
1513.269531	6965.812988
1512.166016	7082.498535
1511.062500	7113.035645
1509.958984	6969.107910
1508.855469	7017.775391
1507.751953	7147.962402
1506.648438	6999.571289
1505.542969	6907.833496
1504.439453	7101.356934
1503.333984	7050.372559
1502.230469	7098.976074
1501.125000	7036.695313
1500.019531	7017.417969
1498.914063	6961.957031
1497.808594	7134.922363
1496.703125	6973.188965
1495.597656	6958.455078
1494.492188	7018.317383
1493.384766	7064.599121
1492.279297	7056.635742
1491.171875	7014.786621
1490.066406	6991.021973
1488.958984	6944.680664
1487.851563	6929.967285
1486.744141	7082.326660
1485.636719	7049.536621
1484.529297	6903.911133
1483.421875	6891.470215
1482.312500	6937.693359
1481.205078	6974.877930
1480.095703	7160.906250
1478.988281	6877.826660
1477.878906	6996.168457
1476.769531	6886.790039
1475.660156	6982.551270
1474.550781	6999.407715
1473.441406	7097.371094
1472.332031	7134.476563
1471.222656	7004.894043
1470.111328	7039.750000
1469.001953	7000.291016
1467.890625	6954.091309
1466.781250	6896.652344
1465.669922	6922.500488
1464.558594	7110.347656
1463.447266	7061.909668
1462.335938	7049.477051
1461.224609	7097.770996
1460.113281	7069.596191
1459.000000	7027.941406
1457.888672	6903.129883
1456.775391	6991.869141
1455.664063	7024.401367
1454.550781	7083.883301
1453.437500	7120.881348
1452.324219	7085.996094
1451.210938	7129.717285
1450.097656	7005.033691
1448.984375	7033.040039
1447.871094	7087.970215
1446.755859	7131.660645
1445.642578	7047.446289
1444.527344	7106.832031
1443.412109	7085.451660
1442.298828	6990.073730
1441.183594	7051.680176
1440.068359	7032.561035
1438.953125	7159.141113
1437.837891	7027.957031
1436.720703	7053.664551
1435.605469	6994.230957
1434.490234	7134.171387
1433.373047	7083.702148
1432.255859	6988.466309
1431.140625	6973.859375
1430.023438	7071.177734
1428.906250	7202.034180
1427.789063	7133.693359
1426.671875	7081.036621
1425.554688	7164.849121
1424.435547	7029.452148
1423.318359	7068.521484
1422.199219	7109.813477
1421.082031	7144.384766
1419.962891	7009.081055
1418.843750	7054.830566
1417.724609	7035.770020
1416.605469	7085.967285
1415.486328	6952.997070
1414.367188	7092.516602
1413.248047	6995.314453
1412.126953	7072.272461
1411.007813	6861.271973
1409.886719	7101.136719
1408.767578	7037.466797
1407.646484	7047.437500
1406.525391	6870.040039
1405.404297	7013.844727
1404.283203	6961.379883
1403.162109	7022.632324
1402.041016	7028.137695
1400.917969	6986.839844
1399.796875	7079.251953
1398.673828	6848.586426
1397.552734	6863.026855
1396.429688	7004.410156
1395.306641	6900.799805
1394.183594	6941.940430
1393.060547	6898.477539
1391.937500	6890.639648
1390.814453	6880.578613
1389.691406	7046.289063
1388.566406	6880.487305
1387.443359	6959.398926
1386.318359	6949.332520
1385.195313	6977.067383
1384.070313	6840.287598
1382.945313	6830.245117
1381.820313	6804.650391
1380.695313	7127.904297
1379.570313	7046.729004
1378.443359	6918.936035
1377.318359	7011.044434
1376.193359	7154.190918
1375.066406	6950.962402
1373.939453	6878.762207
1372.814453	6884.261719
1371.687500	6974.078613
1370.560547	7059.427246
1369.433594	6909.620605
1368.306641	6866.318848
1367.177734	6956.076660
1366.050781	6870.656738
1364.923828	7000.284180
1363.794922	6801.853027
1362.666016	6982.414063
1361.539063	6908.124512
1360.410156	7044.302246
1359.281250	7058.619141
1358.152344	6986.567871
1357.023438	7107.164551
1355.892578	7123.676758
1354.763672	6978.610352
1353.634766	7032.757813
1352.503906	6843.503906
1351.375000	6837.926270
1350.244141	6872.163086
1349.113281	6930.714355
1347.982422	6967.134766
1346.851563	6842.160156
1345.720703	7046.568848
1344.589844	7040.960938
1343.458984	7121.529297
1342.326172	6983.356934
1341.195313	7039.609863
1340.062500	6930.207520
1338.931641	7216.092773
1337.798828	6956.571289
1336.666016	6981.886719
1335.533203	6960.846680
1334.400391	6997.185547
1333.267578	7090.874023
1332.132813	6952.914063
1331.000000	7002.468262
1329.867188	7133.595215
1328.732422	6929.554199
1327.597656	6968.064453
1326.464844	7132.190430
1325.330078	7060.470703
1324.195313	7035.043945
1323.060547	6969.973145
1321.925781	7019.455566
1320.789063	7123.974609
1319.654297	7133.781738
1318.517578	7101.758301
1317.382813	6986.105957
1316.246094	6971.723145
1315.111328	7054.158203
1313.974609	6927.572266
1312.837891	7023.183594
1311.701172	6896.645020
1310.564453	6895.481445
1309.425781	6894.317383
1308.289063	6893.153809
1307.152344	7070.003906
1306.013672	6886.432617
1304.875000	6896.254883
1303.738281	6897.287109
1302.599609	6896.123047
1301.460938	6949.854980
1300.322266	7040.891602
1299.183594	6870.680176
1298.044922	6722.472656
1296.904297	6780.585449
1295.765625	6880.364258
1294.625000	6841.911133
1293.486328	6805.663574
1292.345703	6828.636230
1291.205078	6654.274414
1290.064453	6830.714355
1288.923828	6860.245605
1287.783203	6795.536133
1286.642578	6840.399902
1285.501953	6795.431641
1284.359375	6700.101074
1283.218750	6725.248535
1282.076172	6894.897461
1280.935547	6817.111328
1279.792969	6769.994629
1278.650391	6744.777832
1277.507813	6787.399902
1276.365234	6770.938965
1275.222656	6627.618164
1274.078125	6797.081543
1272.935547	6833.104980
1271.792969	6794.784668
1270.648438	6769.591797
1269.503906	6683.213867
1268.359375	6664.603516
1267.216797	6746.497559
1266.072266	6738.804199
1264.927734	6648.120605
1263.781250	6688.486328
1262.636719	6600.024902
1261.492188	6690.590820
1260.345703	6874.975098
1259.201172	6745.064941
1258.054688	6645.744141
1256.908203	6618.443359
1255.761719	6689.298828
1254.615234	6775.395508
1253.468750	6726.282715
1252.322266	6864.662109
1251.175781	6617.208496
1250.029297	6688.003418
1248.880859	6771.847168
1247.732422	6844.770020
1246.585938	6784.803711
1245.437500	6770.589844
1244.289063	6775.976563
1243.140625	6818.370117
1241.992188	6801.980469
1240.843750	6766.009766
1239.695313	6730.050781
1238.544922	6765.895996
1237.396484	6723.423340
1236.246094	6717.936035
1235.097656	6888.579102
1233.947266	6806.973145
1232.796875	6801.474121
1231.646484	6876.389160
1230.496094	6820.901855
1229.345703	6824.092285
1228.195313	6768.632324
1227.042969	6813.095215
1225.892578	6831.485352
1224.740234	6765.195801
1223.589844	6950.734863
1222.437500	6832.357910
1221.285156	6783.460938
1220.132813	7016.634277
1218.980469	6811.534180
1217.828125	6855.928223
1216.675781	6783.205566
1215.521484	6701.834473
1214.369141	6934.822754
1213.214844	7035.518555
1212.062500	6852.292480
1210.908203	6955.134277
1209.753906	7068.772461
1208.599609	6872.637695
1207.445313	6973.257324
1206.291016	6920.110352
1205.134766	6899.454102
1203.980469	6809.541016
1202.826172	6920.922852
1201.669922	6863.492188
1200.513672	6925.068359
1199.359375	6789.786621
1198.203125	6836.214844
1197.046875	6711.805176
1195.890625	6877.137207
1194.734375	6837.063965
1193.576172	6768.907715
1192.419922	6897.411133
1191.263672	6824.946777
1190.105469	6795.708496
1188.947266	6872.307617
1187.791016	7017.980469
1186.632813	6764.186523
1185.474609	6676.694336
1184.316406	7010.096191
1183.156250	6659.325684
1181.998047	6681.929688
1180.839844	6741.198242
1179.679688	6731.428223
1178.521484	6730.286621
1177.361328	6826.169434
1176.201172	6764.651855
1175.042969	6858.340820
1173.882813	6824.853027
1172.720703	6853.860352
1171.560547	6762.219238
1170.400391	6931.229980
1169.240234	6854.680664
1168.078125	6801.842285
1166.917969	6856.661621
1165.755859	6849.041016
1164.593750	6873.704102
1163.431641	6734.829102
1162.269531	6923.004395
1161.107422	6904.622070
1159.945313	6879.793945
1158.783203	6865.725586
1157.619141	6823.712891
1156.457031	6962.273438
1155.292969	6976.136230
1154.130859	6931.976563
1152.966797	6905.019531
1151.802734	7060.655762
1150.638672	7003.617676
1149.474609	7028.196777
1148.310547	7054.914551
1147.144531	6965.706543
1145.980469	7022.472656
1144.814453	7139.303223
1143.650391	7142.382324
1142.484375	7068.235352
1141.318359	7152.826172
1140.154297	7145.178711
1138.988281	7026.042969
1137.820313	7209.207031
1136.654297	7130.823242
1135.488281	7301.048828
1134.320313	7160.540527
1133.154297	7354.267578
1131.986328	7209.513672
1130.820313	7278.958984
1129.652344	7380.497070
1128.484375	7351.413574
1127.316406	7472.168457
1126.148438	7511.560059
1124.980469	7553.077637
1123.810547	7573.187988
1122.642578	7447.841797
1121.472656	7553.506348
1120.304688	7704.037109
1119.134766	7617.213867
1117.964844	7727.069824
1116.794922	7653.094238
1115.625000	7628.289063
1114.455078	7695.357910
1113.285156	7632.104980
1112.113281	7803.798340
1110.943359	7930.591797
1109.771484	7914.299316
1108.601563	7887.338867
1107.429688	7836.910645
1106.257813	7888.925781
1105.085938	8004.927734
1103.914063	7899.042480
1102.742188	7987.276855
1101.570313	8049.891602
1100.396484	8127.409180
1099.224609	8006.652344
1098.050781	8071.362305
1096.878906	8251.123047
1095.705078	8243.328125
1094.531250	8195.060547
1093.357422	8312.940430
1092.183594	8215.698242
1091.009766	8310.113281
1089.835938	8293.798828
1088.660156	8426.479492
1087.486328	8269.696289
1086.310547	8483.188477
1085.134766	8503.019531
1083.960938	8407.985352
1082.785156	8521.392578
1081.609375	8400.872070
1080.433594	8473.849609
1079.257813	8519.169922
1078.080078	8668.608398
1076.904297	8743.626953
1075.726563	8693.276367
1074.550781	8555.855469
1073.373047	8611.740234
1072.195313	8771.650391
1071.017578	8848.708984
1069.839844	8919.373047
1068.662109	8790.517578
1067.484375	8863.289063
1066.306641	8946.642578
1065.126953	8962.089844
1063.949219	9019.947266
1062.769531	9082.026367
1061.589844	9203.447266
1060.410156	9121.330078
1059.230469	9238.462891
1058.050781	9230.533203
1056.871094	9186.587891
1055.691406	9242.217773
1054.511719	9391.018555
1053.330078	9340.714844
1052.150391	9550.847656
1050.968750	9428.559570
1049.787109	9522.196289
1048.605469	9514.226563
1047.423828	9633.206055
1046.242188	9707.720703
1045.060547	9752.598633
1043.878906	9810.148438
1042.695313	9770.418945
1041.513672	9709.562500
1040.330078	10005.930664
1039.148438	9765.425781
1037.964844	9960.262695
1036.781250	9956.453125
1035.597656	9920.961914
1034.414063	10164.243164
1033.230469	10128.727539
1032.044922	9994.000977
1030.861328	10154.826172
1029.675781	10216.407227
1028.492188	10307.506836
1027.306641	10151.744141
1026.121094	10415.787109
1024.935547	10308.563477
1023.750000	10403.801758
1022.564453	10391.486328
1021.378906	10351.773438
1020.191406	10373.191406
1019.005859	10464.136719
1017.818359	10555.051758
1016.632813	10506.910156
1015.445313	10498.800781
1014.257813	10545.441406
1013.070313	10547.853516
1011.882813	10522.899414
1010.695313	10590.558594
1009.507813	10679.236328
1008.318359	10589.049805
1007.130859	10742.907227
1005.941406	10604.366211
1004.751953	10621.482422
1003.564453	10655.413086
1002.375000	10617.859375
1001.185547	10822.021484
999.996094	10658.366211
998.804688	10631.334961
997.615234	10736.656250
996.425781	10839.840820
995.234375	10640.592773
994.042969	11004.110352
992.853516	10708.335938
991.662109	10815.651367
990.470703	10746.652344
989.279297	10826.646484
988.087891	10726.201172
986.894531	10648.860352
985.703125	10823.200195
984.511719	10716.514648
983.318359	10658.083008
982.125000	10647.878906
980.933594	10648.156250
979.740234	10589.764648
978.546875	10615.190430
977.353516	10760.000977
976.158203	10655.544922
974.964844	10651.631836
973.771484	10488.610352
972.576172	10591.477539
971.382813	10683.845703
970.187500	10734.332031
968.992188	10669.735352
967.796875	10490.114258
966.601563	10597.074219
965.406250	10490.712891
964.210938	10710.532227
963.013672	10618.818359
961.818359	10483.246094
960.621094	10590.114258
959.425781	10508.914063
958.228516	10676.318359
957.031250	10745.503906
955.833984	10653.875977
954.636719	10695.899414
953.439453	10554.210938
952.242188	10583.713867
951.042969	10679.982422
949.845703	10636.428711
948.646484	10563.685547
947.447266	10490.965820
946.250000	10599.695313
945.050781	10631.242188
943.851563	10587.732422
942.650391	10631.775391
941.451172	10757.075195
940.251953	10686.479492
939.050781	10732.565430
937.851563	10570.352539
936.650391	10753.884766
935.449219	10739.552734
934.250000	10666.935547
933.048828	10648.459961
931.847656	10623.747070
930.644531	10617.768555
929.443359	10759.496094
928.242188	10676.536133
927.039063	10606.082031
925.837891	10454.559570
924.634766	10540.085938
923.431641	10575.696289
922.228516	10634.154297
921.025391	10624.023438
919.822266	10591.042969
918.619141	10834.333008
917.414063	10628.954102
916.210938	10512.931641
915.005859	10633.621094
913.802734	10600.665039
912.597656	10488.856445
911.392578	10472.536133
910.187500	10479.041992
908.982422	10485.544922
907.777344	10494.120117
906.572266	10525.500977
905.365234	10343.328125
904.160156	10480.439453
902.953125	10354.293945
901.746094	10441.624023
900.541016	10303.096680
899.333984	10261.974609
898.126953	10394.838867
896.919922	10246.035156
895.710938	10414.052734
894.503906	10240.456055
893.296875	10244.911133
892.087891	10179.006836
890.878906	10080.021484
889.671875	10080.364258
888.462891	10099.319336
887.253906	10072.774414
886.044922	10118.602539
884.833984	10077.591797
883.625000	10040.728516
882.416016	9962.547852
881.205078	9853.402344
879.996094	9733.963867
878.785156	9852.090820
877.574219	9968.111328
876.363281	9770.253906
875.152344	9797.480469
873.941406	9768.969727
872.730469	9631.093750
871.517578	9788.317383
870.306641	9832.023438
869.093750	9580.763672
867.880859	9725.541016
866.669922	9552.736328
865.457031	9625.313477
864.244141	9481.441406
863.031250	9574.614258
861.816406	9517.339844
860.603516	9517.767578
859.390625	9551.151367
858.175781	9458.898438
856.962891	9475.808594
855.748047	9480.359375
854.533203	9544.600586
853.318359	9444.178711
852.103516	9372.598633
850.888672	9510.886719
849.671875	9445.490234
848.457031	9447.982422
847.242188	9526.554688
846.025391	9321.387695
844.808594	9328.010742
843.591797	9266.809570
842.376953	9450.154297
841.158203	9349.916992
839.941406	9296.959961
838.724609	9340.546875
837.507813	9205.471680
836.289063	9216.209961
835.072266	9167.416016
833.853516	9264.355469
832.634766	9147.852539
831.416016	9294.000977
830.197266	9263.687500
828.978516	9268.250000
827.759766	9229.748047
826.541016	9185.107422
825.320313	9154.832031
824.101563	9188.102539
822.880859	9151.688477
821.660156	9324.267578
820.441406	9238.678711
819.220703	9224.802734
818.000000	9258.031250
816.777344	9354.717773
815.556641	9369.487305
814.335938	9363.784180
813.113281	9263.949219
811.892578	9331.922852
810.669922	9483.745117
809.447266	9244.858398
808.224609	9298.484375
807.001953	9235.547852
805.779297	9305.510742
804.556641	9491.952148
803.332031	9386.098633
802.109375	9413.090820
800.884766	9356.315430
799.662109	9430.280273
798.437500	9479.713867
797.212891	9488.292969
795.988281	9135.531250
794.763672	9315.619141
793.539063	9269.121094
792.312500	9398.114258
791.087891	9416.898438
789.861328	9264.341797
788.636719	9356.558594
787.410156	9312.130859
786.183594	9526.626953
784.957031	9363.962891
783.730469	9244.151367
782.503906	9262.937500
781.277344	9408.026367
780.048828	9318.821289
778.822266	9188.916016
777.593750	9368.556641
776.365234	9112.463867
775.136719	9373.475586
773.908203	9078.801758
772.679688	9203.397461
771.451172	9342.191406
770.222656	9228.708008
768.994141	9338.976563
767.763672	9093.361328
766.535156	9362.192383
765.304688	9228.456055
764.074219	9249.223633
762.843750	9221.215820
761.613281	9302.925781
760.382813	9155.071289
759.152344	9167.711914
757.919922	9206.746094
756.689453	9235.615234
755.457031	9262.443359
754.226563	9001.066406
752.994141	9348.539063
751.761719	9304.324219
750.529297	9187.097656
749.296875	9165.233398
748.064453	9068.348633
746.830078	9231.010742
745.597656	9288.207031
744.363281	9171.082031
743.130859	9143.159180
741.896484	9226.679688
740.662109	9413.481445
739.427734	9116.157227
738.193359	9207.737305
736.958984	9368.124023
735.722656	9279.464844
734.488281	9445.855469
733.251953	9334.952148
732.017578	9335.367188
730.781250	9442.996094
729.544922	9228.999023
728.308594	9326.498047
727.072266	9510.903320
725.835938	9292.959961
724.599609	9384.333008
723.361328	9415.048828
722.125000	9542.737305
720.886719	9306.756836
719.648438	9553.585938
718.412109	9432.791992
717.173828	9366.554688
715.935547	9391.183594
714.695313	9510.667969
713.457031	9287.043945
712.218750	9364.132813
710.978516	9483.558594
709.740234	9427.463867
708.500000	9460.121094
707.259766	9621.810547
706.019531	9525.401367
704.779297	9580.195313
703.539063	9385.078125
702.298828	9458.010742
701.056641	9355.651367
699.816406	9513.160156
698.574219	9493.394531
697.333984	9560.216797
696.091797	9391.473633
694.849609	9436.148438
693.607422	9301.696289
692.365234	9527.461914
691.121094	9439.311523
689.878906	9369.292969
688.636719	9442.086914
687.392578	9323.833984
686.148438	9410.682617
684.904297	9577.902344
683.662109	9632.521484
682.417969	9502.259766
681.171875	9514.682617
679.927734	9583.342773
678.683594	9396.922852
677.437500	9403.333008
676.193359	9451.899414
674.947266	9502.457031
673.701172	9581.093750
672.455078	9589.471680
671.208984	9631.953125
669.962891	9608.224609
668.716797	9502.277344
667.470703	9620.948242
666.222656	9529.067383
664.976563	9473.299805
663.728516	9505.734375
662.480469	9604.283203
661.232422	9500.447266
659.984375	9472.764648
658.736328	9581.281250
657.488281	9617.671875
656.240234	9684.081055
654.990234	9598.334961
653.742188	9714.757813
652.492188	9466.950195
651.242188	9541.340820
649.992188	9407.668945
648.742188	9584.043945
647.492188	9386.419922
646.242188	9532.747070
644.992188	9577.076172
643.740234	9461.498047
642.490234	9531.800781
641.238281	9368.320313
639.986328	9372.693359
638.734375	9454.957031
637.482422	9373.446289
636.230469	9349.863281
634.978516	9456.041992
633.726563	9440.435547
632.472656	9352.996094
631.220703	9355.368164
629.966797	9485.409180
628.712891	9445.873047
627.458984	9298.666992
626.205078	9418.680664
624.951172	9432.999023
623.697266	9429.374023
622.443359	9435.712891
621.187500	9340.437500
619.933594	9470.297852
618.677734	9566.253906
617.421875	9476.977539
616.167969	9415.606445
614.912109	9549.344727
613.654297	9565.604492
612.398438	9665.439453
611.142578	9602.086914
609.884766	9630.264648
608.628906	9652.465820
607.371094	9662.726563
606.113281	9754.502930
604.857422	9758.778320
603.599609	9765.039063
602.339844	9862.710938
601.082031	9829.212891
599.824219	9861.282227
598.564453	9871.492188
597.306641	10004.822266
596.046875	9885.943359
594.787109	9765.120117
593.529297	10132.609375
592.269531	9918.512695
591.007813	9958.461914
589.748047	9964.672852
588.488281	10012.533203
587.226563	10105.988281
585.966797	10110.186523
584.705078	10249.187500
583.443359	10384.175781
582.183594	10433.902344
580.921875	10346.893555
579.658203	10428.305664
578.396484	10511.668945
577.134766	10311.810547
575.871094	10405.064453
574.609375	10567.575195
573.345703	10314.367188
572.082031	10561.933594
570.818359	10395.874023
569.554688	10326.809570
568.291016	10372.490234
567.027344	10542.746094
565.763672	10544.873047
564.498047	10481.759766
563.234375	10543.193359
561.968750	10482.077148
560.703125	10385.416016
559.437500	10425.101563
558.171875	10599.089844
556.906250	10528.129883
555.640625	10451.271484
554.375000	10400.103516
553.107422	10652.927734
551.839844	10658.973633
550.574219	10436.128906
549.306641	10465.883789
548.039063	10716.547852
546.771484	10499.723633
545.503906	10714.800781
544.236328	10490.166016
542.966797	10701.227539
541.699219	10640.247070
540.429688	10813.769531
539.160156	10565.630859
537.892578	10611.071289
536.623047	10605.291016
535.353516	10733.409180
534.082031	10633.109375
532.812500	10737.556641
531.542969	10745.533203
530.271484	10680.701172
529.001953	10790.986328
527.730469	10675.025391
526.458984	10773.472656
525.187500	10919.077148
523.916016	10854.269531
522.644531	10927.080078
521.373047	11080.442383
520.099609	10777.876953
518.828125	11045.159180
517.554688	11049.133789
516.281250	11060.962891
515.007813	11004.060547
513.734375	11302.528320
512.460938	11165.123047
511.187500	11241.686523
509.914063	11200.489258
508.638672	11210.314453
507.365234	11316.252930
506.089844	11269.177734
504.814453	11533.899414
503.541016	11406.420898
502.265625	11335.832031
500.988281	11373.058594
499.712891	11400.474609
498.437500	11451.391602
497.160156	11484.660156
495.884766	11327.942383
494.607422	11621.654297
493.330078	11451.261719
492.052734	11455.143555
490.775391	11619.508789
489.498047	11558.784180
488.220703	11635.033203
486.943359	11517.598633
485.664063	11447.144531
484.386719	11617.231445
483.107422	11347.363281
481.828125	11362.982422
480.548828	11349.280273
479.269531	11466.504883
477.990234	11298.442383
476.710938	11464.468750
475.429688	11476.146484
474.150391	11312.074219
472.869141	11351.106445
471.589844	11378.412109
470.308594	11448.644531
469.027344	11292.496094
467.746094	11450.513672
466.464844	11364.642578
465.181641	11366.565430
463.900391	11331.437500
462.617188	11263.176758
461.335938	11255.368164
460.052734	11247.562500
458.769531	11245.604492
457.486328	11270.922852
456.203125	11333.243164
454.919922	11155.984375
453.634766	11490.922852
452.351563	11387.680664
451.066406	11220.236328
449.783203	11200.765625
448.498047	11346.706055
447.212891	11360.294922
445.927734	11360.261719
444.642578	11550.829102
443.357422	11375.750977
442.070313	11484.590820
440.785156	11494.253906
439.498047	11515.574219
438.212891	11744.810547
436.925781	11659.220703
435.638672	11820.363281
434.351563	11775.575195
433.064453	11695.848633
431.775391	11827.776367
430.488281	11856.774414
429.199219	11980.863281
427.912109	11951.608398
426.623047	12023.251953
425.333984	12054.133789
424.044922	12028.758789
422.755859	12053.810547
421.466797	11954.768555
420.177734	12138.778320
418.886719	12245.198242
417.597656	12076.412109
416.306641	12289.366211
415.015625	12116.755859
413.724609	12147.568359
412.433594	12323.603516
411.142578	12129.779297
409.851563	12381.250977
408.560547	12272.642578
407.267578	12251.151367
405.976563	12312.861328
404.683594	12090.188477
403.390625	12380.127930
402.097656	12290.949219
400.804688	12168.933594
399.511719	12207.405273
398.218750	12153.090820
396.923828	12222.469727
395.630859	12137.257813
394.335938	12193.092773
393.042969	12202.552734
391.748047	12057.525391
390.453125	12159.679688
389.158203	12184.583008
387.861328	12035.773438
386.566406	12284.534180
385.271484	12008.418945
383.974609	12210.800781
382.677734	12264.601563
381.382813	12044.555664
380.085938	12167.774414
378.789063	12040.349609
377.492188	11974.645508
376.193359	11881.984375
374.896484	12049.457031
373.599609	12064.690430
372.300781	12006.729492
371.001953	12045.071289
369.705078	11892.791992
368.406250	12252.614258
367.107422	12000.267578
365.806641	12121.328125
364.507813	12090.350586
363.208984	12315.230469
361.908203	12224.605469
360.609375	12401.307617
359.308594	12247.251953
358.007813	12410.429688
356.707031	12244.893555
355.406250	12319.619141
354.105469	12496.147461
352.802734	12455.543945
351.501953	12303.558594
350.199219	12347.495117
348.898438	12347.256836
347.595703	12398.847656
346.292969	12442.743164
344.990234	12335.025391
343.687500	12480.602539
342.382813	12468.829102
341.080078	12376.505859
339.777344	12429.952148
338.472656	12364.508789
337.167969	12519.535156
335.863281	12444.514648
334.558594	12381.017578
333.253906	12622.176758
331.949219	12589.319336
330.644531	12590.947266
329.337891	12571.510742
328.033203	12511.874023
326.726563	12494.371094
325.419922	12629.987305
324.113281	12493.826172
322.806641	12441.895508
321.500000	12567.884766
320.193359	12533.171875
318.886719	12469.786133
317.578125	12649.236328
316.271484	12398.516602
314.962891	12621.874023
313.654297	12696.101563
312.345703	12542.943359
311.037109	12586.593750
309.728516	12465.975586
308.419922	12607.011719
307.109375	12530.343750
305.800781	12558.692383
304.490234	12709.179688
303.179688	12676.422852
301.869141	12641.768555
300.558594	12729.210938
299.248047	12479.041016
297.937500	12242.306641
296.625000	12425.099609
295.314453	12604.015625
294.001953	12437.900391
292.691406	12300.426758
291.378906	12324.945313
290.066406	12368.502930
288.753906	12381.573242
287.441406	12474.615234
286.126953	12310.598633
284.814453	12192.324219
283.500000	12216.833008
282.187500	12285.098633
280.873047	12235.381836
279.558594	12197.095703
278.244141	12198.761719
276.929688	12194.721680
275.615234	12325.669922
274.298828	12108.708008
272.984375	12357.459961
271.667969	12248.880859
270.351563	12121.340820
269.037109	12195.197266
267.720703	12094.299805
266.404297	11982.042969
265.085938	12035.000000
263.769531	12116.412109
262.453125	12203.488281
261.134766	12307.611328
259.816406	12030.354492
258.500000	12255.872070
257.181641	12139.928711
255.863281	12132.110352
254.544922	12029.499023
253.224609	12017.911133
251.906250	12121.935547
250.585938	12167.181641
249.267578	12028.637695
247.947266	12098.508789
246.626953	12094.491211
245.306641	11990.116211
243.986328	12177.335938
242.666016	12118.412109
241.345703	12250.658203
240.023438	12080.097656
238.703125	12157.437500
237.380859	12183.677734
236.058594	12230.710938
234.736328	12205.873047
233.414063	12241.541992
232.091797	12371.709961
230.769531	12430.015625
229.445313	12305.009766
228.123047	12463.435547
226.798828	12338.466797
225.476563	12485.499023
224.152344	12351.127930
222.828125	12171.493164
221.503906	12284.499023
220.177734	12331.410156
218.853516	12280.183594
217.527344	12291.232422
216.203125	12379.614258
214.876953	12222.791992
213.550781	12071.681641
212.224609	12046.936523
210.898438	12120.217773
209.572266	12044.587891
208.246094	12185.677734
206.917969	12093.106445
205.591797	12102.282227
204.263672	12416.548828
202.935547	12250.548828
201.609375	12052.601563
200.281250	12091.893555
198.951172	12304.312500
197.623047	12352.953125
196.294922	12495.641602
194.964844	12337.324219
193.636719	12506.293945
192.306641	12447.684570
190.976563	12484.975586
189.646484	12539.169922
188.316406	12753.086914
186.986328	12863.583008
185.654297	12773.023438
184.324219	12793.317383
182.992188	12884.966797
181.662109	12736.242188
180.330078	12848.518555
178.998047	12910.077148
177.666016	13022.283203
176.333984	12995.599609
175.000000	12968.924805
173.667969	12972.269531
172.333984	13206.282227
171.001953	13188.958008
169.667969	13181.012695
168.333984	13128.084961
167.000000	12975.850586
165.666016	12994.177734
164.332031	13057.458984
162.996094	13008.333984
161.662109	13021.025391
160.326172	13061.797852
158.992188	13046.393555
157.656250	13038.481445
156.320313	13301.924805
154.984375	13426.815430
153.646484	13317.818359
152.310547	13418.345703
150.974609	13249.544922
149.636719	13260.299805
148.298828	13340.218750
146.960938	13431.324219
145.625000	13578.458984
144.285156	13520.014648
142.947266	13594.224609
141.609375	13849.583008
140.271484	13899.431641
138.931641	14102.366211
137.591797	14015.875000
136.253906	13867.821289
134.914063	13971.747070
133.574219	13911.445313
132.232422	14205.603516
130.892578	14669.386719
129.552734	14305.026367
128.210938	14412.509766
126.871094	14426.747070
125.529297	14284.416016
124.187500	14708.640625
122.845703	14633.382813
121.503906	14405.398438
120.162109	14546.272461
118.818359	14476.668945
117.476563	14690.091797
116.132813	14702.393555
114.789063	14727.718750
113.447266	14546.476563
112.103516	14430.417969
110.759766	14753.411133
109.414063	14960.976563
108.070313	15086.646484
106.726563	15137.903320
105.380859	14966.072266
104.035156	14850.057617
102.689453	14761.958008
101.345703	14965.583008
99.998047	15139.414063
98.652344	15222.176758
97.306641	15373.616211
95.960938	15435.884766
94.613281	15826.692383
93.265625	16241.489258
91.919922	17398.392578
90.572266	17313.687500
89.224609	16845.031250
87.875000	17251.935547
86.527344	17782.933594
85.179688	17618.496094
83.830078	17576.458984
82.482422	17451.035156
81.132813	17114.125000
79.783203	16777.214844
78.433594	16440.306641
77.083984	16103.396484
75.734375	16313.498047
74.382813	16292.102539
73.033203	16033.780273
71.681641	15919.904297
70.330078	15806.068359
68.978516	15483.213867
67.626953	15371.343750
66.275391	15431.507813
64.923828	15060.813477
63.572266	15021.176758
62.218750	15110.943359
60.867188	15322.653320
59.513672	15170.275391
58.160156	13950.122070
56.806641	13336.256836
55.453125	12816.795898
54.099609	12609.571289
52.744141	12407.958008
51.390625	12134.428711
