#Wave		#Intensity
4002.113281	3382.615723
4001.415039	3375.456787
4000.716797	3210.284424
4000.017578	3216.925049
3999.319336	3212.830322
3998.620117	3391.173340
3997.920898	3233.257324
3997.221680	3450.875977
3996.522461	3271.548340
3995.823242	3249.573242
3995.124023	3367.003418
3994.424805	3330.724854
3993.724609	3323.043213
3993.025391	3429.687012
3992.325195	3382.699707
3991.625000	3200.012451
3990.924805	3388.754395
3990.224609	3309.663330
3989.524414	3230.597656
3988.824219	3362.136963
3988.124023	3450.811035
3987.422852	3318.240479
3986.721680	3260.628662
3986.021484	3392.078125
3985.320313	3327.340088
3984.619141	3344.634033
3983.917969	3344.096680
3983.216797	3446.931641
3982.514648	3375.098145
3981.813477	3445.824219
3981.112305	3341.947998
3980.410156	3270.165527
3979.708008	3369.367920
3979.005859	3365.265381
3978.303711	3489.344238
3977.601563	3339.264404
3976.899414	3313.812012
3976.197266	3402.250488
3975.494141	3312.747314
3974.791992	3522.119141
3974.088867	3404.168213
3973.385742	3531.657227
3972.682617	3335.510986
3971.979492	3324.308838
3971.276367	3298.890869
3970.573242	3376.554932
3969.869141	3315.599609
3969.166016	3361.257813
3968.461914	3296.771729
3967.758789	3385.041992
3967.054688	3306.366943
3966.350586	3476.276367
3965.646484	3347.908203
3964.941406	3304.773926
3964.237305	3361.029297
3963.533203	3459.849121
3962.828125	3420.265625
3962.124023	3316.841064
3961.418945	3376.604736
3960.713867	3390.247559
3960.008789	3442.888672
3959.303711	3449.426025
3958.598633	3459.505859
3957.892578	3395.157959
3957.187500	3391.069336
3956.481445	3376.353271
3955.776367	3510.418457
3955.070313	3300.892578
3954.364258	3346.397461
3953.658203	3335.238281
3952.952148	3472.763672
3952.245117	3242.141357
3951.539063	3461.031494
3950.832031	3432.169189
3950.125977	3329.023438
3949.418945	3392.157959
3948.711914	3356.247070
3948.004883	3281.451172
3947.297852	3489.517578
3946.590820	3340.490967
3945.883789	3265.733154
3945.175781	3395.958496
3944.468750	3377.747314
3943.760742	3303.019287
3943.052734	3337.809814
3942.344727	3478.534180
3941.636719	3315.552246
3940.928711	3364.445068
3940.220703	3483.918213
3939.511719	3423.361816
3938.803711	3383.996826
3938.094727	3365.812988
3937.386719	3351.162354
3936.677734	3378.840088
3935.968750	3335.980713
3935.259766	3271.979980
3934.550781	3401.889893
3933.840820	3397.818848
3933.131836	3439.563232
3932.421875	3428.440186
3931.712891	3410.274658
3931.002930	3307.576416
3930.292969	3412.701660
3929.583008	3419.196533
3928.873047	3358.794678
3928.163086	3358.255615
3927.452148	3350.677246
3926.742188	3378.291748
3926.031250	3416.452881
3925.321289	3363.135498
3924.610352	3443.494873
3923.899414	3309.303955
3923.188477	3414.259521
3922.477539	3445.352539
3921.765625	3367.467285
3921.054688	3356.383057
3920.342773	3380.442139
3919.631836	3464.221191
3918.919922	3210.740234
3918.208008	3357.740723
3917.496094	3279.944092
3916.784180	3402.307861
3916.072266	3324.528809
3915.359375	3450.356201
3914.647461	3516.482178
3913.934570	3382.579590
3913.222656	3350.461670
3912.509766	3279.768311
3911.796875	3423.037598
3911.083984	3334.822021
3910.371094	3488.554443
3909.658203	3537.071777
3908.944336	3319.196533
3908.231445	3392.256348
3907.517578	3293.604492
3906.803711	3293.075928
3906.089844	3397.628662
3905.375977	3456.619873
3904.662109	3242.468506
3903.948242	3466.013428
3903.234375	3468.957764
3902.519531	3454.401367
3901.805664	3352.366211
3901.090820	3460.290283
3900.375977	3568.179688
3899.661133	3385.729004
3898.946289	3336.226563
3898.231445	3297.229248
3897.516602	3384.099365
3896.801758	3401.033447
3896.085938	3330.590576
3895.370117	3441.873291
3894.655273	3322.534424
3893.939453	3405.837158
3893.223633	3384.334961
3892.507813	3443.156738
3891.791992	3404.197754
3891.075195	3497.906494
3890.359375	3462.441650
3889.642578	3472.355469
3888.925781	3527.626221
3888.209961	3234.010742
3887.493164	3474.172363
3886.776367	3414.326416
3886.059570	3441.674561
3885.341797	3493.418945
3884.625000	3377.824219
3883.907227	3422.591553
3883.190430	3439.466309
3882.472656	3484.208984
3881.754883	3427.911621
3881.037109	3301.970459
3880.319336	3318.853271
3879.601563	3426.261963
3878.883789	3436.156494
3878.165039	3439.086182
3877.447266	3407.211670
3876.728516	3420.583984
3876.009766	3447.868652
3875.291016	3499.494873
3874.572266	3446.762451
3873.853516	3321.019287
3873.134766	3536.057373
3872.415039	3469.438477
3871.696289	3434.123535
3870.976563	3457.899658
3870.256836	3551.162354
3869.537109	3362.988037
3868.817383	3550.022949
3868.097656	3389.693359
3867.377930	3340.534668
3866.658203	3395.549805
3865.937500	3457.489746
3865.217773	3474.289307
3864.497070	3557.018311
3863.776367	3459.295898
3863.055664	3378.950684
3862.334961	3472.060547
3861.614258	3284.229736
3860.893555	3502.154053
3860.171875	3324.779297
3859.451172	3386.640625
3858.729492	3465.811035
3858.007813	3475.650879
3857.287109	3471.628662
3856.565430	3488.392334
3855.842773	3439.342773
3855.121094	3556.534180
3854.399414	3459.014404
3853.676758	3368.449463
3852.955078	3516.748047
3852.232422	3436.585205
3851.509766	3456.795654
3850.787109	3625.766602
3850.064453	3500.655762
3849.341797	3607.310547
3848.619141	3451.120361
3847.895508	3516.259033
3847.172852	3491.496582
3846.449219	3470.198242
3845.725586	3497.288330
3845.001953	3472.540527
3844.278320	3264.700928
3843.554688	3461.064209
3842.831055	3443.241211
3842.107422	3480.672607
3841.382813	3455.946777
3840.659180	3445.036865
3839.934570	3465.192627
3839.209961	3561.260254
3838.485352	3508.934814
3837.760742	3401.430664
3837.036133	3407.783447
3836.310547	3590.013916
3835.585938	3403.242432
3834.860352	3478.541992
3834.135742	3464.196289
3833.410156	3522.229736
3832.684570	3521.665039
3831.958984	3617.568604
3831.233398	3568.761963
3830.507813	3447.642822
3829.781250	3550.399414
3829.055664	3429.321777
3828.329102	3415.001709
3827.602539	3373.150146
3826.875977	3475.852295
3826.149414	3502.822021
3825.422852	3502.260498
3824.696289	3639.290039
3823.969727	3459.866455
3823.242188	3528.085449
3822.515625	3427.813965
3821.788086	3489.140625
3821.060547	3567.632813
3820.333008	3443.347656
3819.605469	3374.076904
3818.877930	3528.127686
3818.150391	3482.909424
3817.421875	3245.386230
3816.694336	3399.383301
3815.965820	3570.496826
3815.237305	3576.789551
3814.508789	3445.797363
3813.780273	3469.265381
3813.051758	3468.709229
3812.323242	3372.101318
3811.593750	3635.660645
3810.865234	3504.763428
3810.135742	3541.917969
3809.407227	3551.634766
3808.677734	3506.505615
3807.948242	3533.360596
3807.218750	3512.234619
3806.488281	3539.079590
3805.758789	3713.211182
3805.029297	3609.868164
3804.298828	3612.713867
3803.568359	3571.048828
3802.837891	3495.164307
3802.107422	3439.840332
3801.376953	3583.020264
3800.646484	3469.531982
3799.916016	3571.608154
3799.185547	3519.727539
3798.454102	3450.763672
3797.722656	3385.241211
3796.992188	3473.589600
3796.260742	3558.491211
3795.529297	3499.818359
3794.796875	3492.422607
3794.065430	3498.696289
3793.333984	3634.781250
3792.601563	3398.522217
3791.870117	3452.618164
3791.137695	3609.131836
3790.405273	3509.548584
3789.672852	3505.572510
3788.940430	3545.964844
3788.208008	3651.178223
3787.474609	3582.357666
3786.742188	3547.671143
3786.008789	3553.923828
3785.276367	3457.870361
3784.542969	3549.375000
3783.809570	3446.534912
3783.076172	3582.322021
3782.342773	3506.772949
3781.608398	3560.729248
3780.875000	3546.531006
3780.140625	3498.274170
3779.407227	3650.972656
3778.672852	3551.636230
3777.938477	3557.876221
3777.204102	3509.648193
3776.469727	3730.318115
3775.735352	3433.656494
3775.000000	3589.620361
3774.265625	3452.967529
3773.530273	3534.047363
3772.794922	3594.696289
3772.059570	3573.718262
3771.324219	3528.948486
3770.588867	3552.177490
3769.853516	3510.823975
3769.118164	3557.834961
3768.381836	3567.457520
3767.646484	3560.091553
3766.910156	3539.142090
3766.173828	3497.823486
3765.437500	3517.635254
3764.701172	3584.968506
3763.964844	3614.942871
3763.227539	3610.969727
3762.491211	3559.492432
3761.753906	3586.063477
3761.017578	3561.743652
3760.280273	3652.745850
3759.542969	3604.685791
3758.805664	3421.020752
3758.068359	3515.391357
3757.331055	3609.731689
3756.592773	3473.598145
3755.855469	3744.107910
3755.117188	3499.587158
3754.378906	3607.417969
3753.640625	3603.453125
3752.902344	3535.152588
3752.164063	3449.945313
3751.425781	3605.105957
3750.686523	3557.144775
3749.948242	3468.590820
3749.208984	3583.072266
3748.470703	3558.817627
3747.731445	3544.717773
3746.992188	3432.549561
3746.252930	3479.337402
3745.512695	3685.004883
3744.773438	3653.992676
3744.034180	3724.379639
3743.293945	3554.827148
3742.553711	3581.286133
3741.813477	3678.675049
3741.073242	3519.343506
3740.333008	3694.380859
3739.592773	3575.614502
3738.852539	3649.310547
3738.111328	3604.846436
3737.371094	3654.890625
3736.629883	3802.771484
3735.888672	3555.881836
3735.147461	3599.163086
3734.406250	3605.331543
3733.665039	3493.475098
3732.923828	3610.919189
3732.181641	3617.082520
3731.440430	3569.316406
3730.698242	3585.593994
3729.956055	3564.803223
3729.214844	3668.666016
3728.472656	3715.234375
3727.729492	3711.271240
3726.987305	3737.614258
3726.245117	3642.748291
3725.501953	3625.333740
3724.759766	3762.742432
3724.016602	3630.902100
3723.273438	3549.571777
3722.530273	3636.466553
3721.787109	3635.883789
3721.043945	3635.301270
3720.299805	3715.415527
3719.556641	3650.945313
3718.812500	3475.573242
3718.068359	3656.496826
3717.325195	3676.072266
3716.581055	3635.166992
3715.835938	3651.380371
3715.091797	3650.795166
3714.347656	3687.148926
3713.602539	3706.703125
3712.858398	3622.184570
3712.113281	3648.455811
3711.368164	3688.142090
3710.623047	3808.344482
3709.877930	3727.218262
3709.132813	3719.912354
3708.387695	3679.071289
3707.641602	3906.500732
3706.896484	3771.767334
3706.150391	3606.907959
3705.404297	3636.494385
3704.658203	3632.560791
3703.912109	3642.030273
3703.166016	3829.046631
3702.419922	3664.309326
3701.672852	3750.794434
3700.926758	3710.012695
3700.179688	3746.244629
3699.432617	3718.865723
3698.685547	3785.205566
3697.938477	3771.214111
3697.191406	3773.955566
3696.444336	3666.305420
3695.696289	3692.475098
3694.949219	3772.141602
3694.201172	3738.101807
3693.454102	3667.299316
3692.706055	3639.971680
3691.958008	3719.595459
3691.208984	3732.365234
3690.460938	3965.628906
3689.712891	3694.425293
3688.963867	3613.677979
3688.215820	3739.991455
3687.466797	3752.747314
3686.717773	3692.058105
3685.968750	3688.128906
3685.219727	3774.303711
3684.470703	3753.679199
3683.720703	3826.471436
3682.971680	3599.041992
3682.221680	3735.200439
3681.471680	3804.625732
3680.722656	3673.992676
3679.972656	3823.406982
3679.221680	3802.797363
3678.471680	3735.541504
3677.721680	3834.896729
3676.970703	3724.350586
3676.220703	3707.100342
3675.469727	3723.157471
3674.718750	3719.231201
3673.967773	3688.673096
3673.216797	3731.354004
3672.465820	3634.242432
3671.714844	3829.984131
3670.962891	3929.180420
3670.211914	3888.633301
3669.459961	3868.054688
3668.708008	3894.038330
3667.956055	3910.038574
3667.204102	3819.655273
3666.452148	3942.023926
3665.699219	3748.642822
3664.947266	3890.919922
3664.194336	3847.107910
3663.442383	3856.456543
3662.689453	3832.590820
3661.936523	3735.679199
3661.183594	3934.284912
3660.430664	3956.891357
3659.676758	3866.644287
3658.923828	3836.158447
3658.169922	3835.543945
3657.416992	3725.454834
3656.663086	3840.948730
3655.909180	3850.282471
3655.155273	3836.402344
3654.401367	3898.778076
3653.646484	3997.596191
3652.892578	3837.873047
3652.137695	3976.433350
3651.383789	3899.593506
3650.628906	3971.846680
3649.874023	3934.777100
3649.119141	3887.784912
3648.364258	3966.626953
3647.609375	4028.891113
3646.853516	3869.366699
3646.098633	3994.505859
3645.342773	3950.849854
3644.586914	3976.684082
3643.831055	4081.898438
3643.075195	3982.024658
3642.319336	3994.614014
3641.563477	4116.306152
3640.806641	4009.862793
3640.050781	3929.895264
3639.293945	4127.546875
3638.537109	4140.102051
3637.780273	3951.132324
3637.023438	4072.713623
3636.266602	3966.379150
3635.509766	4117.637207
3634.752930	4090.565674
3633.995117	4070.104492
3633.237305	4049.649658
3632.480469	4052.300781
3631.722656	4104.441895
3630.964844	3975.128662
3630.207031	3994.281982
3629.448242	4072.789307
3628.690430	3996.299561
3627.931641	4160.496582
3627.173828	4163.126465
3626.415039	4063.588623
3625.656250	4128.840820
3624.897461	4154.536621
3624.138672	4140.694824
3623.379883	4041.223877
3622.620117	4261.210938
3621.861328	4109.072266
3621.101563	4045.865967
3620.341797	4193.333984
3619.582031	4034.696777
3618.822266	4257.798828
3618.062500	4181.449219
3617.302734	4243.277344
3616.542969	4360.995605
3615.782227	3998.583008
3615.021484	4132.741211
3614.261719	4263.569336
3613.500977	4243.166016
3612.740234	4117.610840
3611.979492	4131.019531
3611.217773	4144.427734
3610.457031	4157.836426
3609.695313	4171.245117
3608.934570	4184.653809
3608.172852	4198.062012
3607.411133	4211.470703
3606.649414	4283.000000
3605.887695	4295.439941
3605.125977	4347.246582
3604.363281	4090.677979
3603.601563	4391.772461
3602.838867	4384.510254
3602.076172	4249.375488
3601.314453	4274.920898
3600.551758	4146.402344
3599.788086	4339.096680
3599.025391	4331.848145
3598.262695	4354.087402
3597.499023	4337.011719
3596.736328	4398.544922
3595.972656	4276.678711
3595.208984	4321.831055
3594.445313	4216.383789
3593.681641	4320.446289
3592.916992	4486.653809
3592.153320	4325.606445
3591.389648	4403.429199
3590.625000	4441.975586
3589.860352	4320.257324
3589.095703	4224.737305
3588.331055	4397.338867
3587.566406	4399.903320
3586.801758	4278.269531
3586.036133	4264.512695
3585.271484	4254.027344
3584.505859	4413.417969
3583.741211	4301.658691
3582.975586	4255.249023
3582.209961	4372.114746
3581.443359	4355.090820
3580.677734	4318.487793
3579.912109	4167.668457
3579.145508	4395.418945
3578.379883	4306.624512
3577.613281	4341.817383
3576.846680	4331.337402
3576.080078	4389.341797
3575.313477	4339.730957
3574.545898	4260.796387
3573.779297	4328.562500
3573.012695	4262.689941
3572.245117	4242.456543
3571.477539	4447.024414
3570.709961	4504.944336
3569.942383	4325.096191
3569.174805	4275.558105
3568.407227	4239.059570
3567.638672	4309.996582
3566.871094	4306.051270
3566.102539	4263.056152
3565.333984	4304.671875
3564.565430	4421.097168
3563.796875	4225.228516
3563.028320	4299.351074
3562.259766	4285.655762
3561.490234	4333.735840
3560.721680	4404.554688
3559.952148	4309.596680
3559.182617	4256.913574
3558.413086	4376.445801
3557.643555	4317.271484
3556.874023	4225.635742
3556.104492	4325.630371
3555.333984	4337.925293
3554.564453	4191.141113
3553.793945	4294.338867
3553.023438	4222.251953
3552.252930	4351.370605
3551.482422	4233.876953
3550.711914	4236.442383
3549.941406	4209.816895
3549.169922	4403.709961
3548.399414	4263.586914
3547.627930	4224.002930
3546.856445	4161.742676
3546.084961	4293.945313
3545.313477	4280.296387
3544.541992	4260.172363
3543.770508	4337.229980
3542.998047	4398.068848
3542.226563	4238.696777
3541.454102	4192.690918
3540.681641	4295.605957
3539.909180	4201.057617
3539.136719	4342.770508
3538.364258	4212.653320
3537.591797	4192.568359
3536.818359	4195.131348
3536.045898	4236.500977
3535.272461	4213.187988
3534.499023	4112.291992
3533.725586	4224.767578
3532.952148	4233.786621
3532.178711	4197.562988
3531.404297	4313.201660
3530.630859	4205.909180
3529.856445	4218.154785
3529.082031	4282.064941
3528.308594	4145.769531
3527.534180	4209.670898
3526.759766	4250.957031
3525.984375	4266.412109
3525.209961	4165.700195
3524.434570	4216.652344
3523.660156	4057.917725
3522.884766	4070.168457
3522.109375	4259.770996
3521.333984	4194.605469
3520.558594	4316.431152
3519.783203	4293.177734
3519.006836	4228.038086
3518.231445	4262.803711
3517.455078	4207.354004
3516.678711	4235.669434
3515.902344	4260.754883
3515.125977	4176.352051
3514.349609	4214.316895
3513.573242	4142.824219
3512.796875	4248.369629
3512.019531	4064.265869
3511.242188	4327.443848
3510.465820	4127.301758
3509.688477	4184.535645
3508.911133	4148.490723
3508.132813	4189.625488
3507.355469	4330.408203
3506.578125	4194.711914
3505.799805	4158.687988
3505.021484	4247.994141
3504.244141	4282.654297
3503.465820	4275.543457
3502.687500	4210.623047
3501.908203	4203.525879
3501.129883	4138.637695
3500.351563	4186.127930
3499.572266	4291.377441
3498.792969	4200.832520
3498.014648	4248.289551
3497.235352	4103.241211
3496.455078	4272.589355
3495.675781	4050.612305
3494.896484	4300.079590
3494.116211	4142.291504
3493.336914	4151.244629
3492.556641	4333.269043
3491.776367	4181.959961
3490.996094	4101.188477
3490.215820	4151.788086
3489.435547	4151.122559
3488.655273	4137.647461
3487.874023	4165.802246
3487.092773	4222.761719
3486.312500	4234.888672
3485.531250	4138.196289
3484.750000	4150.333008
3483.968750	4162.465820
3483.186523	4283.357910
3482.405273	4340.242676
3481.623047	4163.663086
3480.841797	4210.956543
3480.059570	4050.438232
3479.277344	4136.090820
3478.495117	4263.262207
3477.712891	4166.718750
3476.930664	4054.232178
3476.147461	4296.350098
3475.365234	4215.816895
3474.582031	4330.099609
3473.798828	4182.538086
3473.015625	4210.598145
3472.232422	4235.457520
3471.449219	4289.029785
3470.666016	4218.146484
3469.881836	4175.997559
3469.098633	4175.328125
3468.314453	4142.767090
3467.530273	4384.443359
3466.746094	4205.203125
3465.961914	4204.529297
3465.177734	4181.545410
3464.392578	4082.089355
3463.608398	4119.668457
3462.823242	4300.588867
3462.039063	4162.939941
3461.253906	4353.348633
3460.468750	4113.844238
3459.683594	4215.059570
3458.897461	4230.299316
3458.112305	4178.700684
3457.326172	4206.669434
3456.541016	4088.278320
3455.754883	4227.588379
3454.968750	4252.354980
3454.182617	4162.633301
3453.396484	4279.607422
3452.610352	4301.174805
3451.823242	4233.737305
3451.037109	4213.990723
3450.250000	4184.718262
3449.462891	4107.800781
3448.675781	4151.612793
3447.888672	4223.993652
3447.101563	4207.439941
3446.314453	4175.016113
3445.526367	4221.963379
3444.739258	4164.156250
3443.951172	4239.650391
3443.163086	4194.550293
3442.375000	4158.981934
3441.586914	4050.472168
3440.798828	4049.822998
3440.009766	4290.158203
3439.221680	4191.190430
3438.432617	4209.537598
3437.644531	4310.281250
3436.855469	4189.175293
3436.066406	4178.999023
3435.277344	4263.859863
3434.487305	4351.860352
3433.698242	4262.493164
3432.908203	4239.645996
3432.119141	4162.987793
3431.329102	4209.799316
3430.539063	4262.925781
3429.749023	4328.691406
3428.958984	4185.629395
3428.168945	4235.570313
3427.377930	4054.615967
3426.587891	4177.292480
3425.796875	4129.197266
3425.005859	4299.240723
3424.214844	4222.694824
3423.423828	4105.090820
3422.632813	4047.558350
3421.840820	4072.182861
3421.049805	4178.925293
3420.257813	4235.102051
3419.466797	4234.423340
3418.674805	4075.886963
3417.882813	4182.559570
3417.090820	4216.606934
3416.297852	4203.308105
3415.505859	4095.360107
3414.713867	4205.115723
3413.920898	4235.982422
3413.127930	4118.619629
3412.334961	4231.471680
3411.541992	4199.267090
3410.749023	4069.358154
3409.956055	4317.681641
3409.162109	4086.959961
3408.369141	4322.598633
3407.575195	4180.152344
3406.781250	4163.734375
3405.987305	4141.023438
3405.193359	4181.290527
3404.399414	4224.693359
3403.605469	4173.655273
3402.810547	4081.721680
3402.016602	4128.265625
3401.221680	4124.457520
3400.426758	4161.542969
3399.631836	4148.295410
3398.836914	3933.802734
3398.041992	4304.166504
3397.247070	4130.583008
3396.451172	4013.629395
3395.655273	4148.113770
3394.860352	4313.975098
3394.064453	4209.614258
3393.268555	4120.991211
3392.472656	4176.859375
3391.675781	4210.729492
3390.879883	4071.916992
3390.083008	4149.738770
3389.287109	4010.980469
3388.490234	4277.065430
3387.693359	4166.568359
3386.896484	4093.749756
3386.099609	4130.730957
3385.301758	4199.060059
3384.504883	4179.574219
3383.707031	4091.125000
3382.909180	4187.637207
3382.112305	4180.697754
3381.314453	4151.826660
3380.515625	4069.704102
3379.717773	4166.157715
3378.919922	4287.635254
3378.121094	4152.295898
3377.323242	4195.463379
3376.524414	4094.616455
3375.725586	4156.558594
3374.926758	4133.986328
3374.127930	4139.581055
3373.328125	4170.201660
3372.529297	4119.486328
3371.729492	4012.493164
3370.930664	4093.149902
3370.130859	4073.734863
3369.331055	4166.859375
3368.531250	4028.672607
3367.731445	4103.024902
3366.930664	4211.721680
3366.130859	4086.089600
3365.330078	4085.434326
3364.529297	4062.918701
3363.729492	4165.307129
3362.928711	4145.907715
3362.126953	4117.149902
3361.326172	4057.192383
3360.525391	4087.745850
3359.723633	4118.289551
3358.922852	4148.823242
3358.121094	4126.325684
3357.319336	4131.900879
3356.517578	4184.242676
3355.715820	4096.284180
3354.913086	4098.744141
3354.111328	4135.483887
3353.308594	4069.386230
3352.506836	4159.080566
3351.704102	4180.218262
3350.901367	4167.090332
3350.098633	4110.371582
3349.294922	4084.804932
3348.492188	4124.617676
3347.688477	4145.743164
3346.885742	4188.645020
3346.082031	4103.964844
3345.278320	4233.965332
3344.474609	4074.655029
3343.670898	4126.870117
3342.867188	4042.253662
3342.062500	4187.725098
3341.258789	4243.005371
3340.454102	4086.928223
3339.649414	4033.446289
3338.844727	4029.692383
3338.040039	4178.154785
3337.235352	4152.637207
3336.429688	3993.593994
3335.625000	4098.521484
3334.819336	3986.104248
3334.014648	4128.246094
3333.208984	4264.135742
3332.403320	4114.510254
3331.596680	4200.718750
3330.791016	4231.064453
3329.985352	4146.646484
3329.178711	4192.496094
3328.373047	4136.015137
3327.566406	4057.852783
3326.759766	4171.881836
3325.953125	4059.649902
3325.145508	4192.232910
3324.338867	4228.736328
3323.532227	4070.086670
3322.724609	4122.082520
3321.916992	4127.614258
3321.109375	4046.456299
3320.301758	4154.149414
3319.494141	4190.623047
3318.686523	4217.801270
3317.878906	4130.492676
3317.070313	4191.700195
3316.261719	4122.981445
3315.454102	4156.337891
3314.645508	4093.830566
3313.836914	4090.082275
3313.027344	4154.337891
3312.218750	4110.403809
3311.410156	4168.455078
3310.600586	4136.891113
3309.791016	4083.713623
3308.981445	4249.839844
3308.171875	4122.548340
3307.362305	4208.338379
3306.552734	4111.964355
3305.743164	4055.746338
3304.932617	3996.460449
3304.122070	4261.178711
3303.312500	4103.155762
3302.501953	4272.149902
3301.691406	4234.455078
3300.879883	4095.014160
3300.069336	4177.600586
3299.258789	4102.948242
3298.447266	4102.289551
3297.635742	4209.488281
3296.824219	4110.216797
3296.012695	4078.750977
3295.201172	4204.382324
3294.389648	4179.070313
3293.578125	3932.068359
3292.765625	4079.212646
3291.953125	4140.121094
3291.141602	4047.126953
3290.329102	4212.644531
3289.516602	4190.432129
3288.703125	4088.245605
3287.890625	4210.617188
3287.078125	4151.512695
3286.264648	4160.070801
3285.451172	4051.805908
3284.637695	4229.431152
3283.824219	3989.041260
3283.010742	4178.910156
3282.197266	4046.133545
3281.383789	4005.551758
3280.569336	4158.471191
3279.754883	4170.086914
3278.940430	4074.239746
3278.126953	3932.376465
3277.311523	4247.880859
3276.497070	4090.691406
3275.682617	4145.264160
3274.867188	4184.480469
3274.052734	4226.750977
3273.237305	4069.665039
3272.421875	4176.333496
3271.606445	4068.358887
3270.791016	3966.549805
3269.975586	4162.063477
3269.159180	4149.138184
3268.343750	4111.706055
3267.527344	3970.130859
3266.710938	4168.581055
3265.894531	4112.789063
3265.078125	4170.304688
3264.261719	4160.451172
3263.445313	4168.966309
3262.627930	4094.846924
3261.811523	4081.949951
3260.994141	4093.532715
3260.176758	4178.526367
3259.359375	4220.673828
3258.541992	4082.387939
3257.724609	4234.606445
3256.906250	4111.647461
3256.088867	4068.196533
3255.270508	4095.047607
3254.452148	4097.445801
3253.633789	4011.247314
3252.815430	4038.094238
3251.997070	4153.499512
3251.177734	4296.350098
3250.359375	3978.141846
3249.540039	4062.975098
3248.720703	4135.573242
3247.902344	3967.071533
3247.083008	4070.172119
3246.262695	4151.885254
3245.443359	4132.917969
3244.624023	4104.808105
3243.803711	4204.770996
3242.983398	4054.711670
3242.163086	4081.494141
3241.342773	4126.554199
3240.522461	4202.071289
3239.702148	4219.676758
3238.881836	4109.335938
3238.060547	4154.362305
3237.240234	4150.649902
3236.418945	4168.251953
3235.597656	4100.609375
3234.776367	4121.257324
3233.955078	4160.158203
3233.132813	4156.447266
3232.311523	4140.568359
3231.489258	4130.778320
3230.666992	3984.131592
3229.845703	4117.288574
3229.022461	4064.941650
3228.200195	4198.042969
3227.377930	4337.179688
3226.555664	4181.500488
3225.732422	4123.099609
3224.909180	4207.499023
3224.086914	4115.700684
3223.263672	4172.741699
3222.440430	4260.128418
3221.616211	4065.143066
3220.792969	4185.909180
3219.968750	4197.376953
3219.145508	4117.806152
3218.321289	4080.736816
3217.497070	4077.047852
3216.672852	4109.756836
3215.848633	4263.756348
3215.024414	3947.737793
3214.199219	4253.292480
3213.375000	4119.241699
3212.549805	4085.243652
3211.724609	4205.791992
3210.899414	4144.523926
3210.074219	4207.470215
3209.249023	4137.135742
3208.422852	4351.470703
3207.597656	4187.277344
3206.771484	4304.665527
3205.945313	4216.199707
3205.119141	4167.103027
3204.292969	4127.099121
3203.466797	4141.562500
3202.640625	4013.857666
3201.813477	4303.543457
3200.987305	4088.163086
3200.160156	4081.459961
3199.333008	4180.557129
3198.505859	4191.975098
3197.678711	4176.192383
3196.850586	4390.038574
3196.023438	4171.830078
3195.195313	4240.629395
3194.368164	4212.769043
3193.540039	4378.160156
3192.711914	4163.112793
3191.883789	4210.739258
3191.055664	4161.775391
3190.226563	4191.281738
3189.398438	4151.387207
3188.569336	4132.621582
3187.740234	4237.518555
3186.911133	4164.464844
3186.082031	4227.112305
3185.252930	4356.059570
3184.423828	4099.162109
3183.593750	4182.884766
3182.763672	4212.344238
3181.934570	4178.528320
3181.104492	4292.318848
3180.274414	4216.337402
3179.444336	4221.682617
3178.613281	4305.304199
3177.783203	4166.142090
3176.952148	4273.823242
3176.122070	4324.293945
3175.291016	4055.818848
3174.459961	4223.631348
3173.628906	4066.547119
3172.796875	4162.127930
3171.965820	4215.582031
3171.133789	4247.974609
3170.302734	4217.233398
3169.470703	4219.561035
3168.638672	4242.922363
3167.806641	4191.165527
3166.974609	4307.645508
3166.141602	4153.777344
3165.309570	4201.157715
3164.476563	4317.579590
3163.644531	4127.759277
3162.811523	4073.068604
3161.978516	4150.441406
3161.144531	4236.790527
3160.311523	4107.106445
3159.478516	4127.443359
3158.644531	4261.740234
3157.810547	4249.061035
3156.977539	4224.393066
3156.143555	4235.704590
3155.308594	4303.959473
3154.474609	4207.373047
3153.640625	4119.806641
3152.805664	4191.042480
3151.970703	4235.297852
3151.136719	4171.726563
3150.301758	4177.044922
3149.466797	4296.125977
3148.630859	4301.422363
3147.795898	4285.766602
3146.959961	4162.390625
3146.125000	4227.543457
3145.289063	4250.794922
3144.453125	4187.302246
3143.617188	4186.629395
3142.781250	4314.524902
3141.945313	4116.525391
3141.108398	4304.171387
3140.271484	4237.731934
3139.435547	4174.301758
3138.598633	4164.667969
3137.761719	4250.624023
3136.924805	4217.087891
3136.086914	4314.952148
3135.250000	4188.861816
3134.412109	4113.559082
3133.575195	4405.396973
3132.737305	4195.794434
3131.899414	4233.908691
3131.061523	4131.797363
3130.222656	4247.460938
3129.384766	4154.327637
3128.545898	4225.223145
3127.708008	4155.973145
3126.869141	4113.573242
3126.030273	4276.832031
3125.191406	4261.245117
3124.352539	4153.301270
3123.512695	4137.738770
3122.673828	4199.621094
3121.833984	4184.056152
3120.994141	4138.720703
3120.154297	4206.526855
3119.314453	4149.296387
3118.474609	4217.078613
3117.634766	4207.473633
3116.793945	4084.818115
3115.954102	4084.161377
3115.113281	4250.056641
3114.272461	4192.873535
3113.431641	4275.448730
3112.590820	4325.297363
3111.750000	4220.573730
3110.908203	4115.883789
3110.067383	4201.389160
3109.225586	4274.983398
3108.383789	4197.067383
3107.541992	4229.061035
3106.700195	4201.656738
3105.858398	4183.167480
3105.015625	4179.526367
3104.173828	4181.822266
3103.331055	4246.433594
3102.488281	4079.599854
3101.645508	4325.163574
3100.802734	4202.860840
3099.959961	4273.358398
3099.116211	4180.753906
3098.273438	4165.258301
3097.429688	4351.328125
3096.585938	4235.045898
3095.743164	4219.549316
3094.898438	4227.758789
3094.054688	4111.552246
3093.210938	4324.136230
3092.366211	4107.268555
3091.522461	4142.137207
3090.677734	4218.438965
3089.833008	4223.680176
3088.988281	4125.342285
3088.143555	4103.966309
3087.297852	4200.933594
3086.453125	4111.520020
3085.607422	4229.156738
3084.762695	4352.669434
3083.916992	4198.230957
3083.071289	4221.204102
3082.225586	4250.080566
3081.378906	4080.957520
3080.533203	4272.350098
3079.686523	4185.993164
3078.839844	4173.504883
3077.994141	4193.505859
3077.147461	4192.831055
3076.299805	4203.965820
3075.453125	4138.350586
3074.606445	4258.687012
3073.758789	4293.411621
3072.912109	4224.863281
3072.064453	4191.735352
3071.216797	4173.364746
3070.369141	4299.496094
3069.520508	4142.537598
3068.672852	4227.361816
3067.824219	4253.208984
3066.976563	4264.312500
3066.127930	4204.695801
3065.279297	4121.529785
3064.430664	4312.329102
3063.582031	4126.093750
3062.732422	4187.267090
3061.883789	4145.375000
3061.034180	4297.779297
3060.184570	4247.053223
3059.334961	4264.026367
3058.485352	4213.321777
3057.635742	4094.971924
3056.786133	4085.489014
3055.935547	4287.750000
3055.084961	4304.702148
3054.235352	4348.107422
3053.384766	4256.285645
3052.534180	4102.775391
3051.683594	4260.792969
3050.832031	4245.416992
3049.981445	4344.609863
3049.129883	4191.183594
3048.278320	4275.669922
3047.426758	4395.362305
3046.575195	4265.486816
3045.723633	4247.189453
3044.872070	4158.464844
3044.019531	4213.545898
3043.167969	4286.211426
3042.315430	4200.456055
3041.462891	4138.191406
3040.610352	4231.359863
3039.757813	4216.019531
3038.905273	4300.351074
3038.051758	4197.076660
3037.199219	4284.314453
3036.345703	4204.515625
3035.492188	4241.922363
3034.638672	4188.516602
3033.785156	4208.342285
3032.931641	4327.716309
3032.077148	4315.309082
3031.223633	4197.528809
3030.369141	4138.319336
3029.514648	4322.003906
3028.660156	4207.204590
3027.805664	4238.705078
3026.951172	4276.044922
3026.095703	4196.399902
3025.241211	4327.297363
3024.385742	4200.895508
3023.530273	4282.060547
3022.674805	4114.791992
3021.819336	4160.880859
3020.963867	4166.054199
3020.107422	4197.514648
3019.251953	4150.109863
3018.395508	4266.245117
3017.539063	4096.220215
3016.682617	3955.441650
3015.826172	4194.136230
3014.969727	4208.051758
3014.113281	4084.829346
3013.255859	4311.718262
3012.398438	4115.598633
3011.541992	4246.170410
3010.684570	4251.318359
3009.827148	4163.171875
3008.968750	4118.777832
3008.111328	4214.291016
3007.252930	4210.698730
3006.395508	4262.463379
3005.537109	4188.951172
3004.678711	4199.926758
3003.820313	4091.502441
3002.961914	4242.248535
3002.102539	4250.298828
3001.244141	4191.399902
3000.384766	4205.276367
2999.525391	4131.854980
2998.666016	4276.653809
2997.806641	4342.867676
2996.947266	4202.567383
2996.087891	4117.562012
2995.227539	4227.380371
2994.367188	4232.513184
2993.507813	4156.262695
2992.647461	4245.679688
2991.787109	4183.979492
2990.925781	4174.590332
2990.065430	4173.917480
2989.205078	4199.382324
2988.343750	4216.127930
2987.482422	4206.739258
2986.621094	4136.395508
2985.759766	4280.842773
2984.898438	4207.607910
2984.037109	4285.266113
2983.174805	4133.730469
2982.312500	4240.379395
2981.451172	4393.392578
2980.588867	4207.119141
2979.726563	4084.683350
2978.864258	4170.980957
2978.000977	4228.270020
2977.138672	4129.070801
2976.275391	4229.804688
2975.412109	4318.919434
2974.548828	4182.102539
2973.685547	4109.035645
2972.822266	4287.879395
2971.958984	4159.817383
2971.094727	4237.293945
2970.231445	4242.398926
2969.367188	4209.887695
2968.502930	4348.069824
2967.638672	4225.885742
2966.774414	4222.312988
2965.909180	4233.198730
2965.044922	4215.169922
2964.179688	4133.553711
2963.314453	4398.779785
2962.450195	4195.793945
2961.583984	4319.353516
2960.718750	4073.114990
2959.853516	4242.866211
2958.987305	4265.284668
2958.122070	4203.963379
2957.255859	4278.344238
2956.389648	4225.699219
2955.523438	4233.675781
2954.657227	4417.664063
2953.791016	4264.046387
2952.923828	4217.206055
2952.056641	4326.121582
2951.190430	4334.074707
2950.323242	4212.283691
2949.456055	4243.314453
2948.587891	4213.808105
2947.720703	4227.537598
2946.853516	4275.837891
2945.985352	4286.671875
2945.117188	4173.646484
2944.249023	4351.527344
2943.380859	4212.613281
2942.512695	4321.334961
2941.644531	4225.647461
2940.775391	4158.770996
2939.907227	4198.386719
2939.038086	4445.141602
2938.168945	4228.675781
2937.299805	4279.765625
2936.430664	4319.335449
2935.560547	4284.135742
2934.691406	4266.196289
2933.821289	4233.890625
2932.951172	4313.676270
2932.081055	4169.310547
2931.210938	4332.395996
2930.340820	4308.717285
2929.470703	4465.983398
2928.599609	4180.979492
2927.729492	4418.605469
2926.858398	4354.739258
2925.987305	4178.957031
2925.116211	4258.634766
2924.244141	4323.940430
2923.373047	4288.817383
2922.501953	4371.306641
2921.629883	4416.487305
2920.757813	4367.029297
2919.885742	4317.587402
2919.013672	4319.757324
2918.141602	4218.750977
2917.269531	4324.095215
2916.396484	4337.723145
2915.523438	4291.189453
2914.651367	4250.399414
2913.778320	4352.806152
2912.904297	4349.240723
2912.031250	4291.284180
2911.158203	4287.729492
2910.284180	4341.412598
2909.411133	4357.880859
2908.537109	4291.376465
2907.663086	4310.707520
2906.789063	4307.151855
2905.915039	4343.630859
2905.040039	4308.621582
2904.166016	4416.553223
2903.291016	4344.387207
2902.416016	4320.824707
2901.541016	4237.268066
2900.666016	4316.573730
2899.791016	4347.296387
2898.915039	4300.901367
2898.040039	4191.703125
2897.164063	4413.710449
2896.288086	4253.148438
2895.412109	4266.732422
2894.536133	4388.746094
2893.660156	4174.056641
2892.783203	4227.583008
2891.907227	4321.021973
2891.030273	4103.595703
2890.153320	4214.131836
2889.276367	4370.244629
2888.399414	4303.981934
2887.522461	4194.992676
2886.644531	4268.399902
2885.767578	4321.840820
2884.889648	4098.961914
2884.011719	4197.980957
2883.133789	4333.986328
2882.255859	4153.919434
2881.377930	4326.894043
2880.499023	4266.425781
2879.621094	4265.737305
2878.742188	4313.417969
2877.863281	4252.980957
2876.984375	4246.605957
2876.105469	4206.105957
2875.226563	4145.714844
2874.346680	4261.607422
2873.466797	4300.714355
2872.587891	4251.705566
2871.708008	4040.741455
2870.828125	4199.192383
2869.948242	4249.646484
2869.067383	4251.800781
2868.187500	4359.024902
2867.306641	4116.980957
2866.425781	4431.427246
2865.544922	4109.975098
2864.664063	4228.503906
2863.783203	4312.945313
2862.902344	4246.998047
2862.020508	4266.167969
2861.139648	4299.512207
2860.257813	4176.885742
2859.375977	4190.387207
2858.494141	4147.189941
2857.612305	4146.520020
2856.729492	4131.681641
2855.847656	4227.348145
2854.964844	4136.012695
2854.082031	4378.933594
2853.199219	4225.300293
2852.316406	4281.248047
2851.433594	4139.003906
2850.549805	4186.455566
2849.666992	4256.533203
2848.783203	4100.212891
2847.899414	4190.085938
2847.015625	4279.929688
2846.131836	4168.934570
2845.248047	4193.711914
2844.363281	4218.480957
2843.479492	4189.530273
2842.594727	4121.017578
2841.709961	4145.786621
2840.825195	4176.198242
2839.940430	4152.922363
2839.055664	4166.375000
2838.169922	4140.284180
2837.285156	4258.212891
2836.399414	4178.472656
2835.513672	4214.494629
2834.627930	4253.327148
2833.742188	4114.365723
2832.856445	4232.202637
2831.969727	4214.592773
2831.083984	4219.552734
2830.197266	4044.024902
2829.310547	4223.828613
2828.423828	4324.637207
2827.537109	4208.370117
2826.649414	4247.145996
2825.762695	4125.293457
2824.875000	4223.234863
2823.987305	4216.918457
2823.099609	4283.832031
2822.211914	4215.556152
2821.324219	4138.854980
2820.436523	4081.884277
2819.547852	4236.029785
2818.659180	4240.973633
2817.771484	4203.709473
2816.882813	4318.374512
2815.993164	4340.179199
2815.104492	4198.859375
2814.215820	4279.726563
2813.326172	4245.297363
2812.437500	4331.751953
2811.547852	4316.999512
2810.658203	4206.708008
2809.768555	4256.601563
2808.877930	4191.302246
2807.988281	4229.946777
2807.097656	4307.895020
2806.207031	4354.931641
2805.317383	4390.723633
2804.426758	4235.633301
2803.535156	4195.658203
2802.644531	4259.518066
2801.753906	4202.718750
2800.862305	4266.556641
2799.970703	4263.062012
2799.079102	4329.673340
2798.187500	4270.095215
2797.295898	4154.469727
2796.404297	4372.419434
2795.511719	4251.209961
2794.619141	4197.286133
2793.727539	4275.048828
2792.834961	4165.117676
2791.942383	4108.433105
2791.048828	4295.376465
2790.156250	4205.092773
2789.262695	4145.629395
2788.370117	4321.280762
2787.476563	4292.598633
2786.583008	4331.074707
2785.689453	4366.740234
2784.794922	4251.359375
2783.901367	4477.187988
2783.006836	4398.174805
2782.113281	4299.617676
2781.218750	4374.391113
2780.324219	4273.075195
2779.429688	4216.499023
2778.534180	4316.393555
2777.639648	4125.749023
2776.744141	4261.932617
2775.848633	4219.356934
2774.954102	4280.098145
2774.058594	4287.780273
2773.162109	4222.892090
2772.266602	4336.624512
2771.370117	4243.847168
2770.474609	4237.581543
2769.578125	4178.321289
2768.681641	4280.831543
2767.785156	4416.769043
2766.888672	4206.960938
2765.991211	4359.590820
2765.094727	4439.708984
2764.197266	4310.808594
2763.299805	4271.105957
2762.402344	4287.128906
2761.504883	4283.649902
2760.607422	4202.198730
2759.708984	4410.342285
2758.811523	4401.276855
2757.913086	4286.445313
2757.014648	4372.023438
2756.116211	4379.663086
2755.217773	4292.710938
2754.319336	4175.188965
2753.419922	4324.695801
2752.520508	4362.925781
2751.622070	4262.130371
2750.722656	4261.440918
2749.823242	4244.075195
2748.922852	4379.554688
2748.023438	4398.294922
2747.124023	4239.236816
2746.223633	4091.340332
2745.323242	4357.280273
2744.422852	4248.285645
2743.522461	4314.227051
2742.622070	4319.080078
2741.720703	4232.346680
2740.820313	4414.802246
2739.918945	4361.374023
2739.017578	4349.572266
2738.116211	4312.812500
2737.214844	4298.249023
2736.313477	4203.284180
2735.411133	4235.869629
2734.509766	4434.747559
2733.607422	4325.950195
2732.705078	4308.625000
2731.802734	4219.275879
2730.900391	4260.141602
2729.997070	4220.679199
2729.094727	4255.993164
2728.191406	4307.907227
2727.288086	4077.454834
2726.384766	4229.017090
2725.481445	4242.168457
2724.578125	4280.216797
2723.673828	4318.252441
2722.770508	4342.446289
2721.866211	4264.310547
2720.961914	4332.745117
2720.057617	4243.578125
2719.153320	4253.947266
2718.249023	4330.640625
2717.343750	4244.279785
2716.439453	4232.541504
2715.534180	4193.183594
2714.628906	4355.454590
2713.723633	4351.987793
2712.818359	4174.581055
2711.912109	4195.989258
2711.006836	4228.430176
2710.100586	4194.629883
2709.194336	4180.154785
2708.289063	4245.687012
2707.381836	4300.165039
2706.475586	4238.796387
2705.569336	4276.712891
2704.662109	4251.208008
2703.754883	4225.710449
2702.848633	4145.100586
2701.941406	4216.074707
2701.033203	4163.043945
2700.125977	4264.293945
2699.218750	4222.289063
2698.310547	4309.727051
2697.402344	4251.208008
2696.494141	4231.249023
2695.585938	4230.563477
2694.677734	4262.902344
2693.769531	4284.224609
2692.860352	4286.281250
2691.951172	4247.077148
2691.042969	4284.892578
2690.133789	4207.203613
2689.224609	4324.744141
2688.314453	4269.065430
2687.405273	4273.870605
2686.495117	4278.673828
2685.585938	4228.523926
2684.675781	4291.022949
2683.765625	4207.926758
2682.854492	4240.199707
2681.944336	4387.785645
2681.034180	4247.061523
2680.123047	4218.924316
2679.211914	4179.817871
2678.300781	4321.829590
2677.389648	4236.078125
2676.478516	4221.675781
2675.567383	4308.757813
2674.655273	4286.121094
2673.743164	4279.942871
2672.831055	4054.458252
2671.918945	4190.846680
2671.006836	4247.716797
2670.094727	4233.328125
2669.182617	4284.693848
2668.269531	4319.607910
2667.356445	4264.133789
2666.443359	4244.274902
2665.530273	4229.897949
2664.617188	4179.939453
2663.704102	4225.789551
2662.790039	4244.259766
2661.875977	4145.074707
2660.962891	4229.205566
2660.048828	4351.600586
2659.134766	4318.079102
2658.219727	4306.441895
2657.305664	4360.419434
2656.390625	4102.776367
2655.476563	4372.669922
2654.561523	4276.324219
2653.646484	4204.598145
2652.730469	4217.574219
2651.815430	4317.942383
2650.900391	4175.245605
2649.984375	4324.732910
2649.068359	4182.081055
2648.152344	4276.930664
2647.236328	4210.742676
2646.320313	4319.199219
2645.404297	4253.025879
2644.487305	4200.511230
2643.570313	4385.276855
2642.653320	4253.683105
2641.736328	4168.478516
2640.819336	4323.175293
2639.902344	4248.888184
2638.984375	4308.147949
2638.067383	4312.897949
2637.149414	4293.129883
2636.231445	4300.604004
2635.313477	4302.629883
2634.395508	4154.903809
2633.476563	4192.341797
2632.558594	4175.330566
2631.639648	4313.445313
2630.720703	4277.372559
2629.801758	4306.604492
2628.882813	4303.185547
2627.963867	4267.131836
2627.044922	4206.616699
2626.125000	4216.809570
2625.205078	4169.913574
2624.285156	4223.594727
2623.365234	4429.435059
2622.445313	4249.394043
2621.525391	4414.414551
2620.604492	4348.511230
2619.683594	4269.050781
2618.763672	4355.245605
2617.842773	4395.260742
2616.920898	4133.968750
2616.000000	4320.558594
2615.079102	4414.829102
2614.157227	4294.738770
2613.235352	4275.053223
2612.314453	4192.994629
2611.391602	4336.035156
2610.469727	4465.472656
2609.547852	4391.555176
2608.625000	4209.245605
2607.703125	4211.272461
2606.780273	4318.969238
2605.857422	4104.250977
2604.934570	4255.268555
2604.011719	4392.695801
2603.087891	4362.197266
2602.165039	4180.098633
2601.241211	4301.229492
2600.317383	4408.788574
2599.393555	4364.776855
2598.469727	4364.067871
2597.544922	4171.295898
2596.621094	4378.878906
2595.696289	4242.956055
2594.771484	4301.750488
2593.846680	4371.339355
2592.921875	4305.759277
2591.997070	4388.836914
2591.072266	4309.765137
2590.146484	4276.645996
2589.220703	4281.353516
2588.294922	4310.366211
2587.369141	4336.668945
2586.443359	4384.562012
2585.517578	4332.561035
2584.590820	4321.061523
2583.665039	4339.249512
2582.738281	4271.092285
2581.811523	4407.979004
2580.884766	4234.640625
2579.957031	4304.069336
2579.030273	4292.584961
2578.102539	4267.624023
2577.175781	4280.408203
2576.248047	4411.769531
2575.320313	4217.041992
2574.391602	4227.133301
2573.463867	4161.797363
2572.536133	4338.877930
2571.607422	4348.944336
2570.678711	4450.549316
2569.750000	4336.763184
2568.821289	4314.526367
2567.892578	4273.458984
2566.962891	4240.476563
2566.034180	4169.841797
2565.104492	4300.963379
2564.174805	4348.672852
2563.245117	4390.988770
2562.315430	4366.079102
2561.384766	4373.433594
2560.455078	4356.597168
2559.524414	4288.709961
2558.593750	4290.699707
2557.663086	4284.629883
2556.732422	4461.199707
2555.801758	4361.114258
2554.870117	4325.500488
2553.939453	4314.059570
2553.007813	4409.985840
2552.076172	4360.962891
2551.144531	4167.061523
2550.212891	4303.206543
2549.280273	4286.413086
2548.348633	4317.899414
2547.416016	4285.019531
2546.483398	4249.469238
2545.550781	4216.610840
2544.618164	4427.659668
2543.685547	4215.239746
2542.751953	4423.540527
2541.819336	4307.629883
2540.885742	4309.607910
2539.952148	4413.349609
2539.018555	4439.407227
2538.084961	4406.560059
2537.150391	4381.753418
2536.216797	4346.249023
2535.282227	4342.866699
2534.347656	4318.082031
2533.413086	4419.027832
2532.478516	4311.328613
2531.543945	4457.702148
2530.608398	4358.052246
2529.673828	4258.434082
2528.738281	4359.307617
2527.802734	4417.390137
2526.867188	4264.372559
2525.930664	4295.736816
2524.995117	4153.472656
2524.058594	4337.068848
2523.123047	4298.980957
2522.186523	4314.300293
2521.250000	4396.346680
2520.312500	4414.313965
2519.375977	4266.831543
2518.439453	4362.185547
2517.501953	4308.124512
2516.564453	4294.087891
2515.626953	4373.390625
2514.689453	4284.691895
2513.751953	4318.650879
2512.813477	4368.590820
2511.875977	4335.900391
2510.937500	4351.182129
2509.999023	4289.199707
2509.060547	4296.492676
2508.122070	4282.477539
2507.182617	4340.362305
2506.244141	4294.395508
2505.304688	4280.387207
2504.365234	4388.812012
2503.425781	4361.487305
2502.486328	4360.777344
2501.546875	4413.271484
2500.606445	4348.719238
2499.666016	4292.165039
2498.726563	4288.807617
2497.786133	4309.377441
2496.845703	4441.577637
2495.904297	4305.316895
2494.963867	4254.129883
2494.022461	4383.617676
2493.081055	4401.498047
2492.140625	4283.923340
2491.199219	4323.057617
2490.256836	4295.803711
2489.315430	4303.067871
2488.373047	4371.375488
2487.431641	4275.129883
2486.489258	4277.087402
2485.546875	4363.935059
2484.604492	4235.908203
2483.661133	4404.945801
2482.718750	4279.605469
2481.775391	4209.979492
2480.833008	4389.540527
2479.889648	4317.269043
2478.945313	4348.363770
2478.001953	4284.070313
2477.058594	4328.405273
2476.114258	4258.838379
2475.169922	4284.625977
2474.226563	4334.233887
2473.282227	4293.819336
2472.336914	4359.290039
2471.392578	4361.226563
2470.447266	4252.032227
2469.502930	4380.970215
2468.557617	4361.740723
2467.612305	4289.625000
2466.666992	4273.060547
2465.721680	4386.047852
2464.775391	4237.305176
2463.829102	4255.115234
2462.883789	4304.629395
2461.937500	4222.024414
2460.991211	4200.203125
2460.043945	4352.708984
2459.097656	4161.863770
2458.150391	4227.194336
2457.204102	4326.822754
2456.256836	4341.954590
2455.309570	4101.092773
2454.362305	4308.876465
2453.414063	4213.199219
2452.466797	4315.385254
2451.518555	4225.012695
2450.570313	4306.068359
2449.622070	4205.180664
2448.673828	4167.590820
2447.725586	4261.793457
2446.776367	4316.437988
2445.828125	4318.369141
2444.878906	4296.590820
2443.929688	4274.819336
2442.980469	4258.321777
2442.030273	4212.866211
2441.081055	4346.442383
2440.130859	4195.699707
2439.181641	4334.498535
2438.231445	4194.332031
2437.281250	4346.240234
2436.331055	4171.920898
2435.379883	4368.493652
2434.429688	4136.375977
2433.478516	4346.036133
2432.527344	4240.177246
2431.576172	4115.955078
2430.625000	4254.562500
2429.673828	4269.633301
2428.721680	4192.752930
2427.770508	4215.708984
2426.818359	4188.759766
2425.866211	4156.567871
2424.914063	4184.768555
2423.960938	4344.205078
2423.008789	4288.382813
2422.055664	4153.856934
2421.103516	4242.382813
2420.150391	4191.850098
2419.197266	4191.821777
2418.243164	4191.793457
2417.290039	4191.765137
2416.335938	4191.736816
2415.382813	4191.708496
2414.428711	4191.680176
2413.474609	4191.651855
2412.520508	4191.623535
2411.565430	4279.997070
2410.611328	4119.545410
2409.656250	4168.624512
2408.701172	4152.236328
2407.746094	4167.264648
2406.791016	4252.952637
2405.835938	4283.659668
2404.879883	4131.212891
2403.923828	4237.791504
2402.968750	4380.952148
2402.013672	4160.571777
2401.056641	4196.498047
2400.099609	4302.996094
2399.144531	4197.742676
2398.187500	4306.818848
2397.230469	4293.051270
2396.273438	4292.350586
2395.316406	4208.063477
2394.359375	4170.813477
2393.402344	4305.916992
2392.443359	4362.651855
2391.486328	4283.628418
2390.529297	4160.261719
2389.570313	4258.744629
2388.613281	4229.349609
2387.654297	4335.614746
2386.695313	4126.247559
2385.736328	4227.278809
2384.777344	4244.840820
2383.818359	4254.575684
2382.859375	4219.996094
2381.900391	4117.668457
2380.941406	4288.972168
2379.982422	4249.192871
2379.021484	4245.894531
2378.062500	4253.014160
2377.101563	4223.676270
2376.142578	4186.536621
2375.181641	4196.265625
2374.220703	4333.524414
2373.259766	4163.667969
2372.298828	4378.942871
2371.337891	4258.561523
2370.376953	4224.053223
2369.416016	4189.555664
2368.455078	4199.271973
2367.492188	4203.785645
2366.531250	4179.705566
2365.568359	4254.390625
2364.607422	4331.649902
2363.644531	4346.530762
2362.681641	4267.892090
2361.718750	4249.014648
2360.757813	4157.433594
2359.794922	4226.855957
2358.830078	4244.336914
2357.867188	4241.048340
2356.904297	4287.066895
2355.941406	4242.257324
2354.976563	4259.724121
2354.013672	4121.556641
2353.048828	4170.157227
2352.085938	4278.380371
2351.121094	4098.796387
2350.156250	4173.298340
2349.191406	4149.291016
2348.226563	4114.926758
2347.261719	4127.208496
2346.296875	4269.007324
2345.332031	4125.859863
2344.367188	4246.895508
2343.400391	4124.511719
2342.435547	4193.733398
2341.468750	4092.104004
2340.503906	4148.368652
2339.537109	4093.354248
2338.570313	4110.794434
2337.603516	4148.921875
2336.636719	4137.898926
2335.669922	4263.924805
2334.703125	4035.718018
2333.736328	4169.474121
2332.769531	4285.094727
2331.800781	4449.775391
2330.833984	4588.564941
2329.865234	4518.067871
2328.898438	4284.876465
2327.929688	4224.781250
2326.962891	4283.475586
2325.994141	4324.080078
2325.025391	4191.736328
2324.056641	4172.985840
2323.087891	4032.968750
2322.119141	4163.881836
2321.148438	4121.930176
2320.179688	4273.417969
2319.210938	4063.853516
2318.240234	4161.159180
2317.271484	4201.722656
2316.300781	4054.128174
2315.330078	4153.964355
2314.359375	4063.108154
2313.390625	4093.356445
2312.419922	4118.443359
2311.449219	4184.725586
2310.476563	4140.269531
2309.505859	4209.100098
2308.535156	4102.879883
2307.564453	4091.914551
2306.591797	3990.894043
2305.621094	4108.584961
2304.648438	4069.328857
2303.675781	3973.504883
2302.703125	4139.997559
2301.732422	4077.615967
2300.759766	4035.819580
2299.787109	4058.290771
2298.814453	4209.241699
2297.839844	3995.299316
2296.867188	4164.193359
2295.894531	4114.710449
2294.919922	4175.670898
2293.947266	4064.579102
2292.972656	4161.468262
2292.000000	4137.686035
2291.025391	3959.928711
2290.050781	4149.162109
2289.076172	4148.482910
2288.101563	4150.369141
2287.126953	4134.301758
2286.152344	4095.160889
2285.175781	4145.768066
2284.201172	4083.566650
2283.226563	4023.948730
2282.250000	4274.425293
2281.275391	4091.810547
2280.298828	4083.455566
2279.322266	4157.065918
2278.345703	4007.851807
2277.371094	4173.628906
2276.394531	4029.580566
2275.417969	4067.315918
2274.439453	4181.816406
2273.462891	4055.749023
2272.486328	4085.785889
2271.507813	4113.254883
2270.531250	4156.060059
2269.552734	4099.122070
2268.576172	4141.915527
2267.597656	4087.554688
2266.619141	4176.341797
2265.640625	4055.550293
2264.662109	4218.410156
2263.683594	4189.618164
2262.705078	4137.847656
2261.726563	4004.372070
2260.748047	4169.686523
2259.767578	4071.990723
2258.789063	4165.768066
2257.808594	4085.969727
2256.830078	4036.817871
2255.849609	4166.272949
2254.869141	4127.327148
2253.888672	4236.321289
2252.908203	3972.972412
2251.927734	4135.497559
2250.947266	4124.623535
2249.966797	4200.411621
2248.986328	4041.724121
2248.003906	4183.747559
2247.023438	4127.016113
2246.041016	4042.284912
2245.060547	3965.221436
2244.078125	4155.543457
2243.095703	4137.041504
2242.115234	4014.181885
2241.132813	4163.681152
2240.150391	4068.847900
2239.166016	4085.990479
2238.183594	4120.934082
2237.201172	4138.062012
2236.218750	4053.466553
2235.234375	4167.216309
2234.251953	4057.222412
2233.267578	4145.517090
2232.283203	4091.470459
2231.300781	4179.730469
2230.316406	4158.721680
2229.332031	4147.879883
2228.347656	4040.535645
2227.363281	4123.666992
2226.378906	4006.206787
2225.392578	4025.857178
2224.408203	4065.804443
2223.423828	4090.513184
2222.437500	4067.008545
2221.451172	4020.680908
2220.466797	4134.154785
2219.480469	4130.940918
2218.494141	4193.650391
2217.507813	4121.981445
2216.521484	4002.177979
2215.535156	4039.534912
2214.548828	4021.135742
2213.562500	4109.144531
2212.574219	3981.822510
2211.587891	4067.276367
2210.599609	4046.352051
2209.613281	4071.005615
2208.625000	4080.463135
2207.636719	4145.597168
2206.650391	3990.558105
2205.662109	4098.696289
2204.673828	4067.668213
2203.685547	4021.474854
2202.695313	4013.228760
2201.707031	4047.967773
2200.718750	4118.087402
2199.728516	4097.191406
2198.740234	4020.704346
2197.750000	4105.954102
2196.761719	3981.490234
2195.771484	4127.339844
2194.781250	4050.897949
2193.791016	3951.754883
2192.800781	4082.389160
2191.810547	3915.118652
2190.820313	4025.525146
2189.830078	4042.528564
2188.837891	4173.061523
2187.847656	4104.266602
2186.857422	4055.671631
2185.865234	4107.963379
2184.873047	4112.331543
2183.882813	4076.363525
2182.890625	4156.351563
2181.898438	4057.384766
2180.906250	3973.568604
2179.914063	4035.898682
2178.921875	3937.000000
2177.927734	3994.278320
2176.935547	4001.176758
2175.943359	4065.978516
2174.949219	4045.173096
2173.955078	4089.811523
2172.962891	4021.197510
2171.968750	4088.468750
2170.974609	4110.437500
2169.980469	3989.035156
2168.986328	4126.690918
2167.992188	3995.268311
2166.998047	4059.974121
2166.003906	3981.388916
2165.007813	3948.064941
2164.013672	4100.689941
2163.019531	4102.528809
2162.023438	4106.878418
2161.027344	4118.761230
2160.033203	3997.555664
2159.037109	4079.749268
2158.041016	4064.018066
2157.044922	4136.134277
2156.048828	4057.664307
2155.052734	4056.997803
2154.054688	3958.497803
2153.058594	3995.469727
2152.062500	4034.937012
2151.064453	4132.059570
2150.066406	4163.970215
2149.070313	4145.740723
2148.072266	4119.999023
2147.074219	4121.827637
2146.076172	4121.150391
2145.078125	3957.658203
2144.080078	4092.247559
2143.082031	4134.143555
2142.083984	4110.931641
2141.083984	4062.695313
2140.085938	4084.552734
2139.085938	4214.004883
2138.087891	4115.735840
2137.087891	4012.495605
2136.087891	4014.337402
2135.089844	4093.701172
2134.089844	4043.021729
2133.089844	4134.854004
2132.087891	4074.186279
2131.087891	4190.973633
2130.087891	4102.831055
2129.087891	4144.627441
2128.085938	4128.958984
2127.085938	4088.320801
2126.083984	4120.110352
2125.082031	4059.513916
2124.082031	4021.403320
2123.080078	4123.069824
2122.078125	4062.502686
2121.076172	4121.714355
2120.074219	4088.607178
2119.070313	4030.569092
2118.068359	4052.350098
2117.066406	4029.243652
2116.062500	3936.342529
2115.060547	4095.216553
2114.056641	4037.224609
2113.054688	4131.245117
2112.050781	4068.283447
2111.046875	4167.250000
2110.042969	4042.040771
2109.039063	4131.018066
2108.035156	4150.255859
2107.031250	4084.852783
2106.025391	4026.937744
2105.021484	4148.208008
2104.015625	4147.525879
2103.011719	3995.099365
2102.005859	4004.390869
2101.000000	3951.509521
2099.996094	4172.147461
2098.990234	4004.900879
2097.984375	4083.779785
2096.978516	4095.533691
2095.972656	3963.168213
2094.964844	3902.892090
2093.958984	4061.221191
2092.953125	4085.388184
2091.945313	4094.648193
2090.939453	4151.076660
2089.931641	3857.482910
2088.923828	4070.290039
2087.916016	4119.249512
2086.908203	4004.442627
2085.900391	4112.932617
2084.892578	3990.723145
2083.884766	4057.022217
2082.876953	4043.957275
2081.869141	4040.812500
2080.859375	4050.061768
2079.851563	4158.436035
2078.841797	4016.517090
2077.833984	3904.373047
2076.824219	4089.504150
2075.814453	4041.775879
2074.804688	4167.395020
2073.794922	4040.445068
2072.785156	4114.040527
2071.775391	4009.415283
2070.763672	4068.144043
2069.753906	4005.620850
2068.744141	4004.961182
2067.732422	4088.394531
2066.720703	4067.937744
2065.710938	4106.828125
2064.699219	4034.460938
2063.687500	4125.249023
2062.675781	4060.316162
2061.664063	4084.355957
2060.652344	4004.628418
2059.640625	3981.738037
2058.628906	4013.187744
2057.615234	4056.973145
2056.603516	4068.648926
2055.589844	4112.410645
2054.578125	4119.137207
2053.564453	3940.789795
2052.550781	3945.074951
2051.537109	4080.099365
2050.523438	4044.897705
2049.509766	4017.105225
2048.496094	4028.771240
2047.482422	4062.619873
2046.466797	4047.161865
2045.453125	4159.855957
2044.439453	4033.508301
2043.423828	4025.452881
2042.408203	4054.347412
2041.394531	3908.377197
2040.378906	4109.645020
2039.363281	4005.566406
2038.347656	4061.521240
2037.332031	4117.457520
2036.316406	4055.260986
2035.298828	4022.608398
2034.283203	4053.924072
2033.265625	4028.660889
2032.250000	4062.424072
2031.232422	3897.022217
2030.216797	3999.627686
2029.199219	3971.931641
2028.181641	4138.384766
2027.164063	3931.308838
2026.146484	3967.510498
2025.128906	4030.719238
2024.111328	4005.496094
2023.091797	4049.033447
2022.074219	4117.106934
2021.056641	4096.791016
2020.037109	4034.759521
2019.017578	4051.270996
2018.000000	4124.205566
2016.980469	3971.438232
2015.960938	3933.993896
2014.941406	4036.337891
2013.921875	3962.117920
2012.902344	3963.915771
2011.882813	3997.575928
2010.861328	4009.169434
2009.841797	4162.870117
2008.820313	4086.239990
2007.800781	3999.837402
2006.779297	3940.402100
2005.757813	3983.826416
2004.738281	3946.446533
2003.716797	3999.646240
2002.695313	4021.012695
2001.671875	4010.561279
2000.650391	3963.415039
1999.628906	3999.453125
1998.607422	4003.684814
1997.583984	4022.586670
1996.562500	4029.257813
1995.539063	3938.145020
1994.515625	4054.813477
1993.494141	4081.025146
1992.470703	3862.895752
1991.447266	3996.618896
1990.423828	3886.045898
1989.400391	3961.109863
1988.375000	3931.155518
1987.351563	3957.361084
1986.328125	4025.052979
1985.302734	3829.148438
1984.279297	3948.081055
1983.253906	4003.542480
1982.228516	3844.327393
1981.203125	3955.881592
1980.177734	4008.875244
1979.152344	3947.260986
1978.126953	3995.363037
1977.101563	4043.448975
1976.076172	4033.033691
1975.050781	4005.566406
1974.023438	3926.950684
1972.998047	3906.816650
1971.970703	3901.301025
1970.943359	4007.790771
1969.917969	4004.694336
1968.890625	3928.576904
1967.863281	3850.051025
1966.835938	3941.878906
1965.808594	3851.212158
1964.779297	3845.710938
1963.751953	3952.085938
1962.724609	3987.907959
1961.695313	3899.724121
1960.667969	3850.462891
1959.638672	3866.839844
1958.609375	3946.392578
1957.580078	3787.813721
1956.550781	3932.942383
1955.521484	3871.571533
1954.492188	3800.507080
1953.462891	3858.151855
1952.433594	3859.941895
1951.404297	3890.858154
1950.373047	3963.020264
1949.343750	3952.659424
1948.312500	3854.965088
1947.281250	3897.989258
1946.250000	3979.802734
1945.220703	3974.295410
1944.189453	3973.638428
1943.158203	3791.179443
1942.125000	3899.615967
1941.093750	3894.125000
1940.062500	3820.796387
1939.031250	3839.544189
1937.998047	3877.661865
1936.964844	3772.890869
1935.933594	3781.952148
1934.900391	3943.521973
1933.867188	3860.575439
1932.833984	3876.877441
1931.800781	3980.280029
1930.767578	3919.141357
1929.734375	3983.801514
1928.701172	3891.242676
1927.666016	4035.680420
1926.632813	3836.768066
1925.597656	3840.967773
1924.564453	3850.000000
1923.529297	3936.354492
1922.494141	3935.703369
1921.458984	3807.024170
1920.423828	3944.062256
1919.388672	3914.432129
1918.353516	3824.450684
1917.318359	3913.136963
1916.283203	3955.935059
1915.246094	3808.073730
1914.210938	3973.928711
1913.173828	3946.734619
1912.138672	3914.725342
1911.101563	4008.131104
1910.064453	3908.607422
1909.027344	3905.549805
1907.990234	3945.880859
1906.953125	3897.027344
1905.916016	3968.671387
1904.876953	3905.374512
1903.839844	4039.623291
1902.802734	3913.715820
1901.763672	3850.458984
1900.724609	3996.687744
1899.687500	3918.994385
1898.648438	4024.247070
1897.609375	3927.322998
1896.570313	4042.163330
1895.531250	3911.589111
1894.492188	3829.162842
1893.451172	3895.864990
1892.412109	3988.993652
1891.373047	3935.444092
1890.332031	3898.737549
1889.291016	3866.849609
1888.251953	3846.986572
1887.210938	3949.655518
1886.169922	3804.877441
1885.128906	3938.740967
1884.087891	3911.674805
1883.046875	3846.203369
1882.005859	3835.964355
1880.962891	3866.530273
1879.921875	3899.485352
1878.880859	3846.055176
1877.837891	3771.052734
1876.794922	3844.781250
1875.753906	3856.135010
1874.710938	3886.666260
1873.667969	3886.022461
1872.625000	3962.079590
1871.582031	3884.735107
1870.537109	3893.675781
1869.494141	3957.715088
1868.451172	3894.781250
1867.406250	3800.734131
1866.363281	3800.104248
1865.318359	3895.239746
1864.273438	3806.026367
1863.230469	3908.308838
1862.185547	3862.195557
1861.140625	3851.985352
1860.095703	3930.287598
1859.048828	3810.049072
1858.003906	3785.504150
1856.958984	3775.312988
1855.912109	3829.669922
1854.867188	3912.690674
1853.820313	3945.499023
1852.773438	3746.527588
1851.728516	3803.241699
1850.681641	3766.782715
1849.634766	3876.014404
1848.587891	3758.370605
1847.541016	3690.900635
1846.492188	3792.929443
1845.445313	3818.552979
1844.398438	3848.940430
1843.349609	3898.404297
1842.302734	3819.039307
1841.253906	3909.036621
1840.205078	3770.080566
1839.156250	3817.139893
1838.107422	3792.668457
1837.058594	3815.873779
1836.009766	3793.793701
1834.960938	3790.781738
1833.912109	3852.091553
1832.861328	3749.032959
1831.812500	3688.874756
1830.761719	3743.027344
1829.710938	3794.781006
1828.662109	3717.982910
1827.611328	3676.908203
1826.560547	3835.723633
1825.509766	3723.270020
1824.458984	3617.989990
1823.408203	3781.492188
1822.355469	3804.643799
1821.304688	3737.442383
1820.251953	3820.021240
1819.201172	3721.941895
1818.148438	3678.550293
1817.095703	3794.360596
1816.044922	3758.097900
1814.992188	3726.597412
1813.939453	3680.858643
1812.886719	3768.098877
1811.832031	3822.074463
1810.779297	3788.210205
1809.726563	3633.325195
1808.671875	3777.461670
1807.619141	3738.876465
1806.564453	3804.671631
1805.509766	3692.574951
1804.457031	3720.416260
1803.402344	3895.238525
1802.347656	3797.404785
1801.292969	3730.413818
1800.238281	3924.103760
1799.181641	3786.036621
1798.126953	3778.301514
1797.070313	3801.358643
1796.015625	3736.790039
1794.958984	3795.361084
1793.904297	3735.549072
1792.847656	3751.496826
1791.791016	3722.475830
1790.734375	3792.840332
1789.677734	3912.860840
1788.621094	3763.197021
1787.562500	3800.410400
1786.505859	3773.769531
1785.449219	3770.778564
1784.390625	3789.062012
1783.333984	3722.259033
1782.275391	3745.270020
1781.216797	3685.583984
1780.158203	3725.128418
1779.099609	3830.789307
1778.041016	3934.053223
1776.982422	3713.828125
1775.923828	3920.943115
1774.865234	3804.641846
1773.804688	3711.977051
1772.746094	3841.128174
1771.685547	3724.897705
1770.625000	3842.210205
1769.566406	3747.241943
1768.505859	3895.163574
1767.445313	3757.783691
1766.384766	3750.088135
1765.322266	3777.744873
1764.261719	3838.380127
1763.201172	3767.065430
1762.140625	3712.262695
1761.078125	3742.261963
1760.015625	3861.730225
1758.955078	3799.875977
1757.892578	3822.783447
1756.830078	3876.279297
1755.767578	3743.858398
1754.705078	3738.530518
1753.642578	3714.385254
1752.580078	3777.270752
1751.515625	3797.806885
1750.453125	3696.074219
1749.390625	3787.140625
1748.326172	3687.793701
1747.261719	3790.581299
1746.199219	3719.461914
1745.134766	3735.287842
1744.070313	3814.527344
1743.005859	3738.742432
1741.941406	3768.645264
1740.875000	3824.362549
1739.810547	3776.780762
1738.746094	3780.846191
1737.679688	3695.743164
1736.615234	3817.126221
1735.548828	3795.379639
1734.482422	3783.021484
1733.416016	3667.489746
1732.349609	3788.796387
1731.283203	3724.873535
1730.216797	3752.378906
1729.150391	3754.097900
1728.083984	3701.927246
1727.015625	3844.209961
1725.949219	3742.854980
1724.880859	3707.104736
1723.812500	3823.559326
1722.746094	3822.923096
1721.677734	3773.133057
1720.609375	3774.845215
1719.541016	3792.935791
1718.472656	3780.606934
1717.404297	3740.212891
1716.333984	3718.541992
1715.265625	3762.350830
1714.195313	3721.979736
1713.126953	3737.722900
1712.056641	3720.740479
1710.986328	3706.100342
1709.916016	3878.374756
1708.845703	3838.017090
1707.775391	3750.961182
1706.705078	3759.677246
1705.634766	3784.734131
1704.564453	3812.116943
1703.492188	3697.114258
1702.421875	3764.174316
1701.349609	3751.881104
1700.279297	3748.923340
1699.207031	3738.968750
1698.134766	3768.663330
1697.062500	3744.718506
1695.990234	3692.805664
1694.917969	3776.103760
1693.845703	3623.989746
1692.771484	3725.912598
1691.699219	3639.090576
1690.625000	3629.166748
1689.552734	3786.933105
1688.478516	3676.857910
1687.404297	3815.937988
1686.330078	3764.089844
1685.255859	3798.374268
1684.181641	3755.854248
1683.107422	3787.801514
1682.033203	3708.077148
1680.958984	3735.369629
1679.882813	3741.723633
1678.808594	3766.676025
1677.732422	3670.734619
1676.656250	3851.420898
1675.582031	3753.173096
1674.505859	3743.253174
1673.429688	3828.586426
1672.353516	3669.998779
1671.277344	3727.447021
1670.199219	3708.249512
1669.123047	3754.063477
1668.046875	3732.546387
1666.968750	3773.699463
1665.890625	3608.317383
1664.814453	3647.156982
1663.736328	3679.024414
1662.658203	3731.754639
1661.580078	3733.451172
1660.501953	3688.776611
1659.423828	3681.207031
1658.345703	3569.340820
1657.265625	3649.853271
1656.187500	3628.391602
1655.107422	3736.666260
1654.029297	3694.351318
1652.949219	3767.841309
1651.869141	3672.279785
1650.789063	3579.065186
1649.708984	3684.942627
1648.628906	3663.499268
1647.548828	3672.143555
1646.468750	3653.022705
1645.386719	3654.726318
1644.306641	3667.992920
1643.224609	3637.320313
1642.144531	3743.063477
1641.062500	3703.142090
1639.980469	3561.541504
1638.898438	3618.717285
1637.816406	3629.665283
1636.734375	3578.238770
1635.652344	3665.407959
1634.570313	3787.187012
1633.486328	3664.184570
1632.404297	3679.732178
1631.320313	3773.750244
1630.236328	3556.194580
1629.154297	3530.220215
1628.070313	3614.988037
1626.986328	3609.771240
1625.902344	3551.514160
1624.818359	3620.094971
1623.734375	3557.244385
1622.648438	3628.105957
1621.564453	3556.056396
1620.478516	3534.724365
1619.394531	3674.669922
1618.308594	3545.061035
1617.222656	3597.440430
1616.136719	3557.693359
1615.050781	3639.982910
1613.964844	3607.147705
1612.878906	3553.609375
1611.792969	3624.352051
1610.707031	3607.641113
1609.619141	3590.935547
1608.533203	3514.435059
1607.445313	3518.447021
1606.357422	3628.223389
1605.271484	3611.525146
1604.183594	3647.697510
1603.095703	3458.643555
1602.007813	3529.294922
1600.919922	3696.410645
1599.830078	3516.630615
1598.742188	3552.788086
1597.652344	3556.786621
1596.564453	3553.896484
1595.474609	3573.961182
1594.386719	3740.901123
1593.296875	3591.123779
1592.207031	3585.934814
1591.117188	3656.445801
1590.027344	3566.388184
1588.937500	3650.637207
1587.845703	3576.659424
1586.755859	3582.938477
1585.664063	3648.806396
1584.574219	3689.444824
1583.482422	3645.295166
1582.390625	3569.088867
1581.300781	3593.686768
1580.208984	3622.856445
1579.117188	3674.912842
1578.025391	3683.455566
1576.931641	3552.372314
1575.839844	3693.666016
1574.748047	3656.438232
1573.654297	3662.689941
1572.560547	3591.168945
1571.468750	3611.151123
1570.375000	3594.540771
1569.281250	3630.519043
1568.187500	3634.483398
1567.093750	3707.009766
1566.000000	3683.539063
1564.906250	3671.499268
1563.810547	3716.571045
1562.716797	3738.788574
1561.621094	3685.641357
1560.527344	3819.731201
1559.431641	3739.194824
1558.335938	3708.897949
1557.240234	3808.686035
1556.144531	3778.387207
1555.048828	3796.004883
1553.953125	3772.561035
1552.857422	3751.405029
1551.759766	3748.497070
1550.664063	3734.191406
1549.566406	3804.225830
1548.470703	3771.683594
1547.373047	3850.802490
1546.275391	3747.638916
1545.177734	3801.679199
1544.080078	3785.100586
1542.982422	3668.336914
1541.884766	3697.319580
1540.785156	3726.292236
1539.687500	3691.529541
1538.587891	3766.003906
1537.490234	3808.601318
1536.390625	3712.423096
1535.291016	3668.588135
1534.193359	3724.823730
1533.093750	3746.936279
1531.992188	3648.559082
1530.892578	3609.309326
1529.792969	3715.511475
1528.693359	3642.181641
1527.591797	3768.788086
1526.492188	3738.629395
1525.390625	3658.519287
1524.289063	3691.965088
1523.189453	3627.781006
1522.087891	3613.554199
1520.986328	3701.457031
1519.882813	3578.307373
1518.781250	3616.275391
1517.679688	3681.450195
1516.578125	3587.848633
1515.474609	3657.541016
1514.371094	3591.180420
1513.269531	3567.910645
1512.166016	3569.579102
1511.062500	3562.182861
1509.958984	3552.523193
1508.855469	3647.068604
1507.751953	3723.463135
1506.648438	3555.266113
1505.542969	3541.085205
1504.439453	3567.656494
1503.333984	3578.375244
1502.230469	3613.982910
1501.125000	3602.063965
1500.019531	3553.953369
1498.914063	3643.831299
1497.808594	3604.775391
1496.703125	3529.555176
1495.597656	3517.659668
1494.492188	3575.838135
1493.384766	3464.500977
1492.279297	3622.089844
1491.171875	3427.191895
1490.066406	3596.028076
1488.958984	3435.076172
1487.851563	3556.434814
1486.744141	3598.734131
1485.636719	3385.944580
1484.529297	3477.910156
1483.421875	3468.300537
1482.312500	3519.610352
1481.205078	3539.322021
1480.095703	3658.264404
1478.988281	3398.322754
1477.878906	3645.763672
1476.769531	3509.895752
1475.660156	3581.431396
1474.550781	3628.154053
1473.441406	3544.179199
1472.332031	3518.804199
1471.222656	3511.456543
1470.111328	3657.247070
1469.001953	3699.414063
1467.890625	3491.678711
1466.781250	3529.357178
1465.669922	3504.009521
1464.558594	3530.422607
1463.447266	3590.572510
1462.335938	3466.255371
1461.224609	3501.656982
1460.113281	3552.786865
1459.000000	3635.374512
1457.888672	3549.346191
1456.775391	3559.987305
1455.664063	3622.308105
1454.550781	3662.140625
1453.437500	3540.223633
1452.324219	3512.677490
1451.210938	3521.069824
1450.097656	3515.988037
1448.984375	3477.235596
1447.871094	3559.696045
1446.755859	3514.216797
1445.642578	3554.012939
1444.527344	3685.771729
1443.412109	3501.231445
1442.298828	3576.890381
1441.183594	3605.437744
1440.068359	3456.872559
1438.953125	3514.569092
1437.837891	3587.933350
1436.720703	3479.777832
1435.605469	3709.944580
1434.490234	3619.723877
1433.373047	3648.229980
1432.255859	3620.746582
1431.140625	3640.287354
1430.023438	3621.768066
1428.906250	3547.303955
1427.789063	3694.393799
1426.671875	3586.382813
1425.554688	3543.278564
1424.435547	3509.134766
1423.318359	3613.644775
1422.199219	3568.321289
1421.082031	3511.836182
1419.962891	3714.634277
1418.843750	3635.796387
1417.724609	3594.968018
1416.605469	3513.942627
1415.486328	3582.591309
1414.367188	3624.418945
1413.248047	3699.724121
1412.126953	3556.227783
1411.007813	3551.165771
1409.886719	3572.885010
1408.767578	3599.059570
1407.646484	3593.992432
1406.525391	3575.543457
1405.404297	3534.799316
1404.283203	3485.149414
1403.162109	3560.363037
1402.041016	3671.215820
1400.917969	3490.076904
1399.796875	3458.293701
1398.673828	3551.283936
1397.552734	3486.088135
1396.429688	3498.864502
1395.306641	3462.647217
1394.183594	3526.630371
1393.060547	3383.570801
1391.937500	3589.987549
1390.814453	3482.569824
1389.691406	3484.208496
1388.566406	3470.274902
1387.443359	3449.673340
1386.318359	3482.449463
1385.195313	3375.139648
1384.070313	3510.176758
1382.945313	3465.132568
1381.820313	3553.440918
1380.695313	3515.070068
1379.570313	3470.047363
1378.443359	3531.656006
1377.318359	3437.787842
1376.193359	3450.531738
1375.066406	3405.549805
1373.939453	3416.074707
1372.814453	3493.174805
1371.687500	3501.462158
1370.560547	3474.250000
1369.433594	3511.373779
1368.306641	3459.772949
1367.177734	3456.972900
1366.050781	3460.824707
1364.923828	3442.508301
1363.794922	3519.499268
1362.666016	3447.996338
1361.539063	3564.840332
1360.410156	3517.720703
1359.281250	3399.742920
1358.152344	3465.603271
1357.023438	3560.224365
1355.892578	3564.052002
1354.763672	3468.278564
1353.634766	3596.045166
1352.503906	3608.714600
1351.375000	3563.862549
1350.244141	3454.882080
1349.113281	3454.299805
1347.982422	3539.949951
1346.851563	3654.310547
1345.720703	3567.491211
1344.589844	3527.110352
1343.458984	3541.983154
1342.326172	3565.687500
1341.195313	3512.073975
1340.062500	3498.230957
1338.931641	3544.011475
1337.798828	3569.906738
1336.666016	3595.793213
1335.533203	3531.184082
1334.400391	3512.935791
1333.267578	3474.837158
1332.132813	3555.868652
1331.000000	3559.679932
1329.867188	3517.182129
1328.732422	3507.770020
1327.597656	3392.550293
1326.464844	3431.650391
1325.330078	3580.919189
1324.195313	3659.632813
1323.060547	3509.218506
1321.925781	3598.929932
1320.789063	3430.958984
1319.654297	3588.908691
1318.517578	3504.649414
1317.382813	3631.718750
1316.246094	3532.075684
1315.111328	3557.883301
1313.974609	3526.483887
1312.837891	3479.698242
1311.701172	3538.489014
1310.564453	3562.078857
1309.425781	3530.699463
1308.289063	3534.499756
1307.152344	3518.519287
1306.013672	3425.637451
1304.875000	3550.285889
1303.738281	3549.686768
1302.599609	3597.404297
1301.460938	3458.458740
1300.322266	3506.175293
1299.183594	3567.046387
1298.044922	3322.828613
1296.904297	3464.901123
1295.765625	3446.764160
1294.625000	3389.147949
1293.486328	3493.851807
1292.345703	3497.647705
1291.205078	3459.784180
1290.064453	3522.771973
1288.923828	3509.026611
1287.783203	3398.863770
1286.642578	3472.784912
1285.501953	3535.727295
1284.359375	3403.712646
1283.218750	3344.009766
1282.076172	3345.634521
1280.935547	3489.555420
1279.792969	3405.791016
1278.650391	3431.476807
1277.507813	3389.323730
1276.365234	3312.181396
1275.222656	3425.363281
1274.078125	3400.727783
1272.935547	3457.004639
1271.792969	3294.639893
1270.648438	3355.286865
1269.503906	3411.542480
1268.359375	3397.855225
1267.216797	3454.084473
1266.072266	3368.309814
1264.927734	3450.732910
1263.781250	3408.660400
1262.636719	3434.283447
1261.492188	3355.118408
1260.345703	3382.924072
1259.201172	3410.720459
1258.054688	3386.144043
1256.908203	3396.478516
1255.761719	3401.715576
1254.615234	3406.952881
1253.468750	3412.189941
1252.322266	3417.427002
1251.175781	3422.664307
1250.029297	3427.901367
1248.880859	3453.467773
1247.732422	3487.739502
1246.585938	3495.861816
1245.437500	3399.450195
1244.289063	3344.440918
1243.140625	3557.221436
1241.992188	3417.314941
1240.843750	3527.726563
1239.695313	3472.732178
1238.544922	3517.830811
1237.396484	3534.636963
1236.246094	3514.465820
1235.097656	3518.219971
1233.947266	3391.529297
1232.796875	3530.071533
1231.646484	3507.740967
1230.496094	3548.433350
1229.345703	3649.944336
1228.195313	3525.510254
1227.042969	3566.178711
1225.892578	3561.232178
1224.740234	3512.864746
1223.589844	3722.832764
1222.437500	3453.075439
1221.285156	3498.061035
1220.132813	3603.781494
1218.980469	3668.249756
1217.828125	3572.196533
1216.675781	3606.288574
1215.521484	3592.668945
1214.369141	3501.012451
1213.214844	3509.089355
1212.062500	3564.839111
1210.908203	3570.735596
1209.753906	3606.958740
1208.599609	3628.007568
1207.445313	3506.119141
1206.291016	3602.961182
1205.134766	3554.723633
1203.980469	3640.701660
1202.826172	3663.890625
1201.669922	3559.408691
1200.513672	3632.361572
1199.359375	3527.920166
1198.203125	3570.575928
1197.046875	3487.803467
1195.890625	3686.111084
1194.734375	3700.617432
1193.576172	3505.481689
1192.419922	3675.594238
1191.263672	3636.082764
1190.105469	3577.143555
1188.947266	3570.058105
1187.791016	3588.887451
1186.632813	3732.932861
1185.474609	3602.781494
1184.316406	3662.602539
1183.156250	3683.560791
1181.998047	3719.614746
1180.839844	3628.382568
1179.679688	3606.199219
1178.521484	3640.091064
1177.361328	3624.381348
1176.201172	3625.922363
1175.042969	3797.736084
1173.882813	3706.582520
1172.720703	3723.190918
1171.560547	3685.937256
1170.400391	3713.312744
1169.240234	3729.911133
1168.078125	3847.702637
1166.917969	3722.187744
1165.755859	3768.909912
1164.593750	3811.311768
1163.431641	3832.182373
1162.269531	3814.321533
1161.107422	4002.960205
1159.945313	3793.672119
1158.783203	3879.038086
1157.619141	3766.586426
1156.457031	3914.263672
1155.292969	3870.616455
1154.130859	3908.637939
1152.966797	3886.490479
1151.802734	3911.607422
1150.638672	3964.635986
1149.474609	4058.445313
1148.310547	3896.734619
1147.144531	3960.470947
1145.980469	4026.332031
1144.814453	4115.774902
1143.650391	4027.110840
1142.484375	4112.232910
1141.318359	4042.901855
1140.154297	4168.735840
1138.988281	4159.451660
1137.820313	4253.067383
1136.654297	4068.020020
1135.488281	4230.193848
1134.320313	4186.623535
1133.154297	4207.334961
1131.986328	4189.485840
1130.820313	4248.736328
1129.652344	4233.026855
1128.484375	4420.695801
1127.316406	4398.540527
1126.148438	4352.852539
1124.980469	4292.202148
1123.810547	4370.627930
1122.642578	4438.332031
1121.472656	4456.825195
1120.304688	4464.621094
1119.134766	4483.103516
1117.964844	4480.204102
1116.794922	4428.151367
1115.625000	4493.639160
1114.455078	4612.514648
1113.285156	4498.520508
1112.113281	4677.153320
1110.943359	4665.682129
1109.771484	4662.753906
1108.601563	4706.788086
1107.429688	4791.357422
1106.257813	4771.338379
1105.085938	4779.061035
1103.914063	4869.974121
1102.742188	4899.005371
1101.570313	4887.510254
1100.396484	4905.868164
1099.224609	4875.189941
1098.050781	4880.755371
1096.878906	4847.960938
1095.705078	5038.891113
1094.531250	4978.387695
1093.357422	5011.619141
1092.183594	5232.237305
1091.009766	5101.468750
1089.835938	5062.282715
1088.660156	5072.063477
1087.486328	5122.274902
1086.310547	5225.661621
1085.134766	5320.503418
1083.960938	5291.947266
1082.785156	5405.884766
1081.609375	5249.748047
1080.433594	5308.379883
1079.257813	5418.004883
1078.080078	5512.716309
1076.904297	5280.173340
1075.726563	5489.595703
1074.550781	5647.968750
1073.373047	5649.131348
1072.195313	5590.838867
1071.017578	5674.808105
1069.839844	5786.342773
1068.662109	5755.645508
1067.484375	5684.642578
1066.306641	5798.239258
1065.126953	5852.403809
1063.949219	5821.715332
1062.769531	5911.905273
1061.589844	6144.112305
1060.410156	5952.287598
1059.230469	6025.453125
1058.050781	6030.784180
1056.871094	5970.434570
1055.691406	6191.841309
1054.511719	6161.135254
1053.330078	6172.791504
1052.150391	6260.664063
1050.968750	6346.389648
1049.787109	6362.241211
1048.605469	6386.551270
1047.423828	6544.147949
1046.242188	6447.838867
1045.060547	6476.351563
1043.878906	6498.509766
1042.695313	6537.575684
1041.513672	6578.741699
1040.330078	6643.143066
1039.148438	6701.183105
1037.964844	6628.202148
1036.781250	6876.354004
1035.597656	6832.937988
1034.414063	6861.339355
1033.230469	6919.291504
1032.044922	6894.889648
1030.861328	6988.698730
1029.675781	6949.520508
1028.492188	6910.355469
1027.306641	6892.299805
1026.121094	6958.623047
1024.935547	7077.646973
1023.750000	7205.064941
1022.564453	7062.584961
1021.378906	7187.853027
1020.191406	7028.563965
1019.005859	7316.045898
1017.818359	7300.050781
1016.632813	7372.531250
1015.445313	7225.954590
1014.257813	7262.625488
1013.070313	7343.496094
1011.882813	7209.628418
1010.695313	7313.630859
1009.507813	7276.610352
1008.318359	7321.655762
1007.130859	7263.610352
1005.941406	7340.189941
1004.751953	7336.834961
1003.564453	7594.189453
1002.375000	7220.816895
1001.185547	7360.403320
999.996094	7460.015625
998.804688	7452.439453
997.615234	7455.369141
996.425781	7554.913086
995.234375	7385.625488
994.042969	7464.150879
992.853516	7511.159668
991.662109	7503.581055
990.470703	7579.946777
989.279297	7274.415527
988.087891	7493.445801
986.894531	7523.628906
985.703125	7446.848633
984.511719	7554.608398
983.318359	7414.956543
982.125000	7409.498535
980.933594	7385.180664
979.740234	7434.207520
978.546875	7504.166992
977.353516	7507.074707
976.158203	7363.383789
974.964844	7533.825195
973.771484	7354.588379
972.576172	7374.264160
971.382813	7316.498047
970.187500	7302.693848
968.992188	7485.551758
967.796875	7379.685547
966.601563	7301.043457
965.406250	7366.709473
964.210938	7315.274414
963.013672	7410.179199
961.818359	7241.716309
960.621094	7390.930664
959.425781	7310.275879
958.228516	7166.982422
957.031250	7520.808105
955.833984	7310.705566
954.636719	7418.022461
953.439453	7295.682129
952.242188	7450.967773
951.042969	7387.091797
949.845703	7298.200684
948.646484	7372.050293
947.447266	7128.851563
946.250000	7386.212891
945.050781	7366.185059
943.851563	7241.934082
942.650391	7367.834961
941.451172	7289.471191
940.251953	7369.482910
939.050781	7266.146484
937.851563	7329.471680
936.650391	7351.125488
935.449219	7349.868164
934.250000	7381.919434
933.048828	7107.993164
931.847656	7269.098633
930.644531	7213.757324
929.443359	7179.238281
928.242188	7240.409180
927.039063	7205.896973
925.837891	7277.438477
924.634766	7344.797363
923.431641	7168.941895
922.228516	7259.156250
921.025391	7118.698242
919.822266	7221.354492
918.619141	7062.256836
917.414063	7162.810547
916.210938	7113.826660
915.005859	7129.217773
913.802734	7140.451660
912.597656	7211.867188
911.392578	7061.232422
910.187500	7035.127930
908.982422	7085.781250
907.777344	7018.202148
906.572266	7083.354980
905.365234	7026.165039
904.160156	7066.419434
902.953125	6934.641113
901.746094	7053.639160
900.541016	6834.891602
899.333984	6767.434570
898.126953	7095.580078
896.919922	6910.068848
895.710938	6867.477539
894.503906	6800.060059
893.296875	6850.637695
892.087891	6905.335938
890.878906	6734.497559
889.671875	6723.000488
888.462891	6862.490723
887.253906	6654.524414
886.044922	6671.992188
884.833984	6575.757813
883.625000	6733.778320
882.416016	6554.906250
881.205078	6528.989258
879.996094	6536.133789
878.785156	6409.022461
877.574219	6337.711426
876.363281	6334.560547
875.152344	6372.697754
873.941406	6350.965332
872.730469	6325.112793
871.517578	6361.167969
870.306641	6308.503906
869.093750	6408.489746
867.880859	6279.531738
866.669922	6218.660156
865.457031	6256.763184
864.244141	6354.626953
863.031250	6139.211426
861.816406	6119.614258
860.603516	6198.909668
859.390625	6193.727051
858.175781	6075.277832
856.962891	6191.602539
855.748047	6106.133301
854.533203	5897.191895
853.318359	5916.760742
852.103516	5961.014160
850.888672	6128.689941
849.671875	5975.424316
848.457031	5865.399902
847.242188	5792.425293
846.025391	5906.561035
844.808594	5845.937012
843.591797	5834.657715
842.376953	5909.685059
841.158203	5902.507813
839.941406	5852.195801
838.724609	5797.793457
837.507813	5784.477539
836.289063	5875.873047
835.072266	5917.971191
833.853516	5880.012695
832.634766	5716.895020
831.416016	5839.012695
830.197266	5749.804199
828.978516	5884.179688
827.759766	5723.222656
826.541016	5857.556641
825.320313	5758.155762
824.101563	5773.563477
822.880859	5702.899414
821.660156	5751.092285
820.441406	5750.104492
819.220703	5876.101074
818.000000	5696.934570
816.777344	5822.896973
815.556641	5862.838379
814.335938	5718.560547
813.113281	5938.586914
811.892578	5735.009766
810.669922	5905.861328
809.447266	5896.665527
808.224609	5719.784668
807.001953	5757.649414
805.779297	5815.943848
804.556641	5763.846680
803.332031	5881.382813
802.109375	5710.785645
800.884766	5785.389648
799.662109	5849.755859
798.437500	5881.425293
797.212891	5853.870605
795.988281	5787.537598
794.763672	5747.761719
793.539063	5944.727051
792.312500	5796.795898
791.087891	5793.759277
789.861328	5827.437988
788.636719	5695.917480
787.410156	5880.487305
786.183594	5918.210449
784.957031	5835.660645
783.730469	5936.554688
782.503906	5872.368164
781.277344	5842.836426
780.048828	5935.528809
778.822266	5808.242188
777.593750	5835.749512
776.365234	5879.534668
775.136719	5937.552734
773.908203	5708.594238
772.679688	5799.178223
771.451172	5853.110352
770.222656	5801.250977
768.994141	5944.648926
767.763672	5965.993652
766.535156	5918.206543
765.304688	5929.384277
764.074219	5843.005371
762.843750	5841.999512
761.613281	5995.399902
760.382813	5860.301758
759.152344	5869.447754
757.919922	5909.049805
756.689453	5968.939941
755.457031	6004.450684
754.226563	5942.530273
752.994141	5880.631348
751.761719	6023.667480
750.529297	6069.285645
749.296875	5912.072754
748.064453	6034.750977
746.830078	5972.887695
745.597656	6004.292969
744.363281	5995.151855
743.130859	6105.571777
741.896484	5922.174805
740.662109	6038.645996
739.427734	6191.533203
738.193359	6241.092285
736.958984	6213.696289
735.722656	6220.723145
734.488281	6175.124023
733.251953	6202.390625
732.017578	6245.833984
730.781250	5925.136230
729.544922	6322.562012
728.308594	6303.272461
727.072266	6150.545410
725.835938	6331.422852
724.599609	6291.929688
723.361328	6379.761719
722.125000	6186.716309
720.886719	6207.871094
719.648438	6192.662598
718.412109	6326.897461
717.173828	6335.901855
715.935547	6332.791016
714.695313	6307.478516
713.457031	6296.300781
712.218750	6392.064453
710.978516	6243.695801
709.740234	6359.604980
708.500000	6421.024902
707.259766	6442.096680
706.019531	6279.708984
704.779297	6270.563477
703.539063	6440.779297
702.298828	6465.862305
701.056641	6317.683594
699.816406	6552.257324
698.574219	6448.419434
697.333984	6392.941895
696.091797	6418.010254
694.849609	6394.761719
693.607422	6510.382324
692.365234	6545.477051
691.121094	6608.725098
689.878906	6265.639648
688.636719	6415.390137
687.392578	6559.056641
686.148438	6429.259277
684.904297	6468.350586
683.662109	6457.185547
682.417969	6500.276855
681.171875	6525.271973
679.927734	6421.703613
678.683594	6601.343262
677.437500	6529.924805
676.193359	6611.109863
674.947266	6405.226074
673.701172	6564.674316
672.455078	6535.448730
671.208984	6652.688477
669.962891	6647.527344
668.716797	6548.107910
667.470703	6565.023438
666.222656	6618.020508
664.976563	6646.945313
663.728516	6497.489258
662.480469	6642.645020
661.232422	6687.577637
659.984375	6466.078613
658.736328	6713.305664
657.488281	6519.912598
656.240234	6604.875488
654.990234	6657.781250
653.742188	6688.652832
652.492188	6525.412598
651.242188	6514.281250
649.992188	6669.183105
648.742188	6578.029785
647.492188	6688.874023
646.242188	6605.746094
644.992188	6484.666016
643.740234	6673.414551
642.490234	6728.212402
641.238281	6559.222656
639.986328	6620.014160
638.734375	6572.932617
637.482422	6617.725098
636.230469	6520.746094
634.978516	6485.683105
633.726563	6554.416504
632.472656	6726.893066
631.220703	6558.135254
629.966797	6612.855957
628.712891	6679.524902
627.458984	6508.867676
626.205078	6605.437500
624.951172	6636.190430
623.697266	6704.800781
622.443359	6689.691406
621.187500	6816.048828
619.933594	6579.805176
618.677734	6793.772949
617.421875	6806.537109
616.167969	6701.825195
614.912109	6724.553711
613.654297	6755.235840
612.398438	6907.296875
611.142578	6896.152832
609.884766	6942.703125
608.628906	6883.821289
607.371094	6916.436035
606.113281	6982.840332
604.857422	6910.065918
603.599609	7063.901855
602.339844	6983.188965
601.082031	7013.770020
599.824219	7002.623047
598.564453	7142.431641
597.306641	7143.180664
596.046875	7310.713379
594.787109	7367.017578
593.529297	7161.303223
592.269531	7128.311035
591.007813	7275.887695
589.748047	7459.122070
588.488281	7356.672852
587.226563	7426.791016
585.966797	7356.106934
584.705078	7329.061035
583.443359	7516.089844
582.183594	7382.010742
580.921875	7485.746094
579.658203	7496.334961
578.396484	7548.515625
577.134766	7614.540039
575.871094	7535.999512
574.609375	7752.458984
573.345703	7584.850098
572.082031	7613.220703
570.818359	7645.538086
569.554688	7741.150391
568.291016	7674.535156
567.027344	7605.965332
565.763672	7839.943848
564.498047	7889.985352
563.234375	7766.067871
561.968750	7748.911133
560.703125	7767.326660
559.437500	7839.076172
558.171875	7748.831055
556.906250	7790.935059
555.640625	7833.023438
554.375000	7938.271973
553.107422	7927.025879
551.839844	7584.231934
550.574219	7715.119141
549.306641	7796.639648
548.039063	7795.287109
546.771484	7912.263672
545.503906	7786.666992
544.236328	7793.202148
542.966797	7918.001465
541.699219	7956.043457
540.429688	8011.805176
539.160156	7933.581055
537.892578	8038.570801
536.623047	8001.726563
535.353516	7880.224121
534.082031	7973.355469
532.812500	8021.181152
531.542969	8143.775391
530.271484	8038.073730
529.001953	8192.099609
527.730469	8137.567871
526.458984	8027.987305
525.187500	8056.088867
523.916016	8206.071289
522.644531	8181.058594
521.373047	8401.718750
520.099609	8276.465820
518.828125	8269.134766
517.554688	8350.199219
516.281250	8297.685547
515.007813	8394.424805
513.734375	8186.823730
512.460938	8383.657227
511.187500	8433.227539
509.914063	8392.517578
508.638672	8548.011719
507.365234	8493.564453
506.089844	8572.499023
504.814453	8588.657227
503.541016	8677.349609
502.265625	8546.467773
500.988281	8627.296875
499.712891	8894.251953
498.437500	8669.359375
497.160156	8677.646484
495.884766	8588.005859
494.607422	8707.918945
493.330078	8782.759766
492.052734	8812.552734
490.775391	8587.907227
489.498047	8739.043945
488.220703	8694.482422
486.943359	8589.296875
485.664063	8552.598633
484.386719	8772.075195
483.107422	8881.990234
481.828125	8702.563477
480.548828	8564.240234
479.269531	8685.857422
477.990234	8742.958984
476.710938	8471.869141
475.429688	8482.114258
474.150391	8535.314453
472.869141	8641.209961
471.589844	8557.721680
470.308594	8704.561523
469.027344	8470.834961
467.746094	8520.087891
466.464844	8582.977539
465.181641	8433.257813
463.900391	8472.740234
462.617188	8508.309570
461.335938	8547.763672
460.052734	8357.225586
458.769531	8550.634766
457.486328	8582.267578
456.203125	8553.501953
454.919922	8462.421875
453.634766	8490.158203
452.351563	8601.602539
451.066406	8545.599609
449.783203	8577.198242
448.498047	8488.137695
447.212891	8539.190430
445.927734	8679.707031
444.642578	8812.394531
443.357422	8768.079102
442.070313	8632.399414
440.785156	8642.558594
439.498047	8769.328125
438.212891	8866.904297
436.925781	8886.731445
435.638672	8793.883789
434.351563	8784.583008
433.064453	8816.064453
431.775391	8876.657227
430.488281	8956.639648
429.199219	9120.051758
427.912109	8953.518555
426.623047	9068.368164
425.333984	9221.974609
424.044922	9047.751953
422.755859	9020.965820
421.466797	9168.682617
420.177734	9112.806641
418.886719	9239.135742
417.597656	9066.998047
416.306641	9123.541016
415.015625	9251.738281
413.724609	9219.136719
412.433594	9389.874023
411.142578	9312.727539
409.851563	9407.892578
408.560547	9305.608398
407.267578	9303.986328
405.976563	9172.733398
404.683594	9354.904297
403.390625	9320.393555
402.097656	9392.250000
400.804688	9218.537109
399.511719	9269.122070
398.218750	9449.182617
396.923828	9082.309570
395.630859	9374.399414
394.335938	9264.586914
393.042969	9150.949219
391.748047	9101.076172
390.453125	9398.749023
389.158203	9296.728516
387.861328	9171.583008
386.566406	8990.519531
385.271484	9042.972656
383.974609	9120.484375
382.677734	9043.672852
381.382813	9049.807617
380.085938	9225.606445
378.789063	8990.745117
377.492188	9018.084961
376.193359	8987.605469
374.896484	9018.790039
373.599609	8990.246094
372.300781	8971.341797
371.001953	9108.422852
369.705078	9179.995117
368.406250	9224.591797
367.107422	9113.274414
365.806641	9150.168945
364.507813	9187.050781
363.208984	9081.568359
361.908203	9210.767578
360.609375	9216.849609
359.308594	9172.941406
358.007813	9230.930664
356.707031	9285.054688
355.406250	9252.685547
354.105469	9039.725586
352.802734	9209.111328
351.501953	9466.787109
350.199219	9259.661133
348.898438	9423.159180
347.595703	9102.854492
346.292969	9346.931641
344.990234	9042.103516
343.687500	9257.326172
342.382813	9169.384766
341.080078	9315.463867
339.777344	9114.403320
338.472656	9306.454102
337.167969	9153.388672
335.863281	9119.206055
334.558594	9144.438477
333.253906	9217.560547
331.949219	9344.293945
330.644531	9191.353516
329.337891	9168.681641
328.033203	9237.917969
326.726563	9286.072266
325.419922	9261.480469
324.113281	9263.687500
322.806641	9304.158203
321.500000	9392.437500
320.193359	9415.657227
318.886719	9438.869141
317.578125	9370.299805
316.271484	9529.233398
314.962891	9535.209961
313.654297	9399.777344
312.345703	9367.562500
311.037109	9409.858398
309.728516	9431.130859
308.419922	9261.436523
307.109375	9414.463867
305.800781	9678.153320
304.490234	9453.156250
303.179688	9453.409180
301.869141	9434.583008
300.558594	9497.788086
299.248047	9557.156250
297.937500	9395.302734
296.625000	9416.536133
295.314453	9308.137695
294.001953	9388.460938
292.691406	9169.582031
291.378906	9390.887695
290.066406	9257.804688
288.753906	9075.249023
287.441406	9195.530273
286.126953	9064.454102
284.814453	9079.998047
283.500000	8958.502930
282.187500	9246.173828
280.873047	9105.666016
279.558594	9128.798828
278.244141	9186.158203
276.929688	9228.284180
275.615234	9165.827148
274.298828	9130.003906
272.984375	9006.767578
271.667969	9008.989258
270.351563	9035.908203
269.037109	9041.921875
267.720703	9065.027344
266.404297	9120.404297
265.085938	8946.036133
263.769531	9067.851563
262.453125	8990.345703
261.134766	9169.038086
259.816406	9140.868164
258.500000	9042.523438
257.181641	9118.696289
255.863281	9020.388672
254.544922	9071.891602
253.224609	9159.392578
251.906250	9023.223633
250.585938	9093.646484
249.267578	9114.786133
247.947266	8882.089844
246.626953	9073.708984
245.306641	9134.605469
243.986328	9009.941406
242.666016	9311.225586
241.345703	9067.341797
240.023438	9113.056641
238.703125	9177.673828
237.380859	9200.653320
236.058594	9132.844727
234.736328	9165.277344
233.414063	9209.041992
232.091797	9407.792969
230.769531	9368.341797
229.445313	9374.255859
228.123047	9298.928711
226.798828	9306.740234
225.476563	9412.755859
224.152344	9471.527344
222.828125	9316.941406
221.503906	9383.257813
220.177734	9304.231445
218.853516	9457.326172
217.527344	9344.355469
216.203125	9429.482422
214.876953	9109.101563
213.550781	9273.434570
212.224609	9400.003906
210.898438	9170.273438
209.572266	9311.893555
208.246094	9364.901367
206.917969	9408.470703
205.591797	9310.751953
204.263672	9286.515625
202.935547	9465.648438
201.609375	9482.810547
200.281250	9503.731445
198.951172	9475.712891
197.623047	9547.430664
196.294922	9698.138672
194.964844	9606.146484
193.636719	9627.025391
192.306641	9651.656250
190.976563	9680.039063
189.646484	9736.606445
188.316406	9832.618164
186.986328	9900.412109
185.654297	9847.947266
184.324219	10041.561523
182.992188	10086.745117
181.662109	10092.481445
180.330078	10193.958984
178.998047	10235.336914
177.666016	10141.579102
176.333984	10173.569336
175.000000	10293.720703
173.667969	10250.643555
172.333984	10271.344727
171.001953	10170.160156
169.667969	10175.869141
168.333984	10380.258789
167.000000	10322.210938
165.666016	10305.404297
164.332031	10376.651367
162.996094	10273.680664
161.662109	10350.526367
160.326172	10401.130859
158.992188	10459.205078
157.656250	10360.034180
156.320313	10627.691406
154.984375	10549.106445
153.646484	10494.867188
152.310547	10610.855469
150.974609	10466.860352
149.636719	10670.689453
148.298828	10812.755859
146.960938	10752.909180
145.625000	10633.283203
144.285156	10904.201172
142.947266	11132.057617
141.609375	11021.765625
140.271484	11367.168945
138.931641	11094.433594
137.591797	11282.891602
136.253906	11402.223633
134.914063	11198.671875
133.574219	11323.573242
132.232422	11504.393555
130.892578	11547.129883
129.552734	11591.714844
128.210938	11444.241211
126.871094	11652.874023
125.529297	11703.007813
124.187500	11680.445313
122.845703	11918.736328
121.503906	11694.956055
120.162109	11664.956055
118.818359	11806.287109
117.476563	11858.199219
116.132813	11835.631836
114.789063	11891.241211
113.447266	11706.778320
112.103516	11710.294922
110.759766	11764.036133
109.414063	12212.054688
108.070313	12304.738281
106.726563	12259.804688
105.380859	12157.260742
104.035156	11893.056641
102.689453	12151.113281
101.345703	12193.559570
99.998047	12256.423828
98.652344	12350.838867
97.306641	12298.521484
95.960938	12457.875977
94.613281	12819.509766
93.265625	12895.197266
91.919922	13022.815430
90.572266	12823.853516
89.224609	12624.962891
87.875000	12741.431641
86.527344	12937.593750
85.179688	13128.125000
83.830078	13355.661133
82.482422	13229.129883
81.132813	12806.160156
79.783203	12735.348633
78.433594	12986.873047
77.083984	13027.175781
75.734375	13169.307617
74.382813	13017.019531
73.033203	13170.208984
71.681641	12910.631836
70.330078	12823.232422
68.978516	12741.414063
67.626953	12561.587891
66.275391	12363.331055
64.923828	12231.709961
63.572266	12248.036133
62.218750	12467.683594
60.867188	12467.328125
59.513672	12180.567383
58.160156	11472.686523
56.806641	10927.603516
55.453125	10650.499023
54.099609	10434.424805
52.744141	10327.349609
51.390625	9869.606445
