#Wave		#Intensity
4002.113281	798.225708
4001.415039	844.759094
4000.716797	808.834167
4000.017578	876.692566
3999.319336	801.418701
3998.620117	822.752991
3997.920898	836.927246
3997.221680	822.488586
3996.522461	743.696228
3995.823242	822.224243
3995.124023	922.172913
3994.424805	771.927673
3993.724609	846.840088
3993.025391	778.824768
3992.325195	807.275757
3991.625000	796.431702
3990.924805	839.154114
3990.224609	789.035156
3989.524414	803.187256
3988.824219	845.887939
3988.124023	799.360596
3987.422852	809.936157
3986.721680	852.615112
3986.021484	841.777588
3985.320313	759.617859
3984.619141	859.335632
3983.917969	834.241577
3983.216797	834.107544
3982.514648	794.769653
3981.813477	844.529785
3981.112305	833.705566
3980.410156	876.318909
3979.708008	890.424927
3979.005859	819.059326
3978.303711	754.837708
3977.601563	882.875854
3976.899414	800.867554
3976.197266	886.151062
3975.494141	793.493713
3974.791992	843.173950
3974.088867	903.509644
3973.385742	892.694824
3972.682617	817.875793
3971.979492	767.968689
3971.276367	824.722717
3970.573242	828.144531
3969.869141	852.887390
3969.166016	785.240967
3968.461914	895.244080
3967.758789	887.996277
3967.054688	806.171143
3966.350586	862.855103
3965.646484	773.959717
3964.941406	887.425903
3964.237305	844.693726
3963.533203	791.329590
3962.828125	801.846497
3962.124023	766.243469
3961.418945	819.323181
3960.713867	900.756165
3960.008789	936.068604
3959.303711	794.112488
3958.598633	790.440369
3957.892578	783.225403
3957.187500	907.119873
3956.481445	857.374084
3955.776367	910.370850
3955.070313	878.349060
3954.364258	853.419861
3953.658203	853.282837
3952.952148	899.166077
3952.245117	799.916931
3951.539063	792.710693
3950.832031	842.119873
3950.125977	873.824402
3949.418945	916.130249
3948.711914	834.640991
3948.004883	894.619751
3947.297852	901.547058
3946.590820	883.727722
3945.883789	855.311096
3945.175781	791.565796
3944.468750	844.436829
3943.760742	823.105347
3943.052734	844.165649
3942.344727	822.841064
3941.636719	918.044312
3940.928711	826.107178
3940.220703	917.749512
3939.511719	907.014465
3938.803711	808.065979
3938.094727	836.161072
3937.386719	804.278992
3936.677734	818.257751
3935.968750	793.441528
3935.259766	825.046692
3934.550781	782.610901
3933.840820	874.127686
3933.131836	852.842529
3932.421875	877.370605
3931.712891	887.798767
3931.002930	866.521606
3930.292969	929.776306
3929.583008	774.689209
3928.873047	848.500549
3928.163086	813.162537
3927.452148	753.198425
3926.742188	728.444153
3926.031250	812.770935
3925.321289	904.106506
3924.610352	826.579468
3923.899414	784.245239
3923.188477	875.541321
3922.477539	871.885132
3921.765625	804.958252
3921.054688	850.518005
3920.342773	832.811584
3919.631836	815.110901
3918.919922	843.082825
3918.208008	804.312378
3917.496094	853.347290
3916.784180	842.676880
3916.072266	821.478088
3915.359375	856.446472
3914.647461	859.818481
3913.934570	884.242798
3913.222656	863.050842
3912.509766	778.725769
3911.796875	876.802673
3911.083984	908.221741
3910.371094	883.533386
3909.658203	841.325317
3908.944336	848.200195
3908.231445	848.064087
3907.517578	872.454773
3906.803711	931.870422
3906.089844	774.098877
3905.375977	914.060547
3904.662109	819.371094
3903.948242	833.243652
3903.234375	794.604858
3902.519531	815.476746
3901.805664	888.831970
3901.090820	913.180786
3900.375977	825.578857
3899.661133	800.962769
3898.946289	804.331299
3898.231445	884.622498
3897.516602	860.008728
3896.801758	856.375305
3896.085938	821.289368
3895.370117	810.674744
3894.655273	852.469360
3893.939453	901.236938
3893.223633	904.584900
3892.507813	782.218140
3891.791992	782.092651
3891.075195	855.276550
3890.359375	823.726013
3889.642578	834.063293
3888.925781	879.289612
3888.209961	882.637207
3887.493164	861.566833
3886.776367	816.090271
3886.059570	927.543518
3885.341797	969.232056
3884.625000	812.211609
3883.907227	857.390564
3883.190430	892.100647
3882.472656	829.241760
3881.754883	804.723145
3881.037109	860.323486
3880.319336	773.122192
3879.601563	793.889954
3878.883789	905.167908
3878.165039	856.290649
3877.447266	845.712402
3876.728516	835.137512
3876.009766	908.066284
3875.291016	883.570251
3874.572266	845.169800
3873.853516	921.539368
3873.134766	872.714233
3872.415039	865.621460
3871.696289	813.345093
3870.976563	771.511292
3870.256836	813.084106
3869.537109	795.582886
3868.817383	889.242554
3868.097656	889.099915
3867.377930	868.122314
3866.658203	885.342712
3865.937500	829.658691
3865.217773	832.996460
3864.497070	812.041260
3863.776367	853.547424
3863.055664	794.434998
3862.334961	846.336426
3861.614258	849.668701
3860.893555	825.260071
3860.171875	821.660767
3859.451172	890.856323
3858.729492	852.589478
3858.007813	824.730713
3857.287109	841.921875
3856.565430	817.537842
3855.842773	949.023071
3855.121094	914.240540
3854.399414	959.106079
3853.676758	900.099548
3852.955078	834.189209
3852.232422	834.055420
3851.509766	871.984497
3850.787109	861.465515
3850.064453	913.214539
3849.341797	864.647766
3848.619141	888.715393
3847.895508	909.317688
3847.172852	846.947205
3846.449219	815.703979
3845.725586	808.661499
3845.001953	863.816040
3844.278320	808.402161
3843.554688	911.897217
3842.831055	821.957275
3842.107422	828.731567
3841.382813	897.648560
3840.659180	838.821594
3839.934570	828.332886
3839.209961	855.806702
3838.485352	890.172302
3837.760742	848.632813
3837.036133	882.988464
3836.310547	806.977173
3835.585938	827.536194
3834.860352	782.585754
3834.135742	878.975220
3833.410156	865.048584
3832.684570	892.476746
3831.958984	850.989990
3831.233398	878.411499
3830.507813	909.268433
3829.781250	953.890015
3829.055664	826.342590
3828.329102	881.290771
3827.602539	884.591431
3826.875977	863.800964
3826.149414	832.694458
3825.422852	822.239929
3824.696289	859.945679
3823.969727	880.443176
3823.242188	869.985962
3822.515625	873.284607
3821.788086	928.145813
3821.060547	897.063721
3820.333008	865.991638
3819.605469	817.749817
3818.877930	862.278564
3818.150391	944.575989
3817.421875	793.316650
3816.694336	854.996399
3815.965820	878.891479
3815.237305	878.750549
3814.508789	796.240051
3813.780273	861.311218
3813.051758	871.466003
3812.323242	905.630493
3811.593750	816.308716
3810.865234	908.769409
3810.135742	870.907227
3809.407227	898.193359
3808.677734	911.760010
3807.948242	911.613831
3807.218750	870.348877
3806.488281	849.653198
3805.758789	921.451843
3805.029297	839.106018
3804.298828	883.488342
3803.568359	965.518494
3802.837891	838.702454
3802.107422	948.095276
3801.376953	835.011414
3800.646484	930.683167
3799.916016	821.059387
3799.185547	899.599976
3798.454102	861.835938
3797.722656	906.150391
3796.992188	940.194031
3796.260742	919.533264
3795.529297	844.194458
3794.796875	844.059082
3794.065430	850.757202
3793.333984	918.943726
3792.601563	826.575256
3791.870117	829.857788
3791.137695	928.745361
3790.405273	826.177795
3789.672852	867.006226
3788.940430	863.454407
3788.208008	839.429749
3787.474609	829.059875
3786.742188	880.095337
3786.008789	907.239685
3785.276367	941.195496
3784.542969	917.177551
3783.809570	944.302795
3783.076172	821.445862
3782.342773	838.353882
3781.608398	899.552612
3780.875000	875.560486
3780.140625	902.670593
3779.407227	837.816467
3778.672852	875.139526
3777.938477	926.069214
3777.204102	885.071350
3776.469727	823.665100
3775.735352	912.011841
3775.000000	864.230896
3774.265625	898.111755
3773.530273	897.967773
3772.794922	989.646729
3772.059570	938.483582
3771.324219	860.138733
3770.588867	897.392212
3769.853516	965.221741
3769.118164	897.104553
3768.381836	852.792236
3767.646484	896.816956
3766.910156	944.224121
3766.173828	889.737610
3765.437500	937.130615
3764.701172	858.898743
3763.964844	879.126953
3763.227539	916.317505
3762.491211	902.597717
3761.753906	892.275024
3761.017578	858.210632
3760.280273	905.555420
3759.542969	922.365479
3758.805664	932.389160
3758.068359	850.880615
3757.331055	928.700928
3756.592773	925.163208
3755.855469	826.753235
3755.117188	819.845154
3754.378906	938.267456
3753.640625	880.543091
3752.902344	961.669800
3752.164063	900.574585
3751.425781	897.045166
3750.686523	947.669373
3749.948242	879.837708
3749.208984	906.764282
3748.470703	913.384766
3747.731445	957.209106
3746.992188	909.710205
3746.252930	909.564392
3745.512695	868.849792
3744.773438	987.017395
3744.034180	905.747498
3743.293945	878.569458
3742.553711	939.242981
3741.813477	888.421997
3741.073242	901.789551
3740.333008	928.660645
3739.592773	833.972412
3738.852539	921.611267
3738.111328	955.216797
3737.371094	867.319336
3736.629883	931.290955
3735.888672	964.878784
3735.147461	883.768250
3734.406250	833.037354
3733.665039	880.112976
3732.923828	971.003479
3732.181641	910.169922
3731.440430	963.951416
3730.698242	852.589600
3729.956055	862.561096
3729.214844	976.963379
3728.472656	939.755554
3727.729492	868.882019
3726.987305	942.821594
3726.245117	1013.370789
3725.501953	945.885620
3724.759766	878.421997
3724.016602	885.011353
3723.273438	851.224304
3722.530273	945.279480
3721.787109	975.398987
3721.043945	897.895874
3720.299805	978.448792
3719.556641	860.627991
3718.812500	873.935242
3718.068359	941.010254
3717.325195	910.617554
3716.581055	903.752258
3715.835938	933.839661
3715.091797	963.917419
3714.347656	886.527588
3713.602539	872.955444
3712.858398	916.456360
3712.113281	923.022400
3711.368164	1010.128052
3710.623047	822.065552
3709.877930	892.385254
3709.132813	935.848083
3708.387695	851.854248
3707.641602	942.254639
3706.896484	918.634888
3706.150391	881.614136
3705.404297	965.263062
3704.658203	911.491272
3703.912109	891.242004
3703.166016	941.349121
3702.419922	901.004761
3701.672852	997.979187
3700.926758	907.412842
3700.179688	913.963135
3699.432617	920.511353
3698.685547	866.815430
3697.938477	926.908875
3697.191406	846.463440
3696.444336	926.611877
3695.696289	886.327820
3694.949219	902.906250
3694.201172	919.479431
3693.454102	862.500610
3692.706055	902.472351
3691.958008	888.959900
3691.208984	885.476074
3690.460938	892.015930
3689.712891	875.171265
3688.963867	968.545837
3688.215820	938.337158
3687.466797	978.251709
3686.717773	951.389343
3685.968750	977.938293
3685.219727	961.095886
3684.470703	914.229431
3683.720703	940.771545
3682.971680	870.574585
3682.221680	900.450073
3681.471680	943.653870
3680.722656	903.495483
3679.972656	940.018127
3679.221680	939.867493
3678.471680	973.040222
3677.721680	1056.179199
3676.970703	969.397156
3676.220703	932.603882
3675.469727	919.133667
3674.718750	855.722839
3673.967773	965.446960
3673.216797	985.263855
3672.465820	978.449829
3671.714844	955.000427
3670.962891	974.809387
3670.211914	1007.917786
3669.459961	934.585876
3668.708008	924.459961
3667.956055	927.636719
3667.204102	1030.542358
3666.452148	880.806335
3665.699219	1010.272583
3664.947266	986.851563
3664.194336	986.693481
3663.442383	989.857056
3662.689453	983.056213
3661.936523	972.936890
3661.183594	926.299988
3660.430664	942.749329
3659.676758	975.788330
3658.923828	929.173340
3658.169922	945.614197
3657.416992	978.636841
3656.663086	965.212524
3655.909180	955.108826
3655.155273	1067.693604
3654.401367	1047.630859
3653.646484	977.853149
3652.892578	1007.524536
3652.137695	934.461853
3651.383789	974.070068
3650.628906	1000.415100
3649.874023	1003.566895
3649.119141	970.290405
3648.364258	996.623291
3647.609375	933.563965
3646.853516	1049.263672
3646.098633	979.597107
3645.342773	1082.016724
3644.586914	989.208435
3643.831055	969.202820
3643.075195	988.891541
3642.319336	1051.562256
3641.563477	948.899475
3640.806641	1064.448364
3640.050781	948.595459
3639.293945	1034.365112
3638.537109	954.899841
3637.780273	1040.640991
3637.023438	1093.323853
3636.266602	1096.451172
3635.509766	974.100281
3634.752930	987.150208
3633.995117	1053.011597
3633.237305	1036.340698
3632.480469	1019.675049
3631.722656	1012.912903
3630.964844	1098.521118
3630.207031	992.798401
3629.448242	1081.680054
3628.690430	1078.209473
3627.931641	1015.398560
3627.173828	1081.160278
3626.415039	1143.605225
3625.656250	1024.796143
3624.897461	1054.283691
3624.138672	1004.703125
3623.379883	974.899963
3622.620117	1070.242310
3621.861328	1056.900757
3621.101563	1119.279419
3620.341797	1020.355957
3619.582031	1059.683838
3618.822266	1010.157837
3618.062500	1026.445435
3617.302734	1124.961914
3616.542969	1059.005005
3615.782227	996.357422
3615.021484	973.183350
3614.261719	1051.921509
3613.500977	999.165405
3612.740234	1094.305176
3611.979492	1044.844727
3611.217773	1080.813965
3610.457031	1116.771729
3609.695313	1106.740479
3608.934570	1060.593140
3608.172852	1073.555420
3607.411133	1099.643555
3606.649414	1112.595459
3605.887695	1082.884033
3605.125977	1099.115234
3604.363281	1108.780396
3603.601563	1029.885376
3602.838867	990.368042
3602.076172	1068.901489
3601.314453	1117.904907
3600.551758	1012.836670
3599.788086	1032.338013
3599.025391	986.298218
3598.262695	1038.559692
3597.499023	1067.874512
3596.736328	1129.931519
3595.972656	1067.532349
3595.208984	1113.198975
3594.445313	1073.737549
3593.681641	1073.565552
3592.916992	1021.032837
3592.153320	1037.229370
3591.389648	1105.764526
3590.625000	1066.335815
3589.860352	1072.705811
3589.095703	1121.582764
3588.331055	1111.594971
3587.566406	1052.577148
3586.801758	1147.190674
3586.036133	1107.792969
3585.271484	1071.675171
3584.505859	1166.239990
3583.741211	1077.864258
3582.975586	1031.971436
3582.209961	1057.927734
3581.443359	979.405762
3580.677734	998.833862
3579.912109	1018.255676
3579.145508	1125.775391
3578.379883	1089.706543
3577.613281	1102.580200
3576.846680	1056.741943
3576.080078	1079.399780
3575.313477	1062.924316
3574.545898	1059.494141
3573.779297	1091.918945
3573.012695	1091.744019
3572.245117	1098.085938
3571.477539	1163.067871
3570.709961	1074.932495
3569.942383	1100.815063
3569.174805	1120.176758
3568.407227	1090.695068
3567.638672	1093.775513
3566.871094	1070.817017
3566.102539	1018.577576
3565.333984	1028.175537
3564.565430	1115.847168
3563.796875	1102.657715
3563.028320	1082.968140
3562.259766	1086.046265
3561.490234	1066.365601
3560.721680	1072.695923
3559.952148	1040.023315
3559.182617	1091.849609
3558.413086	1133.912109
3557.643555	1114.239380
3556.874023	1110.812866
3556.104492	1074.912720
3555.333984	1048.764893
3554.564453	1064.828979
3553.793945	1058.166626
3553.023438	1080.714844
3552.252930	1122.724976
3551.482422	1119.300781
3550.711914	1051.000977
3549.941406	1161.105225
3549.169922	1037.693115
3548.399414	1031.042358
3547.627930	1043.844116
3546.856445	1089.054199
3546.084961	1140.731079
3545.313477	1095.185547
3544.541992	1085.291138
3543.770508	1117.508789
3542.998047	1016.932007
3542.226563	1071.817139
3541.454102	1078.120605
3540.681641	1009.969177
3539.909180	1084.248291
3539.136719	1080.838501
3538.364258	1009.483826
3537.591797	1083.727173
3536.818359	1135.305420
3536.045898	1041.338379
3535.272461	1079.973022
3534.499023	1047.470581
3533.725586	1111.951050
3532.952148	1124.700562
3532.178711	1040.504395
3531.404297	943.411865
3530.630859	1091.856567
3529.856445	1195.036133
3529.082031	1017.232605
3528.308594	1007.383240
3527.534180	1052.417725
3526.759766	1078.071167
3525.984375	1045.625977
3525.209961	1106.766235
3524.434570	1067.874390
3523.660156	1058.026245
3522.884766	1028.830200
3522.109375	1038.339355
3521.333984	1041.397095
3520.558594	1063.795654
3519.783203	1076.517578
3519.006836	1011.893311
3518.231445	1069.728516
3517.455078	966.467285
3516.678711	1021.070129
3515.902344	1094.978638
3515.125977	1062.603027
3514.349609	1020.579407
3513.573242	997.883057
3512.796875	1081.403198
3512.019531	1003.999207
3511.242188	1032.795166
3510.465820	1174.173950
3509.688477	1013.165833
3508.911133	1035.514771
3508.132813	1125.379150
3507.355469	1035.182861
3506.578125	1018.945374
3505.799805	1076.630859
3505.021484	1131.084595
3504.244141	1012.030029
3503.465820	1031.141602
3502.687500	1098.423340
3501.908203	1072.557373
3501.129883	998.538635
3500.351563	1094.685303
3499.572266	995.008972
3498.792969	1033.359863
3498.014648	1052.446289
3497.235352	1084.359253
3496.455078	1032.863159
3495.675781	1144.947388
3494.896484	1074.218262
3494.116211	1067.633911
3493.336914	1064.257324
3492.556641	1128.188354
3491.776367	1115.189331
3490.996094	1044.521484
3490.215820	1066.778809
3489.435547	1069.810913
3488.655273	1024.804321
3487.874023	1066.266113
3487.092773	1027.677368
3486.312500	998.703979
3485.531250	1059.352661
3484.750000	1100.782227
3483.968750	1011.021667
3483.186523	1094.031616
3482.405273	1100.253174
3481.623047	1100.076904
3480.841797	1103.098022
3480.059570	1054.968140
3479.277344	955.711853
3478.495117	1064.217529
3477.712891	1086.414429
3476.930664	1073.461060
3476.147461	1050.928833
3475.365234	1015.628601
3474.582031	1056.978638
3473.798828	1098.315308
3473.015625	1011.948120
3472.232422	1059.662231
3471.449219	1018.006348
3470.666016	1088.039307
3469.881836	1049.582275
3469.098633	1036.655273
3468.314453	1077.948730
3467.530273	1112.851440
3466.746094	1150.931274
3465.961914	1064.679810
3465.177734	1042.199219
3464.392578	1121.698242
3463.608398	1080.098755
3462.823242	1095.853760
3462.039063	1079.752563
3461.253906	1028.625977
3460.468750	952.042908
3459.683594	1066.499268
3458.897461	1015.399231
3458.112305	1082.070190
3457.326172	1027.802002
3456.541016	1119.901855
3455.754883	1068.825928
3454.968750	1087.737793
3454.182617	1008.063171
3453.396484	1046.055664
3452.610352	1068.140991
3451.823242	1115.646973
3451.037109	1064.620605
3450.250000	1045.385254
3449.462891	1064.279419
3448.675781	997.403503
3447.888672	1022.651123
3447.101563	1070.118652
3446.314453	1076.296997
3445.526367	1098.345337
3444.739258	1028.343506
3443.951172	1129.727173
3443.163086	1008.976624
3442.375000	1043.711060
3441.586914	1046.715576
3440.798828	1018.005615
3440.009766	1090.771973
3439.221680	1024.020020
3438.432617	1058.723999
3437.644531	1064.892944
3436.855469	1036.203003
3436.066406	1124.749512
3435.277344	1061.213257
3434.487305	1102.217896
3433.698242	1105.208130
3432.908203	1162.023926
3432.119141	1025.709595
3431.329102	1060.363037
3430.539063	987.403687
3429.749023	1012.559448
3428.958984	1081.999390
3428.168945	980.602539
3427.377930	1008.909912
3426.587891	1071.992554
3425.796875	1062.335571
3425.005859	1055.842896
3424.214844	1074.637817
3423.423828	1020.742310
3422.632813	1030.057739
3421.840820	954.072327
3421.049805	1058.155640
3420.257813	1095.884033
3419.466797	1057.816406
3418.674805	1045.018311
3417.882813	1073.260620
3417.090820	1123.586792
3416.297852	1076.072144
3415.505859	1123.226685
3414.713867	1028.407837
3413.920898	977.777100
3413.127930	1144.761841
3412.334961	1059.444458
3411.541992	1106.563599
3410.749023	1100.082031
3409.956055	1137.724854
3409.162109	1077.671753
3408.369141	1071.197876
3407.575195	985.974060
3406.781250	1051.957031
3405.987305	963.614502
3405.193359	1039.025513
3404.399414	975.897827
3403.605469	1007.216919
3402.810547	1051.114136
3402.016602	1006.893982
3401.221680	1151.450439
3400.426758	1069.481934
3399.631836	1097.615723
3398.836914	1084.861694
3398.041992	1031.239380
3397.247070	1062.509155
3396.451172	1027.765747
3395.655273	971.035767
3394.860352	1002.300171
3394.064453	1068.110962
3393.268555	998.837769
3392.472656	979.834656
3391.675781	1051.897461
3390.879883	1036.031372
3390.083008	1042.143188
3389.287109	1016.868286
3388.490234	997.877380
3387.693359	1025.954712
3386.896484	1101.077515
3386.099609	994.260986
3385.301758	1009.781433
3384.504883	1084.870728
3383.707031	1018.862549
3382.909180	1078.253906
3382.112305	1068.679199
3381.314453	1068.507813
3380.515625	933.619568
3379.717773	1052.502930
3378.919922	1014.750854
3378.121094	1055.296875
3377.323242	939.282837
3376.524414	939.132202
3375.725586	1017.230103
3374.926758	1007.678711
3374.127930	1016.903931
3373.328125	1044.896729
3372.529297	1013.449890
3371.729492	1072.708618
3370.930664	1053.775024
3370.130859	1125.513916
3369.331055	1084.696411
3368.531250	1018.888489
3367.731445	1081.223633
3366.930664	1065.428101
3366.130859	1040.265869
3365.330078	949.519897
3364.529297	1024.317749
3363.729492	1095.969116
3362.928711	989.648132
3362.126953	1101.860474
3361.326172	1020.539917
3360.525391	979.810852
3359.723633	989.013489
3358.922852	991.974304
3358.121094	1085.382690
3357.319336	1082.090210
3356.517578	1081.916748
3355.715820	1050.569092
3354.913086	972.477661
3354.111328	1028.417236
3353.308594	1096.802490
3352.506836	1093.511108
3351.704102	993.658447
3350.901367	1118.075806
3350.098633	1064.959839
3349.294922	1036.768311
3348.492188	1014.811584
3347.688477	1005.311584
3346.885742	1048.717285
3346.082031	1070.328979
3345.278320	1095.044678
3344.474609	1013.998108
3343.670898	985.846130
3342.867188	1050.985962
3342.062500	988.638855
3341.258789	1031.998291
3340.454102	1075.343872
3339.649414	1056.526733
3338.844727	963.149292
3338.040039	1025.123535
3337.235352	1018.747253
3336.429688	1068.270874
3335.625000	1030.840210
3334.819336	1039.988281
3334.014648	1061.549072
3333.208984	1011.723633
3332.403320	1039.487915
3331.596680	1014.501526
3330.791016	1026.746582
3329.985352	1020.379028
3329.178711	1048.124023
3328.373047	1004.549438
3327.566406	1026.088013
3326.759766	1004.227173
3325.953125	1031.956787
3325.145508	1022.495850
3324.338867	1062.605591
3323.532227	1068.630005
3322.724609	1049.876709
3321.916992	1049.708374
3321.109375	1099.075806
3320.301758	993.652710
3319.494141	1024.443237
3318.686523	1064.507446
3317.878906	1039.584717
3317.070313	1008.482849
3316.261719	1033.065186
3315.454102	1032.899414
3314.645508	1082.205933
3313.836914	1063.483276
3313.027344	967.490845
3312.218750	1081.685181
3311.410156	1041.341309
3310.600586	1022.636963
3309.791016	994.671570
3308.981445	1133.496582
3308.171875	1056.113403
3307.362305	1037.418701
3306.552734	1061.948730
3305.743164	1080.297729
3304.932617	1006.058777
3304.122070	1033.667480
3303.312500	1018.076294
3302.501953	968.559570
3301.691406	1054.758667
3300.879883	1005.251953
3300.069336	1005.090698
3299.258789	1078.911987
3298.447266	998.603943
3297.635742	1032.341553
3296.824219	1019.851379
3296.012695	1016.607117
3295.201172	1022.604309
3294.389648	1022.440186
3293.578125	1025.355347
3292.765625	1025.190796
3291.953125	1111.214722
3291.141602	1067.949097
3290.329102	1046.237549
3289.516602	1002.996216
3288.703125	1088.968384
3287.890625	1070.339478
3287.078125	968.686340
3286.264648	1054.622559
3285.451172	1014.488586
3284.637695	1066.578979
3283.824219	1026.455933
3283.010742	1023.218506
3282.197266	989.259705
3281.383789	1059.750977
3280.569336	1053.438477
3279.754883	1047.127930
3278.940430	1046.959839
3278.126953	1031.442993
3277.311523	1068.108765
3276.497070	1046.455933
3275.682617	1018.673340
3274.867188	1039.984497
3274.052734	993.807922
3273.237305	987.514832
3272.421875	1070.147095
3271.606445	1057.712036
3270.791016	1014.627502
3269.975586	993.010742
3269.159180	1097.039429
3268.343750	1090.735718
3267.527344	1026.229858
3266.710938	1035.253784
3265.894531	1001.401306
3265.078125	1105.345093
3264.261719	998.018494
3263.445313	988.675537
3262.627930	1101.752563
3261.811523	1101.575684
3260.994141	1043.269531
3260.176758	1082.868408
3259.359375	1033.759277
3258.541992	1018.303528
3257.724609	972.277893
3256.906250	1109.686279
3256.088867	1118.677612
3255.270508	987.089783
3254.452148	1041.930664
3253.633789	1014.268188
3252.815430	992.723633
3251.997070	1087.239624
3251.177734	995.458496
3250.359375	1123.527344
3249.540039	1004.296631
3248.720703	1037.708374
3247.902344	1037.541748
3247.083008	1040.426270
3246.262695	973.145813
3245.443359	1049.242676
3244.624023	1039.925293
3243.803711	1000.119507
3242.983398	1018.250916
3242.163086	1091.243408
3241.342773	1024.019409
3240.522461	1054.326782
3239.702148	1084.624512
3238.881836	1072.265625
3238.060547	1023.361938
3237.240234	1044.514282
3236.418945	1077.838745
3235.597656	1022.869080
3234.776367	998.354797
3233.955078	986.021362
3233.132813	998.034241
3232.311523	1040.466187
3231.489258	1046.382690
3230.666992	1113.123779
3229.845703	1012.597595
3229.022461	1021.556030
3228.200195	1088.268921
3227.377930	1054.661133
3226.555664	1124.385986
3225.732422	1087.744751
3224.909180	1057.191040
3224.086914	1020.572266
3223.263672	1050.777710
3222.440430	992.916565
3221.616211	944.181885
3220.792969	1016.881470
3219.968750	995.473328
3219.145508	1052.968872
3218.321289	964.813599
3217.497070	1076.898804
3216.672852	1016.065308
3215.848633	1028.032349
3215.024414	1073.348022
3214.199219	1048.923096
3213.375000	1033.599243
3212.549805	1036.463867
3211.724609	1048.417847
3210.899414	1069.456909
3210.074219	1108.663940
3209.249023	1026.712280
3208.422852	1056.829102
3207.597656	1077.853027
3206.771484	1038.326538
3205.945313	992.759155
3205.119141	995.625916
3204.292969	1089.263794
3203.466797	1040.684814
3202.640625	1025.393921
3201.813477	1061.520508
3200.987305	1043.207275
3200.160156	1009.783386
3199.333008	1039.849365
3198.505859	1091.062012
3197.678711	1027.427979
3196.850586	1051.433838
3196.023438	1021.056213
3195.195313	1072.238892
3194.368164	1026.768066
3193.540039	1008.486572
3192.711914	987.192078
3191.883789	1047.402466
3191.055664	1086.467773
3190.226563	1038.013550
3189.398438	1016.727905
3188.569336	1143.258057
3187.740234	1091.802002
3186.911133	1031.315674
3186.082031	1079.390991
3185.252930	1097.305054
3184.423828	1094.114624
3183.593750	1066.816406
3182.763672	1123.894409
3181.934570	1105.637939
3181.104492	1099.436035
3180.274414	1093.236084
3179.444336	1050.903809
3178.613281	999.553101
3177.783203	1050.566162
3176.952148	993.212463
3176.122070	1071.293457
3175.291016	1032.007324
3174.459961	1076.965820
3173.628906	1058.745972
3172.796875	1136.766113
3171.965820	1103.508301
3171.133789	1112.350098
3170.302734	1082.112671
3169.470703	1121.008789
3168.638672	1129.843384
3167.806641	1009.485046
3166.974609	1051.377930
3166.141602	1063.222900
3165.309570	1015.004456
3164.476563	1074.891113
3163.644531	1032.690308
3162.811523	1050.533569
3161.978516	1053.365723
3161.144531	1086.202637
3160.311523	1152.029785
3159.478516	1043.859253
3158.644531	1151.659546
3157.810547	1061.515625
3156.977539	1025.367188
3156.143555	1073.165161
3155.308594	1040.023560
3154.474609	1060.833374
3153.640625	1081.636475
3152.805664	1102.432861
3151.970703	1021.383667
3151.136719	1024.214233
3150.301758	1071.958496
3149.466797	1050.829468
3148.630859	1047.667236
3147.795898	1098.377319
3146.959961	1041.345703
3146.125000	1074.089233
3145.289063	1085.882202
3144.453125	1079.725830
3143.617188	998.810120
3142.781250	1106.288452
3141.945313	1040.341919
3141.108398	1034.196655
3140.271484	1042.996094
3139.435547	1072.708862
3138.598633	1078.511597
3137.761719	1039.506104
3136.924805	1069.205078
3136.086914	916.740723
3135.250000	1140.516846
3134.412109	1032.867554
3133.575195	1059.563721
3132.737305	1023.582886
3131.899414	1136.799927
3131.061523	1100.818237
3130.222656	1076.779175
3129.384766	1049.765381
3128.545898	1097.305664
3127.708008	1049.427979
3126.869141	1064.163452
3126.030273	992.463501
3125.191406	1013.163208
3124.352539	1072.588501
3123.512695	1009.858521
3122.673828	1021.609985
3121.833984	1072.071289
3120.994141	1039.146484
3120.154297	991.347107
3119.314453	1062.624634
3118.474609	1053.525635
3117.634766	1136.672607
3116.793945	1029.386108
3115.954102	1067.890625
3115.113281	1052.848267
3114.272461	1115.125977
3113.431641	1114.946655
3112.590820	1076.122192
3111.750000	1025.421143
3110.908203	1093.606689
3110.067383	1066.689331
3109.225586	1069.488525
3108.383789	1006.939758
3107.541992	1063.204956
3106.700195	1045.217773
3105.858398	1030.205200
3105.015625	1080.502563
3104.173828	1026.906006
3103.331055	1112.797119
3102.488281	1180.858765
3101.645508	1127.271729
3100.802734	978.789063
3099.959961	1020.149353
3099.116211	1028.880493
3098.273438	1090.971558
3097.429688	1108.580811
3096.585938	1049.129639
3095.743164	1060.813599
3094.898438	1096.195313
3094.054688	1072.321289
3093.210938	1009.952332
3092.366211	1063.092529
3091.522461	1074.764771
3090.677734	1083.472778
3089.833008	1104.017334
3088.988281	1032.815186
3088.143555	1014.895813
3087.297852	1014.732544
3086.453125	1017.527222
3085.607422	1061.725342
3084.762695	1061.554565
3083.916992	1040.688232
3083.071289	1052.344971
3082.225586	1063.997925
3081.378906	1108.152832
3080.533203	1075.473999
3079.686523	1042.805664
3078.839844	1101.710815
3077.994141	1154.690674
3077.147461	968.484985
3076.299805	1056.895874
3075.453125	1062.629272
3074.606445	1103.776123
3073.758789	1112.450928
3072.912109	1056.215820
3072.064453	1085.544434
3071.216797	934.951660
3070.369141	1011.472656
3069.520508	1008.361450
3068.672852	1064.210327
3067.824219	1061.091553
3066.976563	1034.397827
3066.127930	1037.177979
3065.279297	1098.878174
3064.430664	1013.279541
3063.582031	1104.414795
3062.732422	1045.344360
3061.883789	1062.841187
3061.034180	1100.937988
3060.184570	1091.931274
3059.334961	1021.129822
3058.485352	1073.926270
3057.635742	1047.277344
3056.786133	1017.695618
3055.935547	1026.354370
3055.084961	1035.010254
3054.235352	1081.882080
3053.384766	1017.040649
3052.534180	1028.632813
3051.683594	1051.975098
3050.832031	1051.805786
3049.981445	1066.324097
3049.129883	1019.159546
3048.278320	1092.410156
3047.426758	1083.426025
3046.575195	1042.152710
3045.723633	1018.503601
3044.872070	1059.425415
3044.019531	1044.583740
3043.167969	1059.084351
3042.315430	1009.048157
3041.462891	1044.079468
3040.610352	1076.166992
3039.757813	1064.266357
3038.905273	1072.889160
3038.051758	1046.338257
3037.199219	1084.265625
3036.345703	1051.861328
3035.492188	1048.762573
3034.638672	1086.671143
3033.785156	1024.996338
3032.931641	1045.328003
3032.077148	1083.218750
3031.223633	1053.772949
3030.369141	1015.556458
3029.514648	1076.843262
3028.660156	1105.927246
3027.805664	1067.720825
3026.951172	1070.473633
3026.095703	988.420349
3025.241211	1087.672119
3024.385742	1046.569702
3023.530273	1107.782227
3022.674805	1031.620483
3021.819336	1008.078613
3020.963867	1063.424805
3020.107422	1045.727417
3019.251953	995.909546
3018.395508	1095.032104
3017.539063	1042.302612
3016.682617	995.428528
3015.826172	1091.584473
3014.969727	1062.226685
3014.113281	1067.891113
3013.255859	1105.643555
3012.398438	1023.795227
3011.541992	991.550781
3010.684570	1035.128906
3009.827148	1043.708374
3008.968750	1066.859619
3008.111328	1063.773438
3007.252930	1101.483765
3006.395508	1045.949707
3005.537109	1034.129028
3004.678711	1028.137451
3003.820313	1048.356567
3002.961914	1004.513184
3002.102539	1117.886719
3001.244141	1094.421143
3000.384766	1114.616455
2999.525391	1111.527100
2998.666016	1056.071655
2997.806641	1038.448608
2996.947266	1047.006348
2996.087891	1006.127380
2995.227539	1069.928467
2994.367188	1072.662964
2993.507813	1081.209717
2992.647461	993.855225
2991.787109	1031.467163
2990.925781	1080.687256
2990.065430	1109.559204
2989.205078	1068.722534
2988.343750	1120.816406
2987.482422	1077.087769
2986.621094	1042.081421
2985.759766	1036.109009
2984.898438	1105.585327
2984.037109	1061.887207
2983.174805	1082.022095
2982.312500	1116.652588
2981.451172	1113.572754
2980.588867	1058.303467
2979.726563	1017.547058
2978.864258	1057.962524
2978.000977	1133.141602
2977.138672	1106.880737
2976.275391	993.714417
2975.412109	1060.177490
2974.548828	1048.421875
2973.685547	1091.688843
2972.822266	1056.769775
2971.958984	1059.494263
2971.094727	1105.632690
2970.231445	1056.258911
2969.367188	1125.530151
2968.502930	1113.777100
2967.638672	1148.307129
2966.774414	1032.442261
2965.909180	1072.757324
2965.044922	1014.763123
2964.179688	1029.052612
2963.314453	1101.140015
2962.450195	1040.279541
2961.583984	1135.455444
2960.718750	1094.830200
2959.853516	1158.195557
2958.987305	1039.609009
2958.122070	1007.680725
2957.255859	1033.500122
2956.389648	1059.311279
2955.523438	1021.623230
2954.657227	1061.855225
2953.791016	1142.464355
2952.923828	1035.552002
2952.056641	1026.732788
2951.190430	1087.123291
2950.323242	994.687195
2949.456055	1104.068848
2948.587891	1115.419800
2947.720703	1080.658936
2946.853516	1089.128540
2945.985352	1065.906372
2945.117188	1028.289795
2944.249023	1051.163208
2943.380859	1097.064697
2942.512695	1128.556396
2941.644531	1125.495972
2940.775391	1128.192627
2939.907227	1058.948730
2939.038086	1050.146729
2938.168945	1041.347412
2937.299805	1156.226929
2936.430664	1043.887329
2935.560547	1081.097412
2934.691406	1112.545776
2933.821289	1043.382446
2932.951172	1086.322266
2932.081055	1152.235352
2931.210938	1100.336548
2930.340820	1074.306885
2929.470703	1079.877686
2928.599609	1065.345703
2927.729492	1085.271484
2926.858398	1142.509033
2925.987305	1073.440918
2925.116211	1073.267700
2924.244141	1041.533081
2923.373047	1049.971436
2922.501953	1164.534546
2921.629883	1049.632690
2920.757813	1086.739502
2919.885742	1103.765747
2919.013672	1123.652954
2918.141602	1054.687744
2917.269531	1054.517578
2916.396484	1028.561768
2915.523438	1036.989746
2914.651367	1071.192261
2913.778320	1102.520020
2912.904297	1122.384766
2912.031250	1102.164307
2911.158203	1136.334229
2910.284180	1144.736450
2909.411133	1093.046875
2908.537109	1035.652222
2907.663086	1127.019775
2906.789063	1095.377930
2905.915039	1017.993835
2905.040039	1034.984009
2904.166016	1154.878662
2903.291016	1003.210449
2902.416016	1043.056274
2901.541016	1091.460815
2900.666016	1082.714355
2899.791016	1102.533813
2898.915039	1119.490967
2898.040039	1085.045776
2897.164063	1141.969116
2896.288086	1044.733154
2895.412109	1195.826660
2894.536133	1027.274780
2893.660156	1061.345947
2892.783203	1066.879883
2891.907227	1078.116333
2891.030273	1060.832153
2890.153320	1046.404785
2889.276367	1031.982056
2888.399414	1103.073486
2887.522461	1082.946411
2886.644531	1065.675293
2885.767578	1139.575684
2884.889648	1053.937378
2884.011719	1042.375244
2883.133789	1019.426514
2882.255859	1067.662598
2881.377930	1002.017578
2880.499023	1021.779114
2879.621094	1069.991455
2878.742188	1041.366089
2877.863281	1035.508423
2876.984375	1112.138550
2876.105469	1074.988525
2875.226563	1026.476807
2874.346680	1040.525879
2873.466797	974.980225
2872.587891	1031.663818
2871.708008	1048.546875
2870.828125	1079.630005
2869.948242	1051.048950
2869.067383	1084.961914
2868.187500	1116.024048
2867.306641	1084.611572
2866.425781	1092.953003
2865.544922	1036.008911
2864.664063	1038.679565
2863.783203	1010.137207
2862.902344	1103.595337
2862.020508	1052.359253
2861.139648	1066.369751
2860.257813	1066.197632
2859.375977	1063.190186
2858.494141	1009.158936
2857.612305	1037.338623
2856.729492	1079.678101
2855.847656	1034.170288
2854.964844	1110.491089
2854.082031	1022.506531
2853.199219	1036.501221
2852.316406	1095.795654
2851.433594	1019.180176
2850.549805	1086.949951
2849.666992	1066.963379
2848.783203	1041.323975
2847.899414	1060.960327
2847.015625	1060.788940
2846.131836	1040.819458
2845.248047	1046.307007
2844.363281	1074.412109
2843.479492	1074.238525
2842.594727	1009.055786
2841.709961	1025.848999
2840.825195	1079.369141
2839.940430	1098.970703
2839.055664	1127.039673
2838.169922	1081.670410
2837.285156	1073.024414
2836.399414	1084.144287
2835.513672	1019.043884
2834.627930	1072.504517
2833.742188	1052.577759
2832.856445	1094.729736
2831.969727	1035.311523
2831.083984	1057.708740
2830.197266	1051.897705
2829.310547	1077.104492
2828.423828	1119.218384
2827.537109	1014.744324
2826.649414	1096.310425
2825.762695	1067.955078
2824.875000	1056.513062
2823.987305	1005.637939
2823.099609	1053.355225
2822.211914	1053.184937
2821.324219	1044.568115
2820.436523	1013.433350
2819.547852	1041.415894
2818.659180	1046.875977
2817.771484	1035.451904
2816.882813	1105.616455
2815.993164	1051.994141
2815.104492	1051.824219
2814.215820	1029.158936
2813.326172	1028.992554
2812.437500	1090.668335
2811.547852	1051.144409
2810.658203	1011.633179
2809.768555	1140.713013
2808.877930	1025.352051
2807.988281	1089.787109
2807.097656	1047.486816
2806.207031	979.929810
2805.317383	1021.881958
2804.426758	1063.820435
2803.535156	1159.068115
2802.644531	1049.446533
2801.753906	1136.249023
2800.862305	1026.666504
2799.970703	1023.695801
2799.079102	1059.984863
2798.187500	1101.869507
2797.295898	1059.642090
2796.404297	1084.696289
2795.511719	1109.742310
2794.619141	1078.741699
2793.727539	1056.155518
2792.834961	1095.199097
2791.942383	1134.229980
2791.048828	1064.043701
2790.156250	1108.666260
2789.262695	1136.479004
2788.370117	1113.905273
2787.476563	1166.892822
2786.583008	1068.779419
2785.689453	1132.946777
2784.794922	1110.387939
2783.901367	1143.766357
2783.006836	1054.108032
2782.113281	1154.578735
2781.218750	1042.586548
2780.324219	1061.980713
2779.429688	1059.014771
2778.534180	1092.368774
2777.639648	1044.705566
2776.744141	1136.701538
2775.848633	1122.555542
2774.954102	1044.198730
2774.058594	1164.065308
2773.162109	1071.771606
2772.266602	1082.760742
2771.370117	1077.005249
2770.474609	1071.251709
2769.578125	1062.710571
2768.681641	1157.358398
2767.785156	1070.731812
2766.888672	1106.801514
2765.991211	1112.197388
2765.094727	1042.342163
2764.197266	1111.837524
2763.299805	1069.866089
2762.402344	1147.691406
2761.504883	1086.231079
2760.607422	1058.207764
2759.708984	1024.624878
2758.811523	1069.000854
2757.913086	1118.929199
2757.014648	1043.608398
2756.116211	1085.177002
2755.217773	1132.296387
2754.319336	1023.630615
2753.419922	1067.963379
2752.520508	1045.544922
2751.622070	1073.178345
2750.722656	1134.160400
2749.823242	1125.638794
2748.922852	1080.994141
2748.023438	1089.154541
2747.124023	1102.868286
2746.223633	1047.138672
2745.323242	1121.951050
2744.422852	1044.023071
2743.522461	1121.587891
2742.622070	1060.339722
2741.720703	1057.392822
2740.820313	1073.870850
2739.918945	1059.824951
2739.017578	1006.948120
2738.116211	1067.802368
2737.214844	1109.225464
2736.313477	1064.684082
2735.411133	1067.283936
2734.509766	1072.654541
2733.607422	1163.932861
2732.705078	1091.703125
2731.802734	1066.593018
2730.900391	1113.509033
2729.997070	1057.939209
2729.094727	1093.765259
2728.191406	1088.051025
2727.288086	1093.411133
2726.384766	996.365295
2725.481445	1117.962280
2724.578125	1148.215820
2723.673828	1125.899292
2722.770508	1106.355713
2721.866211	1070.225830
2720.961914	1017.517639
2720.057617	1017.352905
2719.153320	1091.818726
2718.249023	1044.659912
2717.343750	1096.991577
2716.439453	966.964417
2715.534180	1140.833252
2714.628906	1052.268921
2713.723633	996.870300
2712.818359	1057.450073
2711.912109	1095.926025
2711.006836	1076.428101
2710.100586	1073.494141
2709.194336	1076.079468
2708.289063	1081.422607
2707.381836	1081.247437
2706.475586	1094.861450
2705.569336	1069.867554
2704.662109	1133.104004
2703.754883	1143.946411
2702.848633	1072.103882
2701.941406	1074.685791
2701.033203	1132.369995
2700.125977	1077.092285
2699.218750	1151.282959
2698.310547	1148.342651
2697.402344	1079.322266
2696.494141	1106.676636
2695.585938	1073.467651
2694.677734	1109.070190
2693.769531	1119.896851
2692.860352	1081.199341
2691.951172	1067.270630
2691.042969	1064.347534
2690.133789	1077.924072
2689.224609	1042.007690
2688.314453	1118.808472
2687.405273	1063.657837
2686.495117	1110.201782
2685.585938	1096.284058
2684.675781	1090.612061
2683.765625	1134.382324
2682.854492	1128.706055
2681.944336	1068.115601
2681.034180	1021.271423
2680.123047	1081.493896
2679.211914	1059.362915
2678.300781	1029.007080
2677.389648	1083.711670
2676.478516	987.526550
2675.567383	1066.904297
2674.655273	1028.340088
2673.743164	1047.365967
2672.831055	1063.644287
2671.918945	1082.658203
2671.006836	1118.108643
2670.094727	1052.166992
2669.182617	1139.662842
2668.269531	994.304138
2667.356445	1084.519653
2666.443359	1043.270142
2665.530273	1097.856934
2664.617188	1062.093384
2663.704102	1081.079590
2662.790039	1116.478394
2661.875977	1105.353271
2660.962891	1075.082642
2660.048828	1140.551514
2659.134766	1110.285034
2658.219727	1055.420044
2657.305664	1137.263062
2656.390625	1066.011230
2655.476563	1052.173706
2654.561523	991.888672
2653.646484	1032.708252
2652.730469	1100.830566
2651.815430	1048.760254
2650.900391	1075.897217
2649.984375	1081.183228
2649.068359	1026.411499
2648.152344	1089.020630
2647.236328	1056.096802
2646.320313	1113.223877
2645.404297	1050.298218
2644.487305	1077.403931
2643.570313	1093.592163
2642.653320	1038.880371
2641.736328	1128.678955
2640.819336	1087.608398
2639.902344	1057.452637
2638.984375	1111.780029
2638.067383	1016.241882
2637.149414	1024.249268
2636.231445	1078.555542
2635.313477	1094.719727
2634.395508	1105.433105
2633.476563	1020.862427
2632.558594	1115.961792
2631.639648	1110.337891
2630.720703	1069.343140
2629.801758	1145.344604
2628.882813	1066.276123
2627.963867	1150.412231
2627.044922	1101.279785
2626.125000	1169.070313
2625.205078	1103.640747
2624.285156	1035.514526
2623.365234	1059.803467
2622.445313	1032.461426
2621.525391	1056.742920
2620.604492	1091.881104
2619.683594	1072.694092
2618.763672	996.493225
2617.842773	1145.645508
2616.920898	1121.030273
2616.000000	1080.139648
2615.079102	1112.526001
2614.157227	1166.606201
2613.235352	1025.361816
2612.314453	1052.316895
2611.391602	1201.290527
2610.469727	970.637024
2609.547852	1141.262085
2608.625000	1084.158569
2607.703125	1111.082153
2606.780273	1070.259033
2605.857422	1051.121704
2604.934570	1075.328857
2604.011719	1026.406616
2603.087891	1031.655518
2602.165039	1058.561279
2601.241211	1080.044434
2600.317383	1101.520508
2599.393555	1058.045654
2598.469727	1074.107300
2597.544922	1082.048218
2596.621094	1060.235107
2595.696289	1057.358643
2594.771484	1113.966797
2593.846680	1086.752319
2592.921875	1121.713867
2591.997070	1129.639160
2591.072266	1067.308594
2590.146484	1077.941650
2589.220703	1093.973633
2588.294922	1115.401855
2587.369141	1053.113892
2586.443359	1063.742310
2585.517578	1117.557861
2584.590820	1036.406982
2583.665039	1079.415283
2582.738281	1125.107666
2581.811523	1103.343628
2580.884766	1089.678223
2579.957031	1070.623779
2579.030273	1100.109619
2578.102539	1072.971802
2577.175781	1107.838623
2576.248047	1142.694092
2575.320313	1072.448975
2574.391602	1099.216309
2573.463867	1134.056152
2572.536133	1147.338257
2571.607422	1069.059326
2570.678711	1087.732544
2569.750000	1079.479858
2568.821289	1033.548462
2567.892578	1097.966797
2566.962891	1089.716431
2566.034180	1127.202393
2565.104492	1145.847656
2564.174805	1129.525391
2563.245117	1123.964111
2562.315430	1115.715942
2561.384766	1104.782471
2560.455078	1034.725464
2559.524414	1010.372803
2558.593750	1112.304199
2557.663086	1066.456421
2556.732422	1093.141602
2555.801758	1087.593140
2554.870117	1119.636108
2553.939453	1111.400513
2553.007813	1092.431152
2552.076172	1054.682129
2551.144531	1073.293335
2550.212891	1070.436035
2549.280273	1083.673828
2548.348633	1137.136230
2547.416016	1080.640137
2546.483398	1091.188599
2545.550781	1088.330566
2544.618164	1165.878906
2543.685547	1128.172974
2542.751953	1093.158447
2541.819336	1084.944092
2540.885742	1087.446167
2539.952148	1095.303345
2539.018555	1132.611206
2538.084961	1076.207275
2537.150391	1081.385620
2536.216797	1091.914795
2535.282227	1083.709839
2534.347656	1118.313599
2533.413086	1013.808472
2532.478516	1099.228271
2531.543945	1069.634644
2530.608398	1090.849854
2529.673828	1045.227783
2528.738281	1162.660156
2527.802734	1154.453979
2526.867188	1106.171875
2525.930664	1068.591187
2524.995117	1071.088379
2524.058594	1049.549316
2523.123047	1092.101440
2522.186523	1091.923706
2521.250000	1043.698608
2520.312500	1030.184448
2519.375977	1059.369751
2518.439453	1048.525391
2517.501953	1027.014282
2516.564453	1066.854126
2515.626953	1149.348389
2514.689453	1082.504639
2513.751953	1079.662720
2512.813477	1111.471802
2511.875977	1034.006958
2510.937500	1116.439209
2509.999023	1188.188232
2509.060547	1086.775635
2508.122070	1081.272339
2507.182617	1107.724365
2506.244141	1038.322632
2505.304688	1062.110962
2504.365234	1123.152588
2503.425781	1120.308838
2502.486328	1106.823364
2501.546875	1103.982910
2500.606445	1138.380249
2499.666016	1154.151001
2498.726563	1095.467285
2497.786133	1116.556763
2496.845703	1084.478638
2495.904297	1020.519592
2494.963867	1102.725708
2494.022461	1102.546265
2493.081055	1091.741577
2492.140625	1080.940308
2491.199219	1112.629639
2490.256836	1088.553467
2489.315430	1069.794189
2488.373047	1096.161499
2487.431641	1111.905273
2486.489258	1106.417725
2485.546875	1085.014771
2484.604492	1050.356689
2483.661133	1082.009521
2482.718750	1132.212891
2481.775391	1129.377319
2480.833008	1145.097534
2479.889648	1110.457764
2478.945313	1099.677612
2478.001953	1083.602173
2477.058594	1117.862305
2476.114258	1072.655151
2475.169922	1109.553955
2474.226563	1085.544189
2473.282227	1069.484009
2472.336914	1127.539551
2471.392578	1106.184814
2470.447266	1076.899292
2469.502930	1074.078369
2468.557617	1073.903442
2467.612305	1102.819702
2466.666992	1033.890259
2465.721680	1062.803589
2464.775391	1118.140991
2463.829102	1062.457397
2462.883789	1027.931763
2461.937500	1117.594604
2460.991211	1106.846069
2460.043945	1093.459717
2459.097656	1069.514526
2458.150391	1005.971985
2457.204102	1180.042480
2456.256836	1087.468262
2455.309570	1089.930176
2454.362305	1131.970581
2453.414063	1076.384033
2452.466797	1123.688354
2451.518555	1099.769287
2450.570313	1073.220947
2449.622070	1025.589478
2448.673828	1030.694458
2447.725586	1130.679932
2446.776367	1059.345581
2445.828125	1072.346802
2444.878906	1127.492920
2443.929688	1111.505737
2442.980469	1034.953979
2442.030273	1082.179932
2441.081055	1124.125366
2440.130859	1005.493896
2439.181641	1076.387329
2438.231445	1044.635986
2437.281250	1031.311279
2436.331055	1060.078247
2435.379883	1070.425659
2434.429688	1120.213745
2433.478516	1041.155640
2432.527344	1109.333496
2431.576172	1030.302856
2430.625000	1077.437012
2429.673828	1048.359253
2428.721680	1087.593872
2427.770508	1105.802734
2426.818359	1097.743896
2425.866211	1087.061890
2424.914063	1092.135376
2423.960938	1055.208618
2423.008789	1097.028076
2422.055664	1028.624146
2421.103516	1112.411987
2420.150391	1091.245117
2419.197266	1075.330566
2418.243164	1177.426147
2417.290039	1088.089355
2416.335938	1056.454224
2415.382813	995.997864
2414.428711	1095.418945
2413.474609	1055.937378
2412.520508	1076.723267
2411.565430	1042.496216
2410.611328	1000.423645
2409.656250	1039.537720
2408.701172	1104.819458
2407.746094	1067.992432
2406.791016	976.216187
2405.835938	1078.111084
2404.879883	1062.237183
2403.923828	1101.302612
2402.968750	1082.814453
2402.013672	1124.478882
2401.056641	1038.012329
2400.099609	1165.939453
2399.144531	1006.308105
2398.187500	1102.838257
2397.230469	1084.367798
2396.273438	1058.065796
2395.316406	1013.487671
2394.359375	1023.768921
2393.402344	1094.104980
2392.443359	1070.429199
2391.486328	1096.358276
2390.529297	976.121643
2389.570313	1080.343384
2388.613281	1101.039795
2387.654297	988.687134
2386.695313	1058.948486
2385.736328	1053.559937
2384.777344	1032.528809
2383.818359	1118.390259
2382.859375	995.700134
2381.900391	1024.204834
2380.941406	1037.066162
2379.982422	1086.396973
2379.021484	1031.517822
2378.062500	1054.789185
2377.101563	1010.349182
2376.142578	1031.012695
2375.181641	1059.479004
2374.220703	1025.470703
2373.259766	1121.588013
2372.298828	1056.358154
2371.337891	1001.555420
2370.376953	1097.629517
2369.416016	1061.041992
2368.455078	1097.271118
2367.492188	1065.895020
2366.531250	1141.101196
2365.568359	997.975586
2364.607422	1039.388062
2363.644531	1052.208618
2362.681641	1083.208252
2361.718750	1018.101318
2360.757813	1163.354370
2359.794922	1038.539551
2358.830078	1015.006592
2357.867188	1079.728394
2356.904297	1032.840576
2355.941406	1110.511475
2354.976563	1149.243530
2354.013672	1076.429199
2353.048828	1021.792297
2352.085938	1052.740845
2351.121094	1044.791260
2350.156250	1003.146790
2349.191406	1072.958496
2348.226563	1052.053101
2347.261719	1067.426147
2346.296875	1077.613403
2345.332031	1085.207397
2344.367188	1103.156982
2343.400391	1038.248047
2342.435547	1045.844604
2341.468750	1105.204590
2340.503906	1073.969482
2339.537109	1063.444092
2338.570313	1107.249878
2337.603516	1008.777710
2336.636719	1047.405640
2335.669922	1047.234497
2334.703125	1052.234009
2333.736328	1062.401611
2332.769531	1093.241943
2331.800781	1100.815430
2330.833984	1131.639404
2329.865234	1167.619629
2328.898438	1102.858521
2327.929688	1151.743530
2326.962891	1102.497925
2325.994141	1048.105347
2325.025391	1060.839600
2324.056641	1078.731079
2323.087891	990.825378
2322.119141	1055.159668
2321.148438	1049.828247
2320.179688	1067.709717
2319.210938	1103.635254
2318.240234	1023.531738
2317.271484	1051.719482
2316.300781	1036.083618
2315.330078	1059.106323
2314.359375	1038.321289
2313.390625	1020.119019
2312.419922	1061.162354
2311.449219	1073.864868
2310.476563	1017.043823
2309.505859	1027.174927
2308.535156	972.953918
2307.564453	1034.559570
2306.591797	1052.402100
2305.621094	1111.401855
2304.648438	1008.329285
2303.675781	1090.463501
2302.703125	971.999390
2301.732422	1072.109619
2300.759766	987.104919
2299.787109	1046.057251
2298.814453	1033.037354
2297.839844	1045.714966
2296.867188	1024.992676
2295.894531	1022.256470
2294.919922	1009.248901
2293.947266	1029.624878
2292.972656	1052.561401
2292.000000	1008.753540
2291.025391	995.756531
2290.050781	1013.555359
2289.076172	997.996216
2288.101563	1079.916870
2287.126953	1061.787109
2286.152344	1028.277710
2285.175781	1053.748047
2284.201172	1022.814270
2283.226563	991.890564
2282.250000	1040.417725
2281.275391	1091.491089
2280.298828	1034.953613
2279.322266	1045.029541
2278.345703	957.786926
2277.371094	1057.489990
2276.394531	1044.516479
2275.417969	1036.666382
2274.439453	982.752441
2273.462891	1033.768188
2272.486328	1025.923706
2271.507813	1030.871704
2270.531250	997.454468
2269.552734	1074.005859
2268.576172	989.457642
2267.597656	1050.647217
2266.619141	1091.369629
2265.640625	1045.192261
2264.662109	1062.906494
2263.683594	1057.623169
2262.705078	1067.666870
2261.726563	1029.184937
2260.748047	1110.724854
2259.767578	975.235413
2258.789063	1077.177856
2257.808594	995.333069
2256.830078	1018.135498
2255.849609	1066.443359
2254.869141	1025.454590
2253.888672	1020.185730
2252.908203	1129.670532
2251.927734	1017.301880
2250.947266	1001.839966
2249.966797	1032.261353
2248.986328	1077.963013
2248.003906	1047.210938
2247.023438	1044.491821
2246.041016	1031.585083
2245.060547	1064.523193
2244.078125	1026.154419
2243.095703	1081.995483
2242.115234	987.636353
2241.132813	984.929504
2240.150391	997.491150
2239.166016	1060.932739
2238.183594	1114.178467
2237.201172	1058.041748
2236.218750	1034.981812
2235.234375	1037.354614
2234.251953	999.052856
2233.267578	1075.140137
2232.283203	1041.927246
2231.300781	1044.297363
2230.316406	1072.071167
2229.332031	1069.355347
2228.347656	1043.783936
2227.363281	1094.396851
2226.378906	1038.364136
2225.392578	1055.962524
2224.408203	1060.865356
2223.423828	1058.153809
2222.437500	1080.814453
2221.451172	1042.586670
2220.466797	953.645508
2219.480469	1006.742554
2218.494141	1077.570313
2217.507813	1046.973145
2216.521484	1044.266846
2215.535156	985.808716
2214.548828	993.248413
2213.562500	982.952026
2212.574219	1023.318298
2211.587891	1018.085327
2210.599609	1053.368286
2209.613281	1010.156250
2208.625000	1022.647095
2207.636719	1014.886719
2206.650391	1019.781189
2205.662109	996.843384
2204.673828	1047.272827
2203.685547	1074.922485
2202.695313	1074.746216
2201.707031	1039.172241
2200.718750	970.746216
2199.728516	1041.358887
2198.740234	980.536316
2197.750000	1068.811401
2196.761719	1015.583191
2195.771484	1005.312927
2194.781250	1002.622498
2193.791016	1098.411133
2192.800781	994.719482
2191.810547	1029.895752
2190.820313	974.202332
2189.830078	989.182983
2188.837891	1079.849121
2187.847656	1014.084351
2186.857422	1031.573242
2185.865234	1056.621582
2184.873047	1016.106506
2183.882813	1000.814087
2182.890625	1078.786255
2181.898438	1060.968384
2180.906250	1033.077515
2179.914063	1010.234314
2178.921875	1022.662842
2177.927734	1007.384216
2176.935547	1077.724121
2175.943359	1014.606384
2174.949219	966.612610
2173.955078	1052.025391
2172.962891	1034.237915
2171.968750	1031.552124
2170.974609	1011.258240
2169.980469	1076.486206
2168.986328	1041.103027
2167.992188	1005.731506
2166.998047	1025.677734
2166.003906	1033.049805
2165.007813	1025.340820
2164.013672	1090.502075
2163.019531	1062.688110
2162.023438	1022.323914
2161.027344	1034.713257
2160.033203	1014.455078
2159.037109	1026.841553
2158.041016	1026.672852
2157.044922	1081.719604
2156.048828	1048.920044
2155.052734	1068.819458
2154.054688	983.353027
2153.058594	988.207825
2152.062500	1045.723267
2151.064453	1038.029541
2150.066406	1160.697388
2149.070313	1045.207886
2148.072266	1024.987549
2147.074219	1034.841797
2146.076172	1054.713867
2145.078125	1082.093872
2144.080078	991.756409
2143.082031	1019.137695
2142.083984	981.416077
2141.083984	1036.325195
2140.085938	1043.663330
2139.085938	1025.975098
2138.087891	955.751404
2137.087891	973.105225
2136.087891	1067.988770
2135.089844	1087.819214
2134.089844	1035.133545
2133.089844	1017.464050
2132.087891	999.800293
2131.087891	1059.614136
2130.087891	1051.943970
2129.087891	1051.770996
2128.085938	1059.091675
2127.085938	1148.825684
2126.083984	1053.749390
2125.082031	1071.052490
2124.082031	1040.921875
2123.080078	1018.288513
2122.078125	1040.579590
2121.076172	1037.913574
2120.074219	1062.688599
2119.070313	1000.159790
2118.068359	1007.476563
2117.066406	1029.750977
2116.062500	1034.567505
2115.060547	1029.412354
2114.056641	991.861328
2113.054688	1056.482544
2112.050781	1023.921936
2111.046875	1021.262634
2110.042969	1021.094666
2109.039063	991.045959
2108.035156	988.393311
2107.031250	1050.461914
2106.025391	988.068176
2105.021484	1020.255188
2104.015625	997.695190
2103.011719	960.216919
2102.005859	1032.187744
2101.000000	1032.017944
2099.996094	1029.361694
2098.990234	1044.108154
2097.984375	999.196289
2096.978516	1001.517029
2095.972656	1065.955566
2094.964844	1060.811523
2093.958984	1045.733398
2092.953125	1015.759094
2091.945313	1057.804810
2090.939453	1040.251831
2089.931641	1030.151489
2088.923828	1000.199341
2087.916016	1029.812378
2086.908203	999.870117
2085.900391	1054.280029
2084.892578	1031.784302
2083.884766	1046.493530
2082.876953	1053.759521
2081.869141	1023.837769
2080.859375	1065.805664
2079.851563	1055.717407
2078.841797	976.253967
2077.833984	1010.776794
2076.824219	958.593628
2075.814453	1082.264771
2074.804688	1037.515503
2073.794922	1007.635498
2072.785156	1032.223145
2071.775391	1014.728577
2070.763672	1014.561462
2069.753906	1061.402954
2068.744141	1009.279907
2067.732422	1011.587036
2066.720703	1038.622437
2065.710938	991.473816
2064.699219	1043.224609
2063.687500	988.675598
2062.675781	1005.811707
2061.664063	1025.413086
2060.652344	1015.362305
2059.640625	1042.365723
2058.628906	1096.526367
2057.615234	1014.860596
2056.603516	1009.755737
2055.589844	1002.184082
2054.578125	1019.295166
2053.564453	1038.868164
2052.550781	981.951111
2051.537109	1075.528076
2050.523438	1006.291626
2049.509766	1048.047729
2048.496094	1025.684692
2047.482422	1020.585327
2046.466797	1003.163757
2045.453125	1002.998413
2044.439453	1039.792603
2043.423828	1051.939087
2042.408203	1022.207886
2041.394531	1051.592285
2040.378906	989.860535
2039.363281	1024.164429
2038.347656	1028.918701
2037.332031	984.448914
2036.316406	1045.804565
2035.298828	1016.108459
2034.283203	1035.620239
2033.265625	1106.775024
2032.250000	1013.146912
2031.232422	1005.603821
2030.216797	1015.271179
2029.199219	975.777771
2028.181641	970.701904
2027.164063	980.370178
2026.146484	1061.278442
2025.128906	957.940552
2024.111328	984.796997
2023.091797	1019.010864
2022.074219	1063.033569
2021.056641	1030.947998
2020.037109	991.510254
2019.017578	1020.792664
2018.000000	1027.984619
2016.980469	1005.737915
2015.960938	1020.287720
2014.941406	1027.476074
2013.921875	995.433105
2012.902344	1039.394165
2011.882813	1014.712708
2010.861328	997.391174
2009.841797	1058.481323
2008.820313	1024.009766
2007.800781	989.549500
2006.779297	999.182190
2005.757813	1001.465881
2004.738281	976.818970
2003.716797	1081.911621
2002.695313	1045.022705
2001.671875	1074.213745
2000.650391	985.960632
1999.628906	1000.474854
1998.607422	985.635254
1997.583984	995.253967
1996.562500	1017.094177
1995.539063	1021.815430
1994.515625	1033.867432
1993.494141	1019.034424
1992.470703	1055.516113
1991.447266	1052.898926
1990.423828	1050.282715
1989.400391	1067.204102
1988.375000	920.525269
1987.351563	1010.701721
1986.328125	1003.212158
1985.302734	1071.380615
1984.279297	1093.164673
1983.253906	931.964172
1982.228516	983.035461
1981.203125	999.945374
1980.177734	965.641479
1979.152344	1021.557983
1978.126953	958.009521
1977.101563	952.976807
1976.076172	943.071899
1975.050781	998.955139
1974.023438	1049.947754
1972.998047	1013.239258
1971.970703	991.154480
1970.943359	959.337524
1969.917969	988.392639
1968.890625	1027.174438
1967.863281	1068.376953
1966.835938	1004.935791
1965.808594	1012.068359
1964.779297	977.846802
1963.751953	963.092957
1962.724609	989.682007
1961.695313	979.793518
1960.667969	974.769958
1959.638672	994.052490
1958.609375	1001.178406
1957.580078	1018.020508
1956.550781	981.413635
1955.521484	913.243958
1954.492188	1019.944397
1953.462891	990.639404
1952.433594	988.048035
1951.404297	995.166443
1950.373047	963.453186
1949.343750	946.308899
1948.312500	980.116943
1947.281250	982.380615
1946.250000	960.391174
1945.220703	967.506897
1944.189453	986.742432
1943.158203	1022.939758
1942.125000	983.992615
1941.093750	1010.485474
1940.062500	1022.432556
1939.031250	1036.798096
1937.998047	997.874268
1936.964844	1034.033691
1935.933594	999.965576
1934.900391	975.591980
1933.867188	1031.100464
1932.833984	1052.710083
1931.800781	999.304382
1930.767578	962.850769
1929.734375	1003.811523
1928.701172	991.553406
1927.666016	1030.077881
1926.632813	991.225525
1925.597656	981.392700
1924.564453	988.480835
1923.529297	990.733765
1922.494141	901.177002
1921.458984	1009.731079
1920.423828	927.446411
1919.388672	994.908081
1918.353516	989.914673
1917.318359	999.406982
1916.283203	1004.068909
1915.246094	1066.646729
1914.210938	967.544312
1913.173828	981.858765
1912.138672	1075.765503
1911.101563	971.887390
1910.064453	1029.596191
1909.027344	935.403320
1907.990234	944.890259
1906.953125	959.194092
1905.916016	987.950989
1904.876953	937.193542
1903.839844	975.579834
1902.802734	1042.854736
1901.763672	965.624756
1900.724609	1016.025452
1899.687500	989.377625
1898.648438	1003.654907
1897.609375	1001.082336
1896.570313	993.698486
1895.531250	998.345276
1894.492188	986.153748
1893.451172	1019.658447
1892.412109	1050.747559
1891.373047	1021.724915
1890.332031	980.693542
1889.291016	1035.806152
1888.251953	1011.606079
1887.210938	1030.658325
1886.169922	1073.724854
1885.128906	941.455139
1884.087891	994.127258
1883.046875	933.940735
1882.005859	993.798035
1880.962891	1012.834106
1879.921875	986.269836
1878.880859	899.732178
1877.837891	1014.729797
1876.794922	947.403992
1875.753906	1002.403259
1874.710938	992.646423
1873.667969	970.906250
1872.625000	953.967102
1871.582031	984.963684
1870.537109	963.235535
1869.494141	958.284485
1868.451172	989.264832
1867.406250	1022.629761
1866.363281	938.652100
1865.318359	986.379089
1864.273438	967.065796
1863.230469	986.052185
1862.185547	961.959473
1861.140625	1024.005981
1860.095703	975.993530
1859.048828	980.615234
1858.003906	990.018127
1856.958984	975.508362
1855.912109	989.690002
1854.867188	999.086609
1853.820313	982.192627
1852.773438	967.693665
1851.728516	934.087646
1850.681641	943.487122
1849.634766	967.212463
1848.587891	957.500977
1847.541016	974.053955
1846.492188	969.118530
1845.445313	935.545471
1844.398438	973.569580
1843.349609	1023.510071
1842.302734	1006.642456
1841.253906	985.010437
1840.205078	951.462463
1839.156250	975.146912
1838.107422	970.217529
1837.058594	910.470825
1836.009766	936.533264
1834.960938	955.439026
1833.912109	993.396484
1832.861328	988.468018
1831.812500	933.530640
1830.761719	1007.188660
1829.710938	892.749634
1828.662109	947.347778
1827.611328	1013.827148
1826.560547	942.274536
1825.509766	915.948242
1824.458984	984.778320
1823.408203	986.993225
1822.355469	946.405151
1821.304688	960.513184
1820.251953	962.730896
1819.201172	979.208191
1818.148438	960.035095
1817.095703	962.251709
1816.044922	985.847412
1814.992188	928.680420
1813.939453	968.896973
1812.886719	952.115723
1811.832031	921.096191
1810.779297	968.414612
1809.726563	916.044128
1808.671875	934.874268
1807.619141	970.304871
1806.564453	884.752136
1805.509766	908.321228
1804.457031	924.768860
1803.402344	974.402344
1802.347656	988.463074
1801.292969	988.298950
1800.238281	943.111938
1799.181641	971.386169
1798.126953	942.798767
1797.070313	985.274292
1796.015625	975.638428
1794.958984	956.535156
1793.904297	1039.230713
1792.847656	1024.856812
1791.791016	941.859741
1790.734375	941.703369
1789.677734	984.129456
1788.621094	1040.733276
1787.562500	922.314941
1786.505859	941.077881
1785.449219	964.562744
1784.390625	940.765198
1783.333984	985.512390
1782.275391	999.526367
1781.216797	945.021545
1780.158203	902.345642
1779.099609	968.325256
1778.041016	1017.753296
1776.982422	942.032654
1775.923828	951.318542
1774.865234	974.762451
1773.804688	955.721985
1772.746094	943.766113
1771.685547	986.071716
1770.625000	934.017944
1769.566406	962.161560
1768.505859	992.653687
1767.445313	978.343933
1766.384766	898.041199
1765.322266	923.815308
1764.261719	881.248718
1763.201172	956.490662
1762.140625	906.866211
1761.078125	984.433960
1760.015625	972.496704
1758.955078	965.272095
1757.892578	995.712708
1756.830078	950.829895
1755.767578	953.024963
1754.705078	938.749939
1753.642578	950.355652
1752.580078	914.918030
1751.515625	947.688049
1750.453125	971.042358
1749.390625	1001.441284
1748.326172	930.762451
1747.261719	1005.808289
1746.199219	956.298828
1745.134766	949.092041
1744.070313	939.538757
1743.005859	934.685608
1741.941406	934.530090
1740.875000	969.589783
1739.810547	976.470337
1738.746094	929.369995
1737.679688	962.066467
1736.615234	914.984131
1735.548828	940.634888
1734.482422	994.421021
1733.416016	942.666809
1732.349609	904.997131
1731.283203	949.385620
1730.216797	930.477478
1729.150391	946.726318
1728.083984	969.998657
1727.015625	911.272217
1725.949219	962.649170
1724.880859	913.310730
1723.812500	950.621643
1722.746094	945.781311
1721.677734	908.173462
1720.609375	957.167786
1719.541016	980.407227
1718.472656	956.849182
1717.404297	928.620728
1716.333984	970.562866
1715.265625	993.784424
1714.195313	897.763977
1713.126953	935.015076
1712.056641	983.939514
1710.986328	946.387573
1709.916016	939.220825
1708.845703	943.736450
1707.775391	976.277527
1706.705078	969.109375
1705.634766	961.943542
1704.564453	957.114502
1703.492188	975.627380
1702.421875	935.792847
1701.349609	923.970703
1700.279297	975.139954
1699.207031	981.974976
1698.134766	914.180664
1697.062500	928.018616
1695.990234	937.189331
1694.917969	974.328003
1693.845703	1037.090332
1692.771484	941.381287
1691.699219	971.511353
1690.625000	934.079468
1689.552734	945.568787
1688.478516	978.011597
1687.404297	912.658752
1686.330078	928.801392
1685.255859	975.195313
1684.181641	968.051697
1683.107422	912.050537
1682.033203	930.508667
1680.958984	953.612427
1679.882813	925.547546
1678.808594	895.166870
1677.732422	962.434570
1676.656250	941.355103
1675.582031	973.733459
1674.505859	959.629761
1673.429688	915.329529
1672.353516	940.727539
1671.277344	956.827515
1670.199219	954.345947
1669.123047	989.011169
1668.046875	902.960571
1666.968750	928.339355
1665.890625	914.261780
1664.814453	932.669922
1663.736328	985.867188
1662.658203	957.871155
1661.580078	874.230530
1660.501953	922.773804
1659.423828	945.801270
1658.345703	927.101501
1657.265625	959.390015
1656.187500	903.622437
1655.107422	970.652954
1654.029297	884.791321
1652.949219	935.591797
1651.869141	947.012878
1650.789063	944.539856
1649.708984	900.403687
1648.628906	867.853577
1647.548828	902.417114
1646.468750	941.596130
1645.386719	948.378357
1644.306641	936.656433
1643.224609	920.313721
1642.144531	943.279724
1641.062500	848.347778
1639.980469	871.318054
1638.898438	956.672363
1637.816406	910.304321
1636.734375	974.833313
1635.652344	923.858337
1634.570313	907.539307
1633.486328	932.785461
1632.404297	948.789185
1631.320313	872.463379
1630.236328	930.010681
1629.154297	920.626099
1628.070313	964.304382
1626.986328	934.158081
1625.902344	913.246460
1624.818359	883.118713
1623.734375	876.054993
1622.648438	896.653931
1621.564453	875.762451
1620.478516	940.135254
1619.394531	930.762817
1618.308594	879.930725
1617.222656	912.027100
1616.136719	875.031372
1615.050781	815.024658
1613.964844	936.891602
1612.878906	920.624146
1611.792969	911.265686
1610.707031	929.519775
1609.619141	892.557983
1608.533203	949.909424
1607.445313	892.259766
1606.357422	935.796509
1605.271484	942.536804
1604.183594	912.498962
1603.095703	854.893982
1602.007813	824.880798
1600.919922	863.797607
1599.830078	918.780090
1598.742188	957.668152
1597.652344	893.214966
1596.564453	886.178284
1595.474609	821.758545
1594.386719	927.192688
1593.296875	899.501892
1592.207031	961.296692
1591.117188	912.964478
1590.027344	850.887451
1588.937500	885.141907
1587.845703	875.823059
1586.755859	958.201111
1585.664063	900.741821
1584.574219	967.047058
1583.482422	960.011780
1582.390625	920.907410
1581.300781	900.139526
1580.208984	948.080017
1579.117188	927.314453
1578.025391	883.663025
1576.931641	897.248657
1575.839844	894.810059
1574.748047	869.490967
1573.654297	924.251526
1572.560547	921.809570
1571.468750	928.516357
1570.375000	923.787842
1569.281250	903.057312
1568.187500	905.192078
1567.093750	941.607910
1566.000000	939.165344
1564.906250	948.146973
1563.810547	902.302124
1562.716797	927.274353
1561.621094	945.387573
1560.527344	1038.839111
1559.431641	933.657288
1558.335938	963.172241
1557.240234	917.370728
1556.144531	1006.200989
1555.048828	953.563721
1553.953125	957.965881
1552.857422	935.000671
1551.759766	980.446289
1550.664063	998.520020
1549.566406	932.251892
1548.470703	961.722351
1547.373047	941.054138
1546.275391	904.445374
1545.177734	929.349976
1544.080078	949.691284
1542.982422	899.437073
1541.884766	899.286499
1540.785156	944.661743
1539.687500	939.951782
1538.587891	905.661377
1537.490234	882.758240
1536.390625	891.709473
1535.291016	934.773499
1534.193359	882.314819
1533.093750	891.261536
1531.992188	888.838989
1530.892578	879.598694
1529.792969	911.266113
1528.693359	888.392456
1527.591797	960.938721
1526.492188	965.320435
1525.390625	962.887756
1524.289063	899.150208
1523.189453	919.431335
1522.087891	896.579102
1520.986328	862.387268
1519.882813	889.471497
1518.781250	925.621338
1517.679688	843.807434
1516.578125	864.077332
1515.474609	913.818359
1514.371094	956.741272
1513.269531	956.580933
1512.166016	877.096619
1511.062500	879.215637
1509.958984	967.428223
1508.855469	878.920898
1507.751953	860.654541
1506.648438	896.742249
1505.542969	887.535461
1504.439453	887.386658
1503.333984	866.867615
1502.230469	923.296875
1501.125000	905.041199
1500.019531	895.840576
1498.914063	857.239014
1497.808594	918.154846
1496.703125	899.912170
1495.597656	899.761292
1494.492188	870.226135
1493.384766	944.658508
1492.279297	935.461792
1491.171875	901.416992
1490.066406	910.301086
1488.958984	919.182129
1487.851563	842.254089
1486.744141	907.585388
1485.636719	891.632080
1484.529297	947.905457
1483.421875	952.259521
1482.312500	952.099731
1481.205078	836.895142
1480.095703	859.308716
1478.988281	906.520081
1477.878906	908.622620
1476.769531	867.893311
1475.660156	946.633850
1474.550781	912.672302
1473.441406	896.747192
1472.332031	916.871521
1471.222656	900.950989
1470.111328	860.263794
1469.001953	896.145325
1467.890625	866.728760
1466.781250	916.102295
1465.669922	900.195129
1464.558594	897.793884
1463.447266	868.396606
1462.335938	901.991150
1461.224609	820.876587
1460.113281	899.439697
1459.000000	863.317139
1457.888672	867.667908
1456.775391	858.532349
1455.664063	934.789185
1454.550781	900.931519
1453.437500	880.563232
1452.324219	873.677490
1451.210938	846.583801
1450.097656	929.514099
1448.984375	945.071777
1447.871094	942.668579
1446.755859	906.605103
1445.642578	910.940186
1444.527344	973.600098
1443.412109	863.532410
1442.298828	957.575012
1441.183594	914.812622
1440.068359	950.527893
1438.953125	921.229492
1437.837891	963.654846
1436.720703	911.957214
1435.605469	900.602478
1434.490234	951.969482
1433.373047	951.809509
1432.255859	893.430969
1431.140625	929.101624
1430.023438	870.746460
1428.906250	915.361084
1427.789063	854.790100
1426.671875	890.443115
1425.554688	856.739685
1424.435547	865.541870
1423.318359	914.591980
1422.199219	939.031921
1421.082031	918.755310
1419.962891	914.130798
1418.843750	891.630493
1417.724609	853.497681
1416.605469	880.161133
1415.486328	917.983215
1414.367188	924.528320
1413.248047	875.251587
1412.126953	966.633179
1411.007813	912.901794
1409.886719	845.798523
1408.767578	943.832703
1407.646484	896.824890
1406.525391	867.677124
1405.404297	867.531189
1404.283203	969.955261
1403.162109	905.139282
1402.041016	871.551514
1400.917969	882.548157
1399.796875	853.432007
1398.673828	922.353577
1397.552734	899.923035
1396.429688	832.956909
1395.306641	837.270325
1394.183594	895.016052
1393.060547	923.803833
1391.937500	901.391785
1390.814453	905.690674
1389.691406	874.389526
1388.566406	843.098877
1387.443359	882.991821
1386.318359	911.752441
1385.195313	869.354126
1384.070313	886.992126
1382.945313	906.846741
1381.820313	888.915771
1380.695313	862.103149
1379.570313	901.945740
1378.443359	857.370544
1377.318359	850.563843
1376.193359	905.931091
1375.066406	892.458252
1373.939453	883.429321
1372.814453	863.306885
1371.687500	823.220825
1370.560547	898.512939
1369.433594	869.525269
1368.306641	869.378845
1367.177734	904.711304
1366.050781	897.907715
1364.923828	919.923340
1363.794922	868.793274
1362.666016	877.510620
1361.539063	886.225037
1360.410156	828.480835
1359.281250	872.637573
1358.152344	868.061646
1357.023438	921.053101
1355.892578	881.051331
1354.763672	863.196289
1353.634766	896.245117
1352.503906	856.267700
1351.375000	937.974976
1350.244141	906.851257
1349.113281	950.927612
1347.982422	924.234314
1346.851563	901.971375
1345.720703	875.295227
1344.589844	883.987549
1343.458984	848.485046
1342.326172	868.225037
1341.195313	905.629150
1340.062500	943.020569
1338.931641	920.780518
1337.798828	874.262878
1336.666016	847.627136
1335.533203	913.693909
1334.400391	951.052307
1333.267578	886.910828
1332.132813	862.496643
1331.000000	886.611755
1329.867188	866.616028
1328.732422	859.855591
1327.597656	881.754456
1326.464844	892.625793
1325.330078	899.086182
1324.195313	788.770935
1323.060547	863.536499
1321.925781	892.023682
1320.789063	889.671021
1319.654297	904.933411
1318.517578	821.127075
1317.382813	829.792664
1316.246094	966.094238
1315.111328	904.322876
1313.974609	939.369080
1312.837891	824.833679
1311.701172	881.873291
1310.564453	883.923279
1309.425781	844.202087
1308.289063	855.049988
1307.152344	870.289612
1306.013672	892.116028
1304.875000	874.389771
1303.738281	924.763672
1302.599609	909.234070
1301.460938	873.947021
1300.322266	862.822083
1299.183594	906.578552
1298.044922	858.141296
1296.904297	862.385132
1295.765625	829.329651
1294.625000	855.513062
1293.486328	872.914673
1292.345703	914.432007
1291.205078	859.464783
1290.064453	863.703918
1288.923828	935.886536
1287.783203	898.474609
1286.642578	882.985657
1285.501953	904.743164
1284.359375	867.355347
1283.218750	921.956909
1282.076172	827.650452
1280.935547	886.618530
1279.792969	910.545654
1278.650391	877.565186
1277.507813	827.091248
1276.365234	914.459595
1275.222656	837.748474
1274.078125	857.289551
1272.935547	852.771545
1271.792969	920.400391
1270.648438	874.341858
1269.503906	852.339233
1268.359375	847.824951
1267.216797	860.790161
1266.072266	847.538391
1264.927734	843.027161
1263.781250	807.946411
1262.636719	888.590820
1261.492188	875.343201
1260.345703	883.925354
1259.201172	870.682922
1258.054688	881.444702
1256.908203	842.030029
1255.761719	889.870911
1254.615234	857.010132
1253.468750	904.832214
1252.322266	922.118774
1251.175781	874.012085
1250.029297	871.685059
1248.880859	882.431824
1247.732422	893.174988
1246.585938	853.817993
1245.437500	899.406067
1244.289063	860.061279
1243.140625	846.853760
1241.992188	892.419861
1240.843750	929.265381
1239.695313	939.987671
1238.544922	902.844666
1237.396484	852.663208
1236.246094	880.791199
1235.097656	869.770081
1233.947266	913.104065
1232.796875	943.381165
1231.646484	873.675232
1230.496094	893.083984
1229.345703	838.618164
1228.195313	821.098511
1227.042969	855.709167
1225.892578	814.306152
1224.740234	883.643982
1223.589844	896.518921
1222.437500	948.456299
1221.285156	881.025330
1220.132813	889.554749
1218.980469	893.742676
1217.828125	941.307434
1216.675781	889.103027
1215.521484	882.447937
1214.369141	899.640991
1213.214844	890.818848
1212.062500	888.500977
1210.908203	894.850586
1209.753906	886.033691
1208.599609	920.539246
1207.445313	874.905579
1206.291016	905.070740
1205.134766	887.598450
1203.980469	898.270630
1202.826172	934.908875
1201.669922	965.043335
1200.513672	858.872864
1199.359375	899.825134
1198.203125	910.486084
1197.046875	921.143372
1195.890625	938.282837
1194.734375	922.992798
1193.576172	957.415771
1192.419922	866.498108
1191.263672	931.165588
1190.105469	879.165100
1188.947266	969.725403
1187.791016	909.098450
1186.632813	937.011475
1185.474609	919.583496
1184.316406	962.593262
1183.156250	938.692993
1181.998047	904.013123
1180.839844	893.073914
1179.679688	923.117981
1178.521484	959.621155
1177.361328	935.741516
1176.201172	873.066956
1175.042969	907.404602
1173.882813	930.955627
1172.720703	930.797729
1171.560547	945.719727
1170.400391	934.789856
1169.240234	971.241272
1168.078125	936.625977
1166.917969	921.397522
1165.755859	951.375305
1164.593750	927.541199
1163.431641	927.383850
1162.269531	942.285889
1161.107422	924.918274
1159.945313	946.267395
1158.783203	982.661011
1157.619141	986.794006
1156.457031	990.925598
1155.292969	980.011719
1154.130859	956.208801
1152.966797	996.866516
1151.802734	990.253174
1150.638672	1005.118958
1149.474609	1047.894897
1148.310547	1041.276123
1147.144531	974.554932
1145.980469	991.559387
1144.814453	987.099304
1143.650391	1027.696289
1142.484375	1055.408691
1141.318359	1029.492188
1140.154297	1012.162170
1138.988281	1022.710571
1137.820313	1048.261108
1136.654297	1015.933350
1135.488281	1050.048096
1134.320313	1034.871704
1133.154297	1047.549316
1131.986328	1060.222656
1130.820313	1102.872559
1129.652344	1115.532104
1128.484375	1121.764893
1127.316406	1098.029907
1126.148438	1121.383911
1124.980469	1151.148926
1123.810547	1123.142212
1122.642578	1060.921753
1121.472656	1114.206299
1120.304688	1116.155273
1119.134766	1115.965698
1117.964844	1175.626099
1116.794922	1143.369263
1115.625000	1113.260132
1114.455078	1130.162231
1113.285156	1166.283081
1112.113281	1200.255859
1110.943359	1244.893677
1109.771484	1169.958496
1108.601563	1267.951050
1107.429688	1207.977051
1106.257813	1218.441040
1105.085938	1154.228638
1103.914063	1200.961670
1102.742188	1222.085327
1101.570313	1200.553345
1100.396484	1234.462158
1099.224609	1161.774658
1098.050781	1244.699097
1096.878906	1238.094604
1095.705078	1259.190186
1094.531250	1293.059937
1093.357422	1273.671143
1092.183594	1275.584106
1091.009766	1268.979614
1089.835938	1290.051758
1088.660156	1317.502075
1087.486328	1317.277954
1086.310547	1310.670776
1085.134766	1329.593994
1083.960938	1327.240845
1082.785156	1378.054077
1081.609375	1328.915527
1080.433594	1364.829834
1079.257813	1381.601929
1078.080078	1447.247437
1076.904297	1389.631104
1075.726563	1404.265869
1074.550781	1374.289551
1073.373047	1425.025269
1072.195313	1441.769775
1071.017578	1382.080078
1069.839844	1369.108887
1068.662109	1411.321655
1067.484375	1483.226929
1066.306641	1489.339233
1065.126953	1503.934082
1063.949219	1450.656982
1062.769531	1550.072754
1061.589844	1462.883789
1060.410156	1528.347412
1059.230469	1475.102173
1058.050781	1565.969604
1056.871094	1605.957886
1055.691406	1544.253174
1054.511719	1524.928589
1053.330078	1632.666382
1052.150391	1619.684937
1050.968750	1589.772827
1049.787109	1625.482788
1048.605469	1635.786621
1047.423828	1542.413086
1046.242188	1690.230713
1045.060547	1664.561890
1043.878906	1698.113770
1042.695313	1704.167480
1041.513672	1665.825317
1040.330078	1553.519043
1039.148438	1724.429321
1037.964844	1667.086914
1036.781250	1666.802856
1035.597656	1719.323608
1034.414063	1687.353149
1033.230469	1784.193237
1032.044922	1724.778076
1030.861328	1756.145386
1029.675781	1715.748535
1028.492188	1726.006226
1027.306641	1795.331299
1026.121094	1721.199341
1024.935547	1811.590820
1023.750000	1748.024170
1022.564453	1819.406128
1021.378906	1802.233032
1020.191406	1778.743042
1019.005859	1780.546875
1017.818359	1794.990845
1016.632813	1729.385254
1015.445313	1842.818481
1014.257813	1817.235596
1013.070313	1877.981201
1011.882813	1879.765869
1010.695313	1845.770996
1009.507813	1879.124756
1008.318359	1760.984375
1007.130859	1842.723022
1005.941406	1903.401733
1004.751953	1861.020020
1003.564453	1835.472656
1002.375000	1896.121338
1001.185547	1847.457031
999.996094	1811.417847
998.804688	1823.715088
997.615234	1974.653931
996.425781	1921.808594
995.234375	1925.680542
994.042969	1881.259888
992.853516	1922.924072
991.662109	1889.013428
990.470703	1823.636108
989.279297	1896.761353
988.087891	1917.415894
986.894531	1866.749268
985.703125	1853.847900
984.511719	1819.983398
983.318359	1857.407837
982.125000	1899.011475
980.933594	1961.557617
979.740234	1827.122070
978.546875	1937.843262
977.353516	1941.701538
976.158203	1880.636719
974.964844	1886.597168
973.771484	1953.268066
972.576172	1835.716553
971.382813	1942.136841
970.187500	1920.880493
968.992188	1893.354980
967.796875	1838.646118
966.601563	1915.713501
965.406250	1888.202759
964.210938	1856.520020
963.013672	1883.377075
961.818359	1849.615845
960.621094	1920.346313
959.425781	1780.038696
958.228516	1817.334473
957.031250	1821.201050
955.833984	1818.801636
954.636719	1785.085693
953.439453	1805.655151
952.242188	1890.917969
951.042969	1888.507935
949.845703	1827.679810
948.646484	1833.625488
947.447266	1847.911743
946.250000	1766.268311
945.050781	1724.266968
943.851563	1730.225952
942.650391	1859.153931
941.451172	1865.087646
940.251953	1804.346069
939.050781	1793.621582
937.851563	1778.735107
936.650391	1795.090698
935.449219	1848.918701
934.250000	1856.929565
933.048828	1846.204956
931.847656	1808.430298
930.644531	1795.636719
929.443359	1776.606567
928.242188	1834.542114
927.039063	1817.591309
925.837891	1856.786377
924.634766	1775.391113
923.431641	1773.008789
922.228516	1841.286133
921.025391	1901.228516
919.822266	1836.500977
918.619141	1790.489746
917.414063	1831.718994
916.210938	1802.335571
915.005859	1856.004883
913.802734	1807.945801
912.597656	1795.184204
911.392578	1786.576904
910.187500	1771.748535
908.982422	1800.485352
907.777344	1766.994141
906.572266	1839.266968
905.365234	1756.022949
904.160156	1703.900513
902.953125	1774.074341
901.746094	1748.904663
900.541016	1761.036011
899.333984	1706.876709
898.126953	1783.214966
896.919922	1766.343628
895.710938	1699.788696
894.503906	1658.096924
893.296875	1717.833618
892.087891	1723.747314
890.878906	1680.003662
889.671875	1723.156738
888.462891	1729.066406
887.253906	1724.634277
886.044922	1693.325562
884.833984	1614.481934
883.625000	1639.007446
882.416016	1675.923340
881.205078	1601.255249
879.996094	1681.546387
878.785156	1633.753418
877.574219	1699.555786
876.363281	1589.834229
875.152344	1593.690552
873.941406	1611.993408
872.730469	1589.016968
871.517578	1570.174805
870.306641	1574.031494
869.093750	1627.389160
867.880859	1532.246948
866.669922	1583.531494
865.457031	1537.906250
864.244141	1603.600342
863.031250	1555.926270
861.816406	1590.687622
860.603516	1516.250366
859.390625	1515.990356
858.175781	1530.146240
856.962891	1488.702637
855.748047	1527.562744
854.533203	1459.375000
853.318359	1500.284668
852.103516	1477.393188
850.888672	1540.915894
849.671875	1526.252930
848.457031	1456.067017
847.242188	1420.861084
846.025391	1426.785034
844.808594	1442.984497
843.591797	1457.123047
842.376953	1463.037476
841.158203	1462.786499
839.941406	1464.589600
838.724609	1456.123047
837.507813	1459.979980
836.289063	1467.941650
835.072266	1430.740845
833.853516	1436.652344
832.634766	1411.781616
831.416016	1430.004150
830.197266	1442.066528
828.978516	1486.939819
827.759766	1414.913574
826.541016	1506.931763
825.320313	1381.629395
824.101563	1373.193970
822.880859	1407.794434
821.660156	1428.041016
820.441406	1491.298950
819.220703	1448.031860
818.000000	1470.308838
816.777344	1463.913940
815.556641	1449.333008
814.335938	1447.037231
813.113281	1450.881470
811.892578	1417.895752
810.669922	1472.885376
809.447266	1452.179077
808.224609	1451.929565
807.001953	1476.215576
805.779297	1457.563477
804.556641	1494.103516
803.332031	1444.801147
802.109375	1477.244263
800.884766	1528.062012
799.662109	1497.161743
798.437500	1462.187622
797.212891	1435.392700
795.988281	1475.975220
794.763672	1510.420288
793.539063	1546.894287
792.312500	1473.173706
791.087891	1491.281006
789.861328	1472.667236
788.636719	1401.036621
787.410156	1517.018921
786.183594	1524.912598
784.957031	1443.118286
783.730469	1530.502075
782.503906	1491.524414
781.277344	1505.528687
780.048828	1495.085205
778.822266	1543.705200
777.593750	1519.005371
776.365234	1526.887451
775.136719	1487.950317
773.908203	1536.537842
772.679688	1517.960327
771.451172	1462.769043
770.222656	1417.767212
768.994141	1555.818115
767.763672	1523.016113
766.535156	1459.729492
765.304688	1447.282104
764.074219	1524.262207
762.843750	1495.551880
761.613281	1456.693115
760.382813	1468.630249
759.152344	1429.789429
757.919922	1559.501709
756.689453	1469.902222
755.457031	1542.725708
754.226563	1532.312256
752.994141	1544.223755
751.761719	1533.813599
750.529297	1495.007813
749.296875	1504.891235
748.064453	1500.576416
746.830078	1506.400391
745.597656	1520.330811
744.363281	1503.854858
743.130859	1568.440918
741.896484	1523.597412
740.662109	1505.103638
739.427734	1472.438599
738.193359	1530.910278
736.958984	1486.104004
735.722656	1544.553101
734.488281	1560.478760
733.251953	1582.469727
732.017578	1535.661865
730.781250	1600.130737
729.544922	1537.155273
728.308594	1512.623657
727.072266	1536.625488
725.835938	1518.166870
724.599609	1596.731201
723.361328	1594.435181
722.125000	1608.303711
720.886719	1521.160767
719.648438	1617.848267
718.412109	1627.666504
717.173828	1576.908691
715.935547	1627.105347
714.695313	1647.008789
713.457031	1614.436035
712.218750	1571.786011
710.978516	1551.341553
709.740234	1581.328979
708.500000	1613.322754
707.259766	1647.321777
706.019531	1624.862061
704.779297	1652.800415
703.539063	1602.133789
702.298828	1652.230225
701.056641	1627.770508
699.816406	1631.518066
698.574219	1653.389282
697.333984	1659.144531
696.091797	1636.713379
694.849609	1672.661865
693.607422	1597.911377
692.365234	1555.380859
691.121094	1581.265747
689.878906	1637.313232
688.636719	1693.341309
687.392578	1668.920044
686.148438	1652.548828
684.904297	1698.494751
683.662109	1589.677490
682.417969	1667.768066
681.171875	1591.137695
679.927734	1715.400269
678.683594	1668.912842
677.437500	1662.600708
676.193359	1660.306030
674.947266	1700.164917
673.701172	1721.947632
672.455078	1635.367188
671.208984	1649.128418
669.962891	1678.932007
668.716797	1652.569946
667.470703	1588.118164
666.222656	1722.168945
664.976563	1683.785889
663.728516	1585.291138
662.480469	1647.135498
661.232422	1654.864868
659.984375	1678.616455
658.736328	1716.379150
657.488281	1744.116699
656.240234	1635.702759
654.990234	1693.470459
653.742188	1661.155640
652.492188	1630.852783
651.242188	1642.575195
649.992188	1656.293823
648.742188	1666.007568
647.492188	1647.722656
646.242188	1639.440552
644.992188	1637.158203
643.740234	1676.847778
642.490234	1618.607666
641.238281	1630.315552
639.986328	1669.985474
638.734375	1653.718750
637.482422	1637.457642
636.230469	1647.157227
634.978516	1670.826904
633.726563	1716.442871
632.472656	1662.266968
631.220703	1636.042236
629.966797	1697.598999
628.712891	1685.338501
627.458984	1649.152466
626.205078	1610.985107
624.951172	1742.274048
623.697266	1704.103638
622.443359	1705.801636
621.187500	1713.476196
619.933594	1647.441406
618.677734	1748.734253
617.421875	1728.517944
616.167969	1642.604248
614.912109	1648.292114
613.654297	1677.862061
612.398438	1657.671631
611.142578	1719.064087
609.884766	1746.616943
608.628906	1728.413940
607.371094	1771.864502
606.113281	1755.651489
604.857422	1655.950806
603.599609	1770.944336
602.339844	1762.688843
601.082031	1764.370483
599.824219	1837.567749
598.564453	1878.960083
597.306641	1864.733521
596.046875	1812.786987
594.787109	1826.369263
593.529297	1828.037842
592.269531	1861.457642
591.007813	1877.008423
589.748047	1795.347168
588.488281	1824.788086
587.226563	1876.033203
585.966797	1843.983765
584.705078	1899.172485
583.443359	1890.915039
582.183594	1886.623901
580.921875	1872.427246
579.658203	1947.383057
578.396484	1869.797607
577.134766	1901.159546
575.871094	1914.690308
574.609375	1993.546021
573.345703	1864.543091
572.082031	1866.198853
570.818359	1891.597900
569.554688	1915.009888
568.291016	2003.686646
567.027344	1957.853760
565.763672	1945.650635
564.498047	1949.267212
563.234375	1968.695190
561.968750	1974.282715
560.703125	1989.747681
559.437500	1965.695679
558.171875	1937.701538
556.906250	2042.034668
555.640625	2006.138672
554.375000	1950.512939
553.107422	1956.096313
551.839844	1993.253784
550.574219	2014.613037
549.306641	2020.182007
548.039063	1962.629272
546.771484	2009.620361
545.503906	2064.482178
544.236328	2062.152588
542.966797	2000.689941
541.699219	2051.583008
540.429688	2039.404419
539.160156	1968.127075
537.892578	2013.089844
536.623047	2038.342773
535.353516	2006.483887
534.082031	2025.822876
532.812500	2015.629272
531.542969	2011.343262
530.271484	1979.510864
529.001953	2071.633301
527.730469	2006.361938
526.458984	2053.213867
525.187500	2005.665283
523.916016	2080.024902
522.644531	2097.354492
521.373047	2077.337158
520.099609	2084.836426
518.828125	1998.030396
517.554688	2121.433594
516.281250	2170.164063
515.007813	2179.604980
513.734375	2159.593750
512.460938	2176.885010
511.187500	2227.533936
509.914063	2138.845947
508.638672	2156.131592
507.365234	2224.411621
506.089844	2208.335205
504.814453	2102.063965
503.541016	2236.976074
502.265625	2197.383301
500.988281	2251.877441
499.712891	2175.064697
498.437500	2241.298828
497.160156	2178.226563
495.884766	2191.557373
494.607422	2224.465088
493.330078	2302.390869
492.052734	2225.649170
490.775391	2203.733643
489.498047	2209.220947
488.220703	2234.270752
486.943359	2143.900879
485.664063	2147.439697
484.386719	2207.684570
483.107422	2195.570068
481.828125	2191.278809
480.548828	2157.672607
479.269531	2225.689941
477.990234	2217.487793
476.710938	2226.869141
475.429688	2240.153076
474.150391	2224.141602
472.869141	2239.373779
471.589844	2178.470947
470.308594	2195.657227
469.027344	2107.464111
467.746094	2198.795166
466.464844	2219.870117
465.181641	2151.221924
463.900391	2197.647461
462.617188	2156.322266
461.335938	2165.693359
460.052734	2247.173584
458.769531	2145.453125
457.486328	2139.234863
456.203125	2084.319580
454.919922	2142.385254
453.634766	2145.906982
452.351563	2223.411133
451.066406	2158.785889
449.783203	2193.442871
448.498047	2165.817871
447.212891	2245.209961
445.927734	2205.913818
444.642578	2195.805176
443.357422	2228.480469
442.070313	2274.753906
440.785156	2243.255371
439.498047	2244.808105
438.212891	2170.574707
436.925781	2181.854004
435.638672	2220.324707
434.351563	2256.839600
433.064453	2223.434570
431.775391	2168.684570
430.488281	2296.425049
429.199219	2247.503662
427.912109	2278.160156
426.623047	2279.703369
425.333984	2289.005127
424.044922	2238.179199
422.755859	2363.834473
421.466797	2376.994141
420.177734	2283.532471
418.886719	2263.752930
417.597656	2373.813477
416.306641	2361.774658
415.015625	2297.437500
413.724609	2376.445557
412.433594	2317.937500
411.142578	2437.572510
409.851563	2365.523682
408.560547	2392.207275
407.267578	2411.141113
405.976563	2418.459717
404.683594	2427.709961
403.390625	2375.065918
402.097656	2401.724121
400.804688	2412.905762
399.511719	2406.685547
398.218750	2259.377197
396.923828	2396.183838
395.630859	2411.222168
394.335938	2377.962158
393.042969	2416.175049
391.748047	2247.751465
390.453125	2421.124023
389.158203	2372.441895
387.861328	2294.825928
386.566406	2334.949219
385.271484	2340.329834
383.974609	2361.140625
382.677734	2385.801514
381.382813	2314.035645
380.085938	2307.847656
378.789063	2313.227783
377.492188	2314.751221
376.193359	2254.609375
374.896484	2302.382813
373.599609	2350.139160
372.300781	2253.428467
371.001953	2358.946777
369.705078	2356.609375
368.406250	2288.822998
367.107422	2421.224854
365.806641	2363.072021
364.507813	2306.863525
363.208984	2385.330322
361.908203	2369.527100
360.609375	2357.575195
359.308594	2393.693604
358.007813	2397.119873
356.707031	2302.524414
355.406250	2296.357178
354.105469	2363.201416
352.802734	2362.788330
351.501953	2377.740479
350.199219	2346.600098
348.898438	2399.948730
347.595703	2420.645020
346.292969	2404.867676
344.990234	2329.608154
343.687500	2313.851807
342.382813	2330.711914
341.080078	2353.319824
339.777344	2370.166748
338.472656	2394.676758
337.167969	2327.165283
335.863281	2334.424561
334.558594	2341.681396
333.253906	2333.608154
331.949219	2390.667969
330.644531	2405.572021
329.337891	2458.769287
328.033203	2389.413574
326.726563	2429.195068
325.419922	2354.127197
324.113281	2353.715332
322.806641	2360.956299
321.500000	2347.152832
320.193359	2402.207031
318.886719	2411.347900
317.578125	2409.014160
316.271484	2458.293701
314.962891	2461.685791
313.654297	2407.749512
312.345703	2479.929932
311.037109	2469.944580
309.728516	2417.944824
308.419922	2335.409668
307.109375	2470.556885
305.800781	2535.027344
304.490234	2549.852051
303.179688	2492.158447
301.869141	2466.919189
300.558594	2519.899170
299.248047	2557.602539
297.937500	2446.554443
296.625000	2409.901123
295.314453	2432.353760
294.001953	2441.457275
292.691406	2389.579346
291.378906	2373.918945
290.066406	2415.410889
288.753906	2403.560303
287.441406	2342.203857
286.126953	2254.214111
284.814453	2312.829590
283.500000	2346.682373
282.187500	2338.659668
280.873047	2362.983154
279.558594	2353.057861
278.244141	2261.354492
276.929688	2323.709717
275.615234	2380.339111
274.298828	2326.696777
272.984375	2394.709229
271.667969	2354.384766
270.351563	2302.674805
269.037109	2307.969727
267.720703	2356.945068
266.404297	2263.485840
265.085938	2335.234375
263.769531	2319.638916
262.453125	2357.190186
261.134766	2351.083984
259.816406	2341.185547
258.500000	2348.362549
257.181641	2292.950195
255.863281	2302.029053
254.544922	2294.041748
253.224609	2312.594971
251.906250	2353.884277
250.585938	2296.624268
249.267578	2288.643066
247.947266	2263.616211
246.626953	2308.672852
245.306641	2266.609131
243.986328	2385.485596
242.666016	2301.778809
241.345703	2284.341797
240.023438	2291.509766
238.703125	2311.918701
237.380859	2305.838135
236.058594	2331.910645
234.736328	2318.264893
233.414063	2349.997803
232.091797	2411.963623
230.769531	2409.650146
229.445313	2354.428955
228.123047	2376.686768
226.798828	2395.158691
225.476563	2390.960693
224.152344	2403.758789
222.828125	2373.129639
221.503906	2446.329102
220.177734	2449.674072
218.853516	2502.077881
217.527344	2377.122559
216.203125	2399.340088
214.876953	2389.489014
213.550781	2421.124512
212.224609	2375.452393
210.898438	2361.840332
209.572266	2370.848389
208.246094	2328.977539
206.917969	2424.649902
205.591797	2411.038330
204.263672	2380.481934
202.935547	2513.753662
201.609375	2421.062988
200.281250	2324.640137
198.951172	2442.795410
197.623047	2395.325195
196.294922	2470.156250
194.964844	2388.840088
193.636719	2463.645752
192.306641	2451.930664
190.976563	2400.739990
189.646484	2541.291748
188.316406	2461.913330
186.986328	2551.671875
185.654297	2586.917725
184.324219	2556.409424
182.992188	2539.057617
181.662109	2628.739258
180.330078	2549.428467
178.998047	2610.921387
177.666016	2589.818604
176.333984	2615.631836
175.000000	2656.443848
173.667969	2592.203125
172.333984	2604.874512
171.001953	2688.792236
169.667969	2630.203369
168.333984	2624.117432
167.000000	2674.254639
165.666016	2611.951416
164.332031	2650.832764
162.996094	2646.619873
161.662109	2621.808594
160.326172	2643.815674
158.992188	2626.501709
157.656250	2710.267090
156.320313	2737.861084
154.984375	2666.278076
153.646484	2688.257568
152.310547	2616.708496
150.974609	2657.389404
149.636719	2744.799805
148.298828	2792.921387
146.960938	2788.691162
145.625000	2803.150146
144.285156	2817.603760
142.947266	2776.009033
141.609375	2814.743408
140.271484	2840.391846
138.931641	2813.751465
137.591797	2859.925537
136.253906	2848.222900
134.914063	2806.666016
133.574219	2811.768799
132.232422	2904.547119
130.892578	2939.472900
129.552734	2944.549316
128.210938	2936.572266
126.871094	2939.782959
125.529297	2941.128418
124.187500	2957.381592
122.845703	3072.376953
121.503906	2980.555664
120.162109	2927.879639
118.818359	2990.677979
117.476563	3053.453857
116.132813	2993.346191
114.789063	2976.067383
113.447266	2953.212158
112.103516	3027.113037
110.759766	3060.063232
109.414063	3000.006836
108.070313	3029.230469
106.726563	3190.449707
105.380859	3100.659180
104.035156	3057.364746
102.689453	3004.794434
101.345703	3104.592041
99.998047	3187.635986
98.652344	3272.507813
97.306641	3101.091797
95.960938	3215.654541
94.613281	3151.973145
93.265625	3260.918457
91.919922	3236.219727
90.572266	3200.397705
89.224609	3212.817383
87.875000	3201.122314
86.527344	3289.564453
85.179688	3377.975342
83.830078	3397.769287
82.482422	3374.929199
81.132813	3242.769531
79.783203	3340.389160
78.433594	3302.751953
77.083984	3368.841797
75.734375	3347.877930
74.382813	3447.260986
73.033203	3239.334473
71.681641	3314.641846
70.330078	3162.323975
68.978516	3300.520264
67.626953	3166.755859
66.275391	3145.852783
64.923828	3173.033203
63.572266	3216.842773
62.218750	3140.488525
60.867188	3269.301025
59.513672	3176.334229
58.160156	2865.400391
56.806641	2741.136475
55.453125	2784.975098
54.099609	2638.611328
52.744141	2628.914307
51.390625	2521.391846
