#Wave		#Intensity
4002.113281	7563.457520
4001.415039	7645.785645
4000.716797	7547.926270
4000.017578	7535.978027
3999.319336	7566.966797
3998.620117	7583.636719
3997.920898	7614.607422
3997.221680	7928.074707
3996.522461	7469.141602
3995.823242	7521.564453
3995.124023	7491.761230
3994.424805	7562.032227
3993.724609	7389.304688
3993.025391	7577.464844
3992.325195	7719.127930
3991.625000	7453.600586
3990.924805	7548.816406
3990.224609	7533.322266
3989.524414	7539.250977
3988.824219	7473.794922
3988.124023	7536.828125
3987.422852	7567.729492
3986.721680	7595.052734
3986.021484	7583.131836
3985.320313	7414.298340
3984.619141	7527.209473
3983.917969	7476.088379
3983.216797	7592.517578
3982.514648	7601.989746
3981.813477	7493.865723
3981.112305	7474.847656
3980.410156	7405.963379
3979.708008	7614.913574
3979.005859	7371.533691
3978.303711	7623.148926
3977.601563	7547.164551
3976.899414	7688.328613
3976.197266	7480.680664
3975.494141	7618.251465
3974.791992	7741.546875
3974.088867	7640.703613
3973.385742	7593.240723
3972.682617	7620.469238
3971.979492	7434.363281
3971.276367	7870.414551
3970.573242	7588.362793
3969.869141	7565.821777
3969.166016	7674.753418
3968.461914	7485.235352
3967.758789	7629.664063
3967.054688	7624.887207
3966.350586	7744.391113
3965.646484	7633.088867
3964.941406	7731.254395
3964.237305	7644.833496
3963.533203	7615.216797
3962.828125	7603.349609
3962.124023	7712.098633
3961.418945	7760.516113
3960.713867	7695.436523
3960.008789	7665.834473
3959.303711	7657.513184
3958.598633	7624.382324
3957.892578	7587.717285
3957.187500	7660.911133
3956.481445	7535.680176
3955.776367	7683.246582
3955.070313	7473.050781
3954.364258	7624.120605
3953.658203	7576.868164
3952.952148	7688.932129
3952.245117	7662.921387
3951.539063	7615.685059
3950.832031	7579.079102
3950.125977	7372.672363
3949.418945	7534.198730
3948.711914	7578.964844
3948.004883	7528.243164
3947.297852	7495.214844
3946.590820	7525.825684
3945.883789	7372.640137
3945.175781	7837.915039
3944.468750	7571.665527
3943.760742	7619.906738
3943.052734	7615.151367
3942.344727	7638.648926
3941.636719	7535.024902
3940.928711	7611.483398
3940.220703	7642.029785
3939.511719	7527.866699
3938.803711	7600.760254
3938.094727	7631.292969
3937.386719	7630.067383
3936.677734	7621.788574
3935.968750	7627.617676
3935.259766	7703.961426
3934.550781	7635.744629
3933.840820	7458.283203
3933.131836	7601.575684
3932.421875	7614.449219
3931.712891	7715.394043
3931.002930	7513.375977
3930.292969	7762.223633
3929.583008	7613.082031
3928.873047	7573.131836
3928.163086	7656.400391
3927.452148	7820.593262
3926.742188	7597.637207
3926.031250	7631.602539
3925.321289	7538.911621
3924.610352	7516.597168
3923.899414	7550.558594
3923.188477	7721.641602
3922.477539	7396.960938
3921.765625	7680.496582
3921.054688	7707.379883
3920.342773	7565.583984
3919.631836	7722.472656
3918.919922	7577.206543
3918.208008	7583.015137
3917.496094	7680.125977
3916.784180	7675.381836
3916.072266	7705.745117
3915.359375	7465.826660
3914.647461	7636.591797
3913.934570	7666.946289
3913.222656	7735.882324
3912.509766	7636.423340
3911.796875	7747.428223
3911.083984	7735.664551
3910.371094	7751.953613
3909.658203	7628.016113
3908.944336	7605.762207
3908.231445	7541.462402
3907.517578	7799.535645
3906.803711	7742.231445
3906.089844	7583.367188
3905.375977	7764.261719
3904.662109	7384.844238
3903.948242	7688.248047
3903.234375	7560.997559
3902.519531	7524.785156
3901.805664	7544.573730
3901.090820	7693.810547
3900.375977	7612.116699
3899.661133	7764.791992
3898.946289	7683.112793
3898.231445	7608.452637
3897.516602	7747.070313
3896.801758	7616.497070
3896.085938	7611.779785
3895.370117	7911.067383
3894.655273	7791.011230
3893.939453	7601.129883
3893.223633	7453.220703
3892.507813	7490.437012
3891.791992	7593.979980
3891.075195	7823.162109
3890.359375	7790.493652
3889.642578	7649.651367
3888.925781	7641.445801
3888.209961	7629.753418
3887.493164	7768.054199
3886.776367	7717.981934
3886.059570	7626.081543
3885.341797	7593.479492
3884.625000	7703.809570
3883.907227	7472.541992
3883.190430	7732.700684
3882.472656	7665.260254
3881.754883	7869.565430
3881.037109	7561.791016
3880.319336	7717.291504
3879.601563	7761.318848
3878.883789	7603.410156
3878.165039	7786.675781
3877.447266	7684.497559
3876.728516	7700.663574
3876.009766	7605.490234
3875.291016	7694.714355
3874.572266	7561.313477
3873.853516	7636.605469
3873.134766	7854.428223
3872.415039	7661.966309
3871.696289	7744.157227
3870.976563	7815.895996
3870.256836	7745.147461
3869.537109	7802.965820
3868.817383	7780.872559
3868.097656	7849.084961
3867.377930	7816.573730
3866.658203	7815.319824
3865.937500	7730.752930
3865.217773	7837.108398
3864.497070	7665.808105
3863.776367	7709.684570
3863.055664	7795.176758
3862.334961	7613.559570
3861.614258	7719.847168
3860.893555	7628.454590
3860.171875	7661.899902
3859.451172	7626.007324
3858.729492	7649.044922
3858.007813	7748.310059
3857.287109	7809.432129
3856.565430	7891.318848
3855.842773	7602.575195
3855.121094	7874.935547
3854.399414	7939.459473
3853.676758	7768.551758
3852.955078	7763.844238
3852.232422	7710.687012
3851.509766	7640.245117
3850.787109	7870.819336
3850.064453	7751.946289
3849.341797	7830.250488
3848.619141	7811.704102
3847.895508	7748.216797
3847.172852	7615.610840
3846.449219	7763.013184
3845.725586	7948.382324
3845.001953	7639.589355
3844.278320	7752.369629
3843.554688	7716.584473
3842.831055	7812.047852
3842.107422	7620.877441
3841.382813	7754.302246
3840.659180	7804.837891
3839.934570	7731.106934
3839.209961	7788.531250
3838.485352	7783.832031
3837.760742	7951.620117
3837.036133	7764.089844
3836.310547	7821.471191
3835.585938	7706.430664
3834.860352	7912.045410
3834.135742	7703.958984
3833.410156	7526.957031
3832.684570	7932.360840
3831.958984	7765.714355
3831.233398	7885.035156
3830.507813	7883.770508
3829.781250	7779.197266
3829.055664	7936.332031
3828.329102	7714.736816
3827.602539	7916.576660
3826.875977	7547.073730
3826.149414	7707.584961
3825.422852	7847.402832
3824.696289	7839.264648
3823.969727	7844.886230
3823.242188	7747.345215
3822.515625	7797.674805
3821.788086	7817.050293
3821.060547	7750.493164
3820.333008	7690.830078
3819.605469	8002.266113
3818.877930	7897.921875
3818.150391	7841.698242
3817.421875	7823.269531
3816.694336	7749.907227
3815.965820	7731.498535
3815.237305	7850.400879
3814.508789	7770.204590
3813.780273	7937.103027
3813.051758	7668.214844
3812.323242	7759.606445
3811.593750	7902.416992
3810.865234	7829.134277
3810.135742	7704.443359
3809.407227	7908.901367
3808.677734	7945.337402
3807.948242	7687.029785
3807.218750	7843.419434
3806.488281	7890.125977
3805.758789	7806.649902
3805.029297	7914.995605
3804.298828	7759.629883
3803.568359	7864.524414
3802.837891	7763.988770
3802.107422	7930.457520
3801.376953	7744.388672
3800.646484	7804.736328
3799.916016	7906.117188
3799.185547	8000.625000
3798.454102	7848.862793
3797.722656	7909.154297
3796.992188	7750.617676
3796.260742	7974.985352
3795.529297	7901.933594
3794.796875	7777.645996
3794.065430	8083.901367
3793.333984	8004.034180
3792.601563	8023.244629
3791.870117	7827.300293
3791.137695	7976.283691
3790.405273	7783.823730
3789.672852	8079.542480
3788.940430	7979.274414
3788.208008	7722.071289
3787.474609	7710.598145
3786.742188	7972.026367
3786.008789	7960.516602
3785.276367	7860.346680
3784.542969	8087.528320
3783.809570	7810.100098
3783.076172	8044.034180
3782.342773	7875.755371
3781.608398	7946.048340
3780.875000	7982.250000
3780.140625	7773.186035
3779.407227	7945.633301
3778.672852	7849.013672
3777.938477	7704.759766
3777.204102	7945.217285
3776.469727	8080.086914
3775.735352	7973.297852
3775.000000	7886.957520
3774.265625	7739.410156
3773.530273	7925.246094
3772.794922	8015.798828
3772.059570	8130.124023
3771.324219	8013.229004
3770.588867	8175.106934
3769.853516	8027.653809
3769.118164	8050.153809
3768.381836	7617.371094
3767.646484	8020.397461
3766.910156	7740.599609
3766.173828	7769.922363
3765.437500	8040.309082
3764.701172	7828.539551
3763.964844	7803.524414
3763.227539	7856.574219
3762.491211	7801.022949
3761.753906	8091.543457
3761.017578	7944.384766
3760.280273	8071.991699
3759.542969	7941.838379
3758.805664	7903.270020
3758.068359	8156.250488
3757.331055	7961.746094
3756.592773	8062.136230
3755.855469	7932.087402
3755.117188	8069.715820
3754.378906	7868.574707
3753.640625	7989.234863
3752.902344	7954.093262
3752.164063	7918.961914
3751.425781	7822.910645
3750.686523	7929.961914
3749.948242	8300.930664
3749.208984	8363.885742
3748.470703	8142.656250
3747.731445	7914.732910
3746.992188	8001.391602
3746.252930	7797.232422
3745.512695	8232.097656
3744.773438	7977.264160
3744.034180	8114.551270
3743.293945	8109.872070
3742.553711	7953.157715
3741.813477	8299.820313
3741.073242	7896.569336
3740.333008	8101.297363
3739.592773	8228.302734
3738.852539	8297.876953
3738.111328	8178.411133
3737.371094	8072.481934
3736.629883	8202.784180
3735.888672	8080.016113
3735.147461	8132.691895
3734.406250	8202.213867
3733.665039	8082.876465
3732.923828	8034.379395
3732.181641	8056.688965
3731.440430	8126.177734
3730.698242	8131.615234
3729.956055	8254.979492
3729.214844	8112.165039
3728.472656	8168.125977
3727.729492	8170.185059
3726.987305	8172.243164
3726.245117	8056.466309
3725.501953	8011.415527
3724.759766	8255.820313
3724.016602	8140.085449
3723.273438	8108.500488
3722.530273	8235.032227
3721.787109	8152.990234
3721.043945	7986.901367
3720.299805	8130.203125
3719.556641	8350.781250
3718.812500	8053.649414
3718.068359	8159.902832
3717.325195	8242.600586
3716.581055	7972.505859
3715.835938	8004.819824
3715.091797	8275.583984
3714.347656	8126.502930
3713.602539	8131.916016
3712.858398	8224.608398
3712.113281	8166.230957
3711.368164	8185.057617
3710.623047	8150.192383
3709.877930	8158.951172
3709.132813	8275.043945
3708.387695	8320.670898
3707.641602	8171.795898
3706.896484	8210.718750
3706.150391	8393.770508
3705.404297	8234.900391
3704.658203	8314.006836
3703.912109	8413.190430
3703.166016	8200.792969
3702.419922	8243.021484
3701.672852	8241.701172
3700.926758	8317.393555
3700.179688	8369.625977
3699.432617	8231.044922
3698.685547	8216.338867
3697.938477	8489.414063
3697.191406	8213.706055
3696.444336	8386.338867
3695.696289	8234.487305
3694.949219	8306.737305
3694.201172	8205.099609
3693.454102	8404.366211
3692.706055	8092.168457
3691.958008	8137.659180
3691.208984	8253.304688
3690.460938	8265.346680
3689.712891	8324.148438
3688.963867	8412.989258
3688.215820	8351.534180
3687.466797	8426.987305
3686.717773	8348.858398
3685.968750	8447.651367
3685.219727	8396.240234
3684.470703	8314.816406
3683.720703	8166.697266
3682.971680	8262.119141
3682.221680	8414.206055
3681.471680	8396.185547
3680.722656	8474.854492
3679.972656	8310.160156
3679.221680	8472.138672
3678.471680	8424.128906
3677.721680	8426.111328
3676.970703	8184.910156
3676.220703	8226.864258
3675.469727	8268.818359
3674.718750	8310.771484
3673.967773	8352.725586
3673.216797	8394.679688
3672.465820	8436.633789
3671.714844	8405.334961
3670.962891	8816.535156
3670.211914	8549.005859
3669.459961	8524.354492
3668.708008	8612.774414
3667.956055	8405.252930
3667.204102	8510.285156
3666.452148	8332.760742
3665.699219	8653.782227
3664.947266	8456.354492
3664.194336	8441.710938
3663.442383	8652.945313
3662.689453	8541.960938
3661.936523	8806.241211
3661.183594	8715.188477
3660.430664	8581.010742
3659.676758	8918.174805
3658.923828	8584.898438
3658.169922	8540.389648
3657.416992	8754.653320
3656.663086	8690.229492
3655.909180	8655.673828
3655.155273	8614.497070
3654.401367	8679.422852
3653.646484	8585.218750
3652.892578	8756.183594
3652.137695	8698.448242
3651.383789	8793.135742
3650.628906	8808.290039
3649.874023	8674.395508
3649.119141	8725.990234
3648.364258	8774.257813
3647.609375	8736.436523
3646.853516	8797.926758
3646.098633	8832.921875
3645.342773	8930.773438
3644.586914	8724.222656
3643.831055	8894.833984
3643.075195	8946.326172
3642.319336	8941.585938
3641.563477	8973.216797
3640.806641	8971.779297
3640.050781	9244.673828
3639.293945	8912.724609
3638.537109	9010.421875
3637.780273	9068.443359
3637.023438	8882.017578
3636.266602	8873.989258
3635.509766	8945.211914
3634.752930	9009.809570
3633.995117	9246.036133
3633.237305	9165.343750
3632.480469	8946.081055
3631.722656	9063.425781
3630.964844	9038.881836
3630.207031	9106.699219
3629.448242	9214.067383
3628.690430	9113.672852
3627.931641	9049.575195
3627.173828	9051.420898
3626.415039	9138.955078
3625.656250	9153.966797
3624.897461	9073.428711
3624.138672	9365.151367
3623.379883	9126.512695
3622.620117	9246.893555
3621.861328	9136.758789
3621.101563	9105.666992
3620.341797	9242.450195
3619.582031	9379.189453
3618.822266	9239.489258
3618.062500	9415.663086
3617.302734	9174.031250
3616.542969	9205.450195
3615.782227	9203.974609
3615.021484	9462.235352
3614.261719	9450.857422
3613.500977	9347.455078
3612.740234	9477.405273
3611.979492	9295.174805
3611.217773	9342.962891
3610.457031	9387.451172
3609.695313	9491.038086
3608.934570	9259.667969
3608.172852	9359.958984
3607.411133	9532.432617
3606.649414	9360.242188
3605.887695	9375.150391
3605.125977	9537.695313
3604.363281	9500.083008
3603.601563	9495.281250
3602.838867	9533.112305
3602.076172	9505.354492
3601.314453	9448.099609
3600.551758	9689.142578
3599.788086	9477.845703
3599.025391	9679.485352
3598.262695	9546.885742
3597.499023	9489.669922
3596.736328	9402.995117
3595.972656	9817.368164
3595.208984	9308.307617
3594.445313	9526.146484
3593.681641	9599.901367
3592.916992	9506.732422
3592.153320	9737.522461
3591.389648	9500.415039
3590.625000	9790.008789
3589.860352	9696.868164
3589.095703	9486.040039
3588.331055	9683.953125
3587.566406	9751.048828
3586.801758	9772.364258
3586.036133	9659.693359
3585.271484	9553.591797
3584.505859	9587.996094
3583.741211	9632.187500
3582.975586	9673.098633
3582.209961	9629.101563
3581.443359	9686.323242
3580.677734	9612.959961
3579.912109	9735.438477
3579.145508	9720.826172
3578.379883	9640.966797
3577.613281	9675.304688
3576.846680	9559.600586
3576.080078	9708.076172
3575.313477	9716.302734
3574.545898	9926.644531
3573.779297	9481.767578
3573.012695	9617.124023
3572.245117	9563.449219
3571.477539	9561.916992
3570.709961	9693.937500
3569.942383	9744.493164
3569.174805	9531.271484
3568.407227	9686.022461
3567.638672	9482.643555
3566.871094	9669.900391
3566.102539	9733.436523
3565.333984	9783.936523
3564.565430	9658.747070
3563.796875	9494.566406
3563.028320	9414.993164
3562.259766	9481.769531
3561.490234	9701.326172
3560.721680	9566.497070
3559.952148	9577.964844
3559.182617	9855.892578
3558.413086	9724.351563
3557.643555	9573.362305
3556.874023	9708.244141
3556.104492	9466.375977
3555.333984	9572.008789
3554.564453	9482.822266
3553.793945	9656.582031
3553.023438	9593.372070
3552.252930	9689.181641
3551.482422	9557.855469
3550.711914	9527.128906
3549.941406	9639.119141
3549.169922	9436.521484
3548.399414	9574.427734
3547.627930	9576.135742
3546.856445	9406.056641
3546.084961	9398.068359
3545.313477	9587.734375
3544.541992	9557.041016
3543.770508	9549.031250
3542.998047	9460.058594
3542.226563	9588.067383
3541.454102	9492.641602
3540.681641	9452.275391
3539.909180	9473.416992
3539.136719	9387.761719
3538.364258	9450.968750
3537.591797	9481.804688
3536.818359	9648.478516
3536.045898	9304.131836
3535.272461	9528.983398
3534.499023	9546.853516
3533.725586	9509.767578
3532.952148	9443.606445
3532.178711	9451.787109
3531.404297	9514.890625
3530.630859	9416.455078
3529.856445	9569.978516
3529.082031	9448.960938
3528.308594	9434.531250
3527.534180	9700.966797
3526.759766	9499.291992
3525.984375	9323.499023
3525.209961	9425.259766
3524.434570	9526.988281
3523.660156	9448.045898
3522.884766	9220.769531
3522.109375	9483.713867
3521.333984	9453.177734
3520.558594	9377.519531
3519.783203	9662.873047
3519.006836	9438.966797
3518.231445	9253.795898
3517.455078	9532.588867
3516.678711	9402.219727
3515.902344	9497.329102
3515.125977	9447.507813
3514.349609	9442.774414
3513.573242	9557.144531
3512.796875	9346.413086
3512.019531	9225.851563
3511.242188	9282.287109
3510.465820	9290.450195
3509.688477	9578.437500
3508.911133	9409.676758
3508.132813	9208.816406
3507.355469	9541.685547
3506.578125	9234.794922
3505.799805	9416.502930
3505.021484	9341.087891
3504.244141	9435.975586
3503.465820	9267.424805
3502.687500	9391.199219
3501.908203	9322.257813
3501.129883	9442.772461
3500.351563	9425.208008
3499.572266	9282.470703
3498.792969	9492.790039
3498.014648	9375.756836
3497.235352	9261.968750
3496.455078	9404.828125
3495.675781	9409.736328
3494.896484	9430.674805
3494.116211	9547.789063
3493.336914	9318.662109
3492.556641	9320.374023
3491.776367	9341.312500
3490.996094	9503.222656
3490.215820	9235.805664
3489.435547	9211.905273
3488.655273	9290.491211
3487.874023	9497.132813
3487.092773	9348.342773
3486.312500	9311.633789
3485.531250	9521.372070
3484.750000	9619.044922
3483.968750	9249.568359
3483.186523	9388.838867
3482.405273	9169.842773
3481.623047	9500.954102
3480.841797	9665.696289
3480.059570	9545.863281
3479.277344	9243.875000
3478.495117	9475.691406
3477.712891	9250.499023
3476.930664	9578.083984
3476.147461	9432.804688
3475.365234	9313.122070
3474.582031	9311.629883
3473.798828	9457.005859
3473.015625	9388.452148
3472.232422	9294.387695
3471.449219	9442.885742
3470.666016	9447.754883
3469.881836	9481.333008
3469.098633	9447.916016
3468.314453	9328.402344
3467.530273	9339.662109
3466.746094	9548.584961
3465.961914	9448.237305
3465.177734	9331.985352
3464.392578	9496.195313
3463.608398	9335.367188
3462.823242	9384.840820
3462.039063	9322.819336
3461.253906	9544.247070
3460.468750	9415.354492
3459.683594	9471.150391
3458.897461	9517.377930
3458.112305	9356.724609
3457.326172	9514.328125
3456.541016	9407.812500
3455.754883	9355.408203
3454.968750	9471.587891
3454.182617	9587.730469
3453.396484	9427.218750
3452.610352	9540.151367
3451.823242	9506.837891
3451.037109	9524.381836
3450.250000	9541.920898
3449.462891	9438.728516
3448.675781	9462.627930
3447.888672	9572.268555
3447.101563	9551.681641
3446.314453	9337.431641
3445.526367	9466.085938
3444.739258	9464.568359
3443.951172	9402.757813
3443.163086	9312.410156
3442.375000	9463.191406
3441.586914	9483.877930
3440.798828	9612.382813
3440.009766	9471.325195
3439.221680	9298.608398
3438.432617	9385.874023
3437.644531	9412.893555
3436.855469	9389.203125
3436.066406	9479.579102
3435.277344	9468.556641
3434.487305	9571.559570
3433.698242	9443.353516
3432.908203	9467.169922
3432.119141	9345.353516
3431.329102	9324.864258
3430.539063	9307.545898
3429.749023	9432.624023
3428.958984	9418.457031
3428.168945	9530.824219
3427.377930	9352.183594
3426.587891	9385.468750
3425.796875	9469.331055
3425.005859	9452.006836
3424.214844	9279.814453
3423.423828	9335.209961
3422.632813	9384.268555
3421.840820	9259.556641
3421.049805	9333.880859
3420.257813	9509.241211
3419.466797	9371.937500
3418.674805	9313.606445
3417.882813	9261.607422
3417.090820	9392.680664
3416.297852	9457.443359
3415.505859	9253.999023
3414.713867	9258.825195
3413.920898	9377.197266
3413.127930	9372.541016
3412.334961	9519.234375
3411.541992	9161.464844
3410.749023	9472.053711
3409.956055	9316.107422
3409.162109	9330.369141
3408.369141	9234.355469
3407.575195	9371.478516
3406.781250	9395.172852
3405.987305	9333.834961
3405.193359	9300.852539
3404.399414	9365.470703
3403.605469	9099.575195
3402.810547	9170.499023
3402.016602	9222.519531
3401.221680	9221.041016
3400.426758	9282.473633
3399.631836	9092.284180
3398.836914	9323.521484
3398.041992	9268.578125
3397.247070	9226.226563
3396.451172	9322.180664
3395.655273	9411.819336
3394.860352	9294.055664
3394.064453	9449.640625
3393.268555	9322.486328
3392.472656	9377.520508
3391.675781	9178.197266
3390.879883	9189.284180
3390.083008	9260.007813
3389.287109	9330.708008
3388.490234	9351.177734
3387.693359	9355.953125
3386.896484	9222.700195
3386.099609	9145.946289
3385.301758	9367.133789
3384.504883	9262.162109
3383.707031	9172.897461
3382.909180	9359.495117
3382.112305	9389.333984
3381.314453	9425.429688
3380.515625	9245.339844
3379.717773	9444.334961
3378.919922	9326.938477
3378.121094	9071.795898
3377.323242	9311.423828
3376.524414	9109.583008
3375.725586	9295.917969
3374.926758	9319.462891
3374.127930	9205.327148
3373.328125	9225.750000
3372.529297	9365.028320
3371.729492	9163.371094
3370.930664	9174.409180
3370.130859	9329.259766
3369.331055	9390.282227
3368.531250	9085.610352
3367.731445	9209.150391
3366.930664	9298.282227
3366.130859	9262.427734
3365.330078	9270.312500
3364.529297	9365.636719
3363.729492	9295.441406
3362.928711	9293.951172
3362.126953	9226.911133
3361.326172	9553.127930
3360.525391	9361.250000
3359.723633	9362.869141
3358.922852	9111.814453
3358.121094	9166.493164
3357.319336	9214.917969
3356.517578	9147.963867
3355.715820	9162.083984
3354.913086	9222.953125
3354.111328	9249.522461
3353.308594	9332.168945
3352.506836	9293.287109
3351.704102	9238.842773
3350.901367	9171.958984
3350.098633	9432.056641
3349.294922	9315.347656
3348.492188	9030.578125
3347.688477	9346.596680
3346.885742	9217.508789
3346.082031	9474.278320
3345.278320	8956.345703
3344.474609	9421.472656
3343.670898	9267.576172
3342.867188	9325.168945
3342.062500	9472.901367
3341.258789	9247.575195
3340.454102	9376.625000
3339.649414	9173.138672
3338.844727	9243.126953
3338.040039	9334.836914
3337.235352	9327.127930
3336.429688	9449.849609
3335.625000	9361.395508
3334.819336	9136.374023
3334.014648	9352.184570
3333.208984	9301.029297
3332.403320	9141.287109
3331.596680	9419.041992
3330.791016	9349.288086
3329.985352	9208.222656
3329.178711	9402.106445
3328.373047	9211.469727
3327.566406	9228.592773
3326.759766	9177.520508
3325.953125	9284.512695
3325.145508	9431.750000
3324.338867	9228.868164
3323.532227	9187.121094
3322.724609	9154.677734
3321.916992	9261.585938
3321.109375	9585.178711
3320.301758	9308.142578
3319.494141	9161.184570
3318.686523	9255.644531
3317.878906	9207.750000
3317.070313	9289.797852
3316.261719	9251.191406
3315.454102	9407.424805
3314.645508	9229.670898
3313.836914	9283.837891
3313.027344	9353.442383
3312.218750	9500.287109
3311.410156	9399.881836
3310.600586	9253.165039
3309.791016	9350.530273
3308.981445	9349.030273
3308.171875	9310.473633
3307.362305	9237.966797
3306.552734	9276.616211
3305.743164	9213.396484
3304.932617	9390.910156
3304.122070	9293.750977
3303.312500	9301.514648
3302.501953	9287.684570
3301.691406	9153.578125
3300.879883	9330.958008
3300.069336	9203.054688
3299.258789	9420.442383
3298.447266	9372.699219
3297.635742	9334.216797
3296.824219	9388.178711
3296.012695	9318.898438
3295.201172	9265.041016
3294.389648	9168.085938
3293.578125	9071.161133
3292.765625	9226.716797
3291.953125	9139.047852
3291.141602	9085.261719
3290.329102	9376.134766
3289.516602	9196.183594
3288.703125	9360.821289
3287.890625	9251.669922
3287.078125	9296.313477
3286.264648	9174.908203
3285.451172	9287.181641
3284.637695	9165.816406
3283.824219	9152.052734
3283.010742	9344.166016
3282.197266	9404.111328
3281.383789	9261.302734
3280.569336	9201.462891
3279.754883	9227.623047
3278.940430	9087.980469
3278.126953	9350.522461
3277.311523	9217.042969
3276.497070	9415.034180
3275.682617	9250.904297
3274.867188	9181.927734
3274.052734	9174.319336
3273.237305	8988.837891
3272.421875	9269.498047
3271.606445	9335.458008
3270.791016	9330.894531
3269.975586	9111.792969
3269.159180	9294.192383
3268.343750	9044.527344
3267.527344	9134.976563
3266.710938	9078.378906
3265.894531	9153.481445
3265.078125	9145.888672
3264.261719	9162.789063
3263.445313	9115.405273
3262.627930	9083.337891
3261.811523	9433.772461
3260.994141	9392.485352
3260.176758	9290.032227
3259.359375	9117.267578
3258.541992	9063.818359
3257.724609	9196.892578
3256.906250	9183.188477
3256.088867	9267.296875
3255.270508	9281.088867
3254.452148	9297.932617
3253.633789	9220.064453
3252.815430	9120.838867
3251.997070	9012.483398
3251.177734	9090.429688
3250.359375	9345.427734
3249.540039	9118.037109
3248.720703	9232.552734
3247.902344	9548.435547
3247.083008	9156.362305
3246.262695	9252.511719
3245.443359	9199.173828
3244.624023	9463.015625
3243.803711	9055.959961
3242.983398	9161.208984
3242.163086	9251.183594
3241.342773	9088.171875
3240.522461	9424.950195
3239.702148	9362.503906
3238.881836	9370.138672
3238.060547	9322.949219
3237.240234	9403.673828
3236.418945	9511.774414
3235.597656	9385.432617
3234.776367	9329.138672
3233.955078	9303.293945
3233.132813	9332.228516
3232.311523	9202.954102
3231.489258	9140.639648
3230.666992	9397.684570
3229.845703	9487.400391
3229.022461	9291.295898
3228.200195	9350.600586
3227.377930	9686.469727
3226.555664	9298.976563
3225.732422	9309.636719
3224.909180	9411.430664
3224.086914	9279.310547
3223.263672	9438.777344
3222.440430	9285.440430
3221.616211	9192.870117
3220.792969	9158.003906
3219.968750	9429.681641
3219.145508	9510.098633
3218.321289	9520.708008
3217.497070	9437.274414
3216.672852	9511.583984
3215.848633	9379.657227
3215.024414	9469.113281
3214.199219	9261.445313
3213.375000	9278.144531
3212.549805	9525.164063
3211.724609	9366.068359
3210.899414	9443.334961
3210.074219	9547.837891
3209.249023	9467.559570
3208.422852	9375.194336
3207.597656	9431.213867
3206.771484	9354.019531
3205.945313	9528.066406
3205.119141	9556.798828
3204.292969	9434.234375
3203.466797	9369.188477
3202.640625	9376.758789
3201.813477	9459.931641
3200.987305	9515.865234
3200.160156	9342.007813
3199.333008	9422.124023
3198.505859	9426.655273
3197.678711	9491.621094
3196.850586	9532.396484
3196.023438	9576.177734
3195.195313	9629.006836
3194.368164	9591.221680
3193.540039	9393.418945
3192.711914	9554.932617
3191.883789	9369.271484
3191.055664	9524.701172
3190.226563	9683.097656
3189.398438	9639.304688
3188.569336	9462.797852
3187.740234	9633.191406
3186.911133	9492.929688
3186.082031	9593.916016
3185.252930	9381.354492
3184.423828	9491.369141
3183.593750	9444.640625
3182.763672	9729.370117
3181.934570	9547.048828
3181.104492	9497.320313
3180.274414	9372.316406
3179.444336	9656.873047
3178.613281	9643.278320
3177.783203	9449.075195
3176.952148	9739.501953
3176.122070	9629.603516
3175.291016	9640.091797
3174.459961	9584.393555
3173.628906	9928.750977
3172.796875	9707.622070
3171.965820	9669.980469
3171.133789	9430.924805
3170.302734	9582.708984
3169.470703	9463.958984
3168.638672	9522.536133
3167.806641	9644.187500
3166.974609	9402.323242
3166.141602	9343.746094
3165.309570	9510.411133
3164.476563	9541.911133
3163.644531	9495.347656
3162.811523	9571.861328
3161.978516	9615.338867
3161.144531	9463.765625
3160.311523	9624.249023
3159.478516	9499.718750
3158.644531	9648.148438
3157.810547	9592.622070
3156.977539	9594.079102
3156.143555	9439.656250
3155.308594	9522.060547
3154.474609	9658.378906
3153.640625	9504.019531
3152.805664	9574.389648
3151.970703	9488.983398
3151.136719	9445.531250
3150.301758	9524.859375
3149.466797	9664.038086
3148.630859	9629.558594
3147.795898	9442.454102
3146.959961	9632.448242
3146.125000	9496.264648
3145.289063	9521.661133
3144.453125	9690.614258
3143.617188	9393.001953
3142.781250	9687.499023
3141.945313	9491.625000
3141.108398	9669.440430
3140.271484	9694.782227
3139.435547	9496.013672
3138.598633	9572.164063
3137.761719	9442.180664
3136.924805	9560.126953
3136.086914	9791.507813
3135.250000	9601.837891
3134.412109	9642.086914
3133.575195	9479.364258
3132.737305	9442.029297
3131.899414	9485.267578
3131.061523	9671.687500
3130.222656	9473.270508
3129.384766	9435.959961
3128.545898	9667.024414
3127.708008	9620.750000
3126.869141	9458.237305
3126.030273	9781.577148
3125.191406	9613.130859
3124.352539	9569.873047
3123.512695	9580.250977
3122.673828	9569.775391
3121.833984	9687.355469
3120.994141	9414.845703
3120.154297	9493.711914
3119.314453	9447.537109
3118.474609	9779.336914
3117.634766	9462.352539
3116.793945	9642.312500
3115.954102	9771.645508
3115.113281	9627.315430
3114.272461	9572.241211
3113.431641	9674.763672
3112.590820	9587.000000
3111.750000	9677.597656
3110.908203	9589.860352
3110.067383	9481.352539
3109.225586	9622.425781
3108.383789	9326.816406
3107.541992	9678.728516
3106.700195	9466.346680
3105.858398	9533.109375
3105.015625	9665.155273
3104.173828	9731.863281
3103.331055	9611.599609
3102.488281	9678.294922
3101.645508	9359.322266
3100.802734	9675.181641
3099.959961	9555.003906
3099.116211	9503.060547
3098.273438	9717.948242
3097.429688	9580.035156
3096.585938	9643.695313
3095.743164	9639.180664
3094.898438	9560.600586
3094.054688	9751.606445
3093.210938	9664.147461
3092.366211	9570.793945
3091.522461	9504.118164
3090.677734	9606.200195
3089.833008	9583.935547
3088.988281	9517.288086
3088.143555	9634.112305
3087.297852	9313.055664
3086.453125	9524.528320
3085.607422	9593.974609
3084.762695	9344.045898
3083.916992	9794.887695
3083.071289	9438.588867
3082.225586	9410.470703
3081.378906	9583.305664
3080.533203	9708.811523
3079.686523	9659.984375
3078.839844	9534.376953
3077.994141	9423.575195
3077.147461	9675.991211
3076.299805	9639.007813
3075.453125	9758.479492
3074.606445	9765.762695
3073.758789	9649.110352
3072.912109	9709.514648
3072.064453	9525.062500
3071.216797	9612.010742
3070.369141	9713.675781
3069.520508	9505.723633
3068.672852	9725.290039
3067.824219	9832.782227
3066.976563	9633.750977
3066.127930	9726.489258
3065.279297	9648.327148
3064.430664	9746.923828
3063.582031	9712.959961
3062.732422	9802.680664
3061.883789	9636.230469
3061.034180	9725.933594
3060.184570	9744.970703
3059.334961	9905.253906
3058.485352	9903.659180
3057.635742	9643.188477
3056.786133	9582.810547
3055.935547	9719.487305
3055.084961	9626.772461
3054.235352	10016.229492
3053.384766	9691.280273
3052.534180	9539.833984
3051.683594	9732.238281
3050.832031	9777.680664
3049.981445	9608.666992
3049.129883	9704.043945
3048.278320	9629.067383
3047.426758	9612.836914
3046.575195	9646.517578
3045.723633	9674.316406
3044.872070	9737.322266
3044.019531	9501.017578
3043.167969	9798.730469
3042.315430	9700.355469
3041.462891	9716.390625
3040.610352	9635.653320
3039.757813	9554.942383
3038.905273	9805.503906
3038.051758	9727.721680
3037.199219	9696.851563
3036.345703	9750.959961
3035.492188	9682.011719
3034.638672	9698.027344
3033.785156	9866.322266
3032.931641	9574.853516
3032.077148	9784.100586
3031.223633	9668.366211
3030.369141	9704.856445
3029.514648	9802.785156
3028.660156	9754.395508
3027.805664	9635.814453
3026.951172	9689.833984
3026.095703	9664.878906
3025.241211	9841.677734
3024.385742	9691.000977
3023.530273	9397.150391
3022.674805	9591.440430
3021.819336	9791.511719
3020.963867	9459.805664
3020.107422	9578.044922
3019.251953	9664.119141
3018.395508	9674.243164
3017.539063	9485.830078
3016.682617	9609.826172
3015.826172	9716.269531
3014.969727	9536.694336
3014.113281	9637.279297
3013.255859	9720.328125
3012.398438	9762.514648
3011.541992	9638.457031
3010.684570	9598.998047
3009.827148	9498.329102
3008.968750	9791.206055
3008.111328	9550.644531
3007.252930	9744.342773
3006.395508	9477.644531
3005.537109	9720.813477
3004.678711	9733.810547
3003.820313	9586.637695
3002.961914	9736.499023
3002.102539	9825.176758
3001.244141	9666.416992
3000.384766	9787.088867
2999.525391	9517.815430
2998.666016	9621.016602
2997.806641	9613.648438
2996.947266	9539.391602
2996.087891	9854.814453
2995.227539	9681.689453
2994.367188	9595.828125
2993.507813	9733.792969
2992.647461	9665.386719
2991.787109	9631.869141
2990.925781	9717.469727
2990.065430	9698.476563
2989.205078	9798.558594
2988.343750	9741.810547
2987.482422	9615.403320
2986.621094	9567.411133
2985.759766	9562.966797
2984.898438	9575.935547
2984.037109	9731.064453
2983.174805	9770.108398
2982.312500	9771.434570
2981.451172	9740.861328
2980.588867	9539.229492
2979.726563	9589.874023
2978.864258	9768.037109
2978.000977	9691.114258
2977.138672	9764.889648
2976.275391	9806.773438
2975.412109	9686.429688
2974.548828	9780.443359
2973.685547	10013.420898
2972.822266	9814.929688
2971.958984	9830.716797
2971.094727	9803.083984
2970.231445	9951.985352
2969.367188	9620.534180
2968.502930	9650.805664
2967.638672	9683.959961
2966.774414	9676.615234
2965.909180	9978.666992
2965.044922	9829.614258
2964.179688	9972.559570
2963.314453	9780.204102
2962.450195	9738.171875
2961.583984	9644.148438
2960.718750	9752.366211
2959.853516	9652.592773
2958.987305	9679.915039
2958.122070	9713.002930
2957.255859	9873.102539
2956.389648	9836.874023
2955.523438	10040.190430
2954.657227	9807.733398
2953.791016	9684.982422
2952.923828	9948.798828
2952.056641	9892.397461
2951.190430	9815.829102
2950.323242	9736.401367
2949.456055	9809.782227
2948.587891	9764.966797
2947.720703	9772.038086
2946.853516	9833.851563
2945.985352	9843.789063
2945.117188	9646.336914
2944.249023	9886.693359
2943.380859	9787.199219
2942.512695	9900.779297
2941.644531	9959.631836
2940.775391	9819.879883
2939.907227	9907.501953
2939.038086	9822.467773
2938.168945	9898.553711
2937.299805	10035.014648
2936.430664	9967.254883
2935.560547	9905.267578
2934.691406	9857.673828
2933.821289	9723.864258
2932.951172	9848.747070
2932.081055	9924.740234
2931.210938	9796.730469
2930.340820	10088.143555
2929.470703	9810.803711
2928.599609	9924.083008
2927.729492	9997.130859
2926.858398	9840.504883
2925.987305	9866.171875
2925.116211	9891.837891
2924.244141	9917.504883
2923.373047	9943.171875
2922.501953	9961.646484
2921.629883	10094.828125
2920.757813	10139.078125
2919.885742	10019.899414
2919.013672	10198.870117
2918.141602	10142.770508
2917.269531	9774.346680
2916.396484	9844.396484
2915.523438	9986.039063
2914.651367	9892.775391
2913.778320	9982.817383
2912.904297	9935.395508
2912.031250	10285.913086
2911.158203	9906.429688
2910.284180	9864.765625
2909.411133	10011.965820
2908.537109	10199.171875
2907.663086	10060.224609
2906.789063	10015.701172
2905.915039	9822.497070
2905.040039	9946.710938
2904.166016	9990.843750
2903.291016	10092.125977
2902.416016	10130.504883
2901.541016	9886.005859
2900.666016	9910.122070
2899.791016	10037.056641
2898.915039	9844.095703
2898.040039	9945.300781
2897.164063	9792.384766
2896.288086	9982.053711
2895.412109	10103.165039
2894.536133	9924.615234
2893.660156	9874.511719
2892.783203	10098.275391
2891.907227	10028.193359
2891.030273	10043.685547
2890.153320	9919.461914
2889.276367	9983.428711
2888.399414	10081.578125
2887.522461	9863.362305
2886.644531	10001.390625
2885.767578	10008.323242
2884.889648	10220.343750
2884.011719	9936.740234
2883.133789	9866.795898
2882.255859	9942.074219
2881.377930	10145.427734
2880.499023	9867.710938
2879.621094	10025.478516
2878.742188	10063.694336
2877.863281	9857.244141
2876.984375	10043.378906
2876.105469	9723.243164
2875.226563	9880.905273
2874.346680	10140.863281
2873.466797	10053.951172
2872.587891	10029.591797
2871.708008	10067.754883
2870.828125	10114.428711
2869.948242	9950.876953
2869.067383	9824.300781
2868.187500	9950.503906
2867.306641	9965.933594
2866.425781	9950.129883
2865.544922	9971.230469
2864.664063	9935.565430
2863.783203	10223.382813
2862.902344	9864.269531
2862.020508	9939.263672
2861.139648	9790.181641
2860.257813	9927.546875
2859.375977	10229.307617
2858.494141	9966.862305
2857.612305	9990.760742
2856.729492	9753.942383
2855.847656	9996.034180
2854.964844	10082.239258
2854.082031	9565.109375
2853.199219	9894.905273
2852.316406	9992.410156
2851.433594	9934.175781
2850.549805	9887.281250
2849.666992	9993.230469
2848.783203	10042.550781
2847.899414	9825.907227
2847.015625	10081.738281
2846.131836	9763.338867
2845.248047	10149.178711
2844.363281	10062.716797
2843.479492	9871.686523
2842.594727	9963.366211
2841.709961	10055.015625
2840.825195	9954.496094
2839.940430	9916.162109
2839.055664	10024.721680
2838.169922	9904.485352
2837.285156	9973.479492
2836.399414	9963.398438
2835.513672	9834.761719
2834.627930	9810.593750
2833.742188	10130.708008
2832.856445	10143.178711
2831.969727	9834.049805
2831.083984	9948.103516
2830.197266	9946.496094
2829.310547	9939.250000
2828.423828	9937.643555
2827.537109	9865.570313
2826.649414	9886.522461
2825.762695	9966.641602
2824.875000	10021.378906
2823.987305	10112.717773
2823.099609	9961.810547
2822.211914	10039.049805
2821.324219	9927.621094
2820.436523	10075.216797
2819.547852	10112.993164
2818.659180	10128.244141
2817.771484	9918.391602
2816.882813	10001.186523
2815.993164	10185.216797
2815.104492	10093.575195
2814.215820	10063.824219
2813.326172	10194.335938
2812.437500	10046.516602
2811.547852	10002.734375
2810.658203	10186.583984
2809.768555	10182.127930
2808.877930	10158.008789
2807.988281	9987.842773
2807.097656	10084.518555
2806.207031	10133.428711
2805.317383	10075.643555
2804.426758	10205.939453
2803.535156	10215.515625
2802.644531	10110.041992
2801.753906	10195.379883
2800.862305	10039.451172
2799.970703	10276.223633
2799.079102	9994.142578
2798.187500	10090.658203
2797.295898	10147.895508
2796.404297	10115.423828
2795.511719	10024.112305
2794.619141	10246.645508
2793.727539	9976.047852
2792.834961	10400.189453
2791.942383	10269.681641
2791.048828	10318.423828
2790.156250	10145.975586
2789.262695	10362.673828
2788.370117	10226.657227
2787.476563	10415.288086
2786.583008	10200.967773
2785.689453	10300.024414
2784.794922	10228.434570
2783.901367	10369.402344
2783.006836	10185.982422
2782.113281	10184.334961
2781.218750	10182.688477
2780.324219	10295.623047
2779.429688	10240.868164
2778.534180	10278.324219
2777.639648	10477.782227
2776.744141	10389.507813
2775.848633	10278.922852
2774.954102	10148.830078
2774.058594	10342.594727
2773.162109	10332.548828
2772.266602	10464.827148
2771.370117	10376.638672
2770.474609	10313.586914
2769.578125	10415.121094
2768.681641	10321.405273
2767.785156	10358.773438
2766.888672	10460.250000
2765.991211	10352.634766
2765.094727	10275.709961
2764.197266	10393.870117
2763.299805	10261.241211
2762.402344	10343.150391
2761.504883	10333.122070
2760.607422	10300.817383
2759.708984	10315.856445
2758.811523	10447.812500
2757.913086	10412.721680
2757.014648	10285.803711
2756.116211	10331.442383
2755.217773	10285.257813
2754.319336	10314.190430
2753.419922	10462.704102
2752.520508	10399.835938
2751.622070	10295.283203
2750.722656	10490.983398
2749.823242	10542.093750
2748.922852	10598.744141
2748.023438	10413.651367
2747.124023	10670.320313
2746.223633	10513.049805
2745.323242	10383.601563
2744.422852	10159.789063
2743.522461	10563.470703
2742.622070	10459.057617
2741.720703	10462.916016
2740.820313	10286.406250
2739.918945	10537.211914
2739.017578	10382.938477
2738.116211	10378.484375
2737.214844	10407.308594
2736.313477	10477.711914
2735.411133	10362.356445
2734.509766	10565.786133
2733.607422	10530.820313
2732.705078	10470.928711
2731.802734	10314.092773
2730.900391	10450.918945
2729.997070	10316.291992
2729.094727	10444.766602
2728.191406	10559.355469
2727.288086	10338.963867
2726.384766	10287.471680
2725.481445	10291.340820
2724.578125	10718.525391
2723.673828	10561.875000
2722.770508	10380.382813
2721.866211	10295.738281
2720.961914	10435.085938
2720.057617	10530.155273
2719.153320	10379.188477
2718.249023	10341.580078
2717.343750	10312.273438
2716.439453	10335.468750
2715.534180	10436.000000
2714.628906	10517.166016
2713.723633	10305.594727
2712.818359	10411.603516
2711.912109	10409.917969
2711.006836	10455.152344
2710.100586	10453.458984
2709.194336	10440.729492
2708.289063	10527.317383
2707.381836	10315.983398
2706.475586	10543.212891
2705.569336	10293.339844
2704.662109	10167.609375
2703.754883	10422.317383
2702.848633	10467.481445
2701.941406	10391.384766
2701.033203	10488.886719
2700.125977	10302.622070
2699.218750	10636.973633
2698.310547	10392.914063
2697.402344	10457.311523
2696.494141	10477.640625
2695.585938	10586.041992
2694.677734	10358.660156
2693.769531	10362.485352
2692.860352	10380.063477
2691.951172	10628.695313
2691.042969	10472.958984
2690.133789	10353.020508
2689.224609	10425.576172
2688.314453	10575.077148
2687.405273	10438.688477
2686.495117	10491.957031
2685.585938	10416.072266
2684.675781	10436.361328
2683.765625	10333.041992
2682.854492	10608.738281
2681.944336	10563.085938
2681.034180	10635.499023
2680.123047	10510.253906
2679.211914	10453.662109
2678.300781	10402.575195
2677.389648	10524.349609
2676.478516	10297.707031
2675.567383	10474.312500
2674.655273	10464.388672
2673.743164	10673.810547
2672.831055	10647.408203
2671.918945	10442.854492
2671.006836	10432.940430
2670.094727	10683.331055
2669.182617	10593.932617
2668.269531	10351.171875
2667.356445	10374.141602
2666.443359	10397.104492
2665.530273	10795.137695
2664.617188	10634.620117
2663.704102	10515.208984
2662.790039	10535.396484
2661.875977	10451.607422
2660.962891	10477.268555
2660.048828	10738.142578
2659.134766	10599.666992
2658.219727	10515.920898
2657.305664	10486.876953
2656.390625	10742.113281
2655.476563	10513.539063
2654.561523	10694.909180
2653.646484	10545.645508
2652.730469	10497.498047
2651.815430	10613.235352
2650.900391	10537.785156
2649.984375	10650.747070
2649.068359	10534.367188
2648.152344	10404.377930
2647.236328	10492.745117
2646.320313	10622.010742
2645.404297	10519.350586
2644.487305	10449.454102
2643.570313	10447.758789
2642.653320	10683.289063
2641.736328	10676.103516
2640.819336	10753.420898
2639.902344	10367.396484
2638.984375	10676.358398
2638.067383	10652.831055
2637.149414	10743.720703
2636.231445	10592.178711
2635.313477	10489.702148
2634.395508	10705.819336
2633.476563	10641.469727
2632.558594	10620.690430
2631.639648	10676.117188
2630.720703	10581.872070
2629.801758	10659.049805
2628.882813	10722.602539
2627.963867	10824.209961
2627.044922	10768.069336
2626.125000	10502.601563
2625.205078	10821.659180
2624.285156	10654.112305
2623.365234	10633.361328
2622.445313	10661.522461
2621.525391	10591.878906
2620.604492	10853.623047
2619.683594	10775.823242
2618.763672	10806.657227
2617.842773	10897.206055
2616.920898	10577.857422
2616.000000	10597.852539
2615.079102	10463.171875
2614.157227	10645.959961
2613.235352	10606.255859
2612.314453	10759.126953
2611.391602	10695.010742
2610.469727	10647.182617
2609.547852	10702.381836
2608.625000	10817.192383
2607.703125	10823.565430
2606.780273	10767.618164
2605.857422	10727.943359
2604.934570	10693.698242
2604.011719	10691.961914
2603.087891	10803.952148
2602.165039	10693.905273
2601.241211	10776.082031
2600.317383	10766.212891
2599.393555	10764.464844
2598.469727	10781.656250
2597.544922	10747.443359
2596.621094	10805.202148
2595.696289	10679.051758
2594.771484	10669.206055
2593.846680	10832.378906
2592.921875	10860.352539
2591.997070	10861.291016
2591.072266	10837.911133
2590.146484	10803.731445
2589.220703	10677.722656
2588.294922	10578.762695
2587.369141	10849.773438
2586.443359	10726.518555
2585.517578	10732.874023
2584.590820	10884.972656
2583.665039	10742.880859
2582.738281	10795.097656
2581.811523	10793.343750
2580.884766	10737.646484
2579.957031	10948.948242
2579.030273	10887.849609
2578.102539	10888.777344
2577.175781	10862.749023
2576.248047	11057.721680
2575.320313	10681.376953
2574.391602	10671.558594
2573.463867	10896.097656
2572.536133	10918.566406
2571.607422	10892.556641
2570.678711	10853.093750
2569.750000	10894.401367
2568.821289	10924.929688
2567.892578	10966.211914
2566.962891	10932.142578
2566.034180	10666.724609
2565.104492	10893.623047
2564.174805	10975.221680
2563.245117	10879.327148
2562.315430	10651.727539
2561.384766	10929.551758
2560.455078	10839.084961
2559.524414	10659.970703
2558.593750	10900.042969
2557.663086	10930.506836
2556.732422	10789.066406
2555.801758	10824.908203
2554.870117	11029.892578
2553.939453	10971.724609
2553.007813	11066.568359
2552.076172	11035.249023
2551.144531	10797.331055
2550.212891	11050.441406
2549.280273	10791.138672
2548.348633	10834.977539
2547.416016	10731.319336
2546.483398	10992.317383
2545.550781	10977.127930
2544.618164	10927.099609
2543.685547	10842.250977
2542.751953	11006.605469
2541.819336	10811.936523
2540.885742	10986.956055
2539.952148	11159.239258
2539.018555	11074.420898
2538.084961	10989.628906
2537.150391	10920.923828
2536.216797	10953.939453
2535.282227	10917.373047
2534.347656	11033.314453
2533.413086	11189.342773
2532.478516	11126.008789
2531.543945	10953.058594
2530.608398	10988.708008
2529.673828	11059.097656
2528.738281	11027.898438
2527.802734	10761.541992
2526.867188	11262.111328
2525.930664	11110.676758
2524.995117	11122.224609
2524.058594	11061.662109
2523.123047	10969.077148
2522.186523	10932.585938
2521.250000	11088.296875
2520.312500	10947.711914
2519.375977	11033.989258
2518.439453	11208.282227
2517.501953	11169.113281
2516.564453	10927.253906
2515.626953	11098.811523
2514.689453	11134.333984
2513.751953	11137.853516
2512.813477	10829.520508
2511.875977	11134.229492
2510.937500	11217.682617
2509.999023	11082.653320
2509.060547	11179.405273
2508.122070	11158.943359
2507.182617	11127.836914
2506.244141	11043.492188
2505.304688	10980.470703
2504.365234	11212.895508
2503.425781	11078.017578
2502.486328	11049.608398
2501.546875	11273.927734
2500.606445	10846.529297
2499.666016	11025.598633
2498.726563	10970.626953
2497.786133	11170.884766
2496.845703	11081.351563
2495.904297	11108.781250
2494.963867	11000.685547
2494.022461	11150.329102
2493.081055	11042.261719
2492.140625	11144.043945
2491.199219	11243.135742
2490.256836	10973.150391
2489.315430	11122.674805
2488.373047	11035.930664
2487.431641	11137.628906
2486.489258	11268.479492
2485.546875	11041.153320
2484.604492	11105.666016
2483.661133	11111.813477
2482.718750	11255.839844
2481.775391	10853.687500
2480.833008	11212.414063
2479.889648	11231.790039
2478.945313	11010.025391
2478.001953	11156.598633
2477.058594	11313.719727
2476.114258	11094.697266
2475.169922	11026.688477
2474.226563	11006.359375
2473.282227	10959.563477
2472.336914	11185.403320
2471.392578	11059.202148
2470.447266	11234.679688
2469.502930	11134.965820
2468.557617	11045.864258
2467.612305	11202.744141
2466.666992	10917.987305
2465.721680	11230.820313
2464.775391	11162.906250
2463.829102	10886.223633
2462.883789	11249.115234
2461.937500	11072.906250
2460.991211	11076.384766
2460.043945	10871.208008
2459.097656	11043.727539
2458.150391	10978.560547
2457.204102	10834.215820
2456.256836	11106.957031
2455.309570	10981.112305
2454.362305	11013.625000
2453.414063	11077.785156
2452.466797	10962.555664
2451.518555	10992.417969
2450.570313	11056.548828
2449.622070	11075.838867
2448.673828	11063.490234
2447.725586	11161.840820
2446.776367	11149.480469
2445.828125	11142.394531
2444.878906	11098.428711
2443.929688	10880.640625
2442.980469	10768.260742
2442.030273	10985.047852
2441.081055	11101.725586
2440.130859	10844.593750
2439.181641	10850.721680
2438.231445	10951.574219
2437.281250	10915.587891
2436.331055	10979.570313
2435.379883	11014.600586
2434.429688	11123.249023
2433.478516	10777.012695
2432.527344	11019.729492
2431.576172	11149.348633
2430.625000	11052.926758
2429.673828	10946.026367
2428.721680	10996.782227
2427.770508	10876.791992
2426.818359	10846.129883
2425.866211	10867.993164
2424.914063	10879.347656
2423.960938	10851.325195
2423.008789	10844.306641
2422.055664	10999.980469
2421.103516	10890.618164
2420.150391	10681.611328
2419.197266	10918.540039
2418.243164	10992.806641
2417.290039	10909.734375
2416.335938	10866.011719
2415.382813	10864.239258
2414.428711	10948.948242
2413.474609	10962.882813
2412.520508	10963.714844
2411.565430	10914.778320
2410.611328	11020.373047
2409.656250	10837.900391
2408.701172	10768.062500
2407.746094	10734.894531
2406.791016	10824.745117
2405.835938	10778.494141
2404.879883	10826.446289
2403.923828	10882.230469
2402.968750	10969.381836
2402.013672	10698.240234
2401.056641	10659.889648
2400.099609	10773.175781
2399.144531	10794.941406
2398.187500	10746.139648
2397.230469	10888.097656
2396.273438	10685.158203
2395.316406	10829.690430
2394.359375	10864.486328
2393.402344	10925.382813
2392.443359	10910.545898
2391.486328	10846.116211
2390.529297	10664.259766
2389.570313	10727.756836
2388.613281	10645.124023
2387.654297	10601.647461
2386.695313	10920.731445
2385.736328	10848.538086
2384.777344	10567.776367
2383.818359	10722.468750
2382.859375	10587.785156
2381.900391	10630.360352
2380.941406	10586.934570
2379.982422	10850.943359
2379.021484	10724.139648
2378.062500	10935.950195
2377.101563	10882.084961
2376.142578	10677.230469
2375.181641	10586.980469
2374.220703	10486.348633
2373.259766	10757.876953
2372.298828	10735.305664
2371.337891	10756.965820
2370.376953	10804.627930
2369.416016	10639.026367
2368.455078	10652.889648
2367.492188	10690.146484
2366.531250	10810.568359
2365.568359	10715.243164
2364.607422	10604.357422
2363.644531	10592.233398
2362.681641	10694.408203
2361.718750	10679.675781
2360.757813	10613.011719
2359.794922	10639.837891
2358.830078	10640.696289
2357.867188	10711.631836
2356.904297	10720.262695
2355.941406	10651.049805
2354.976563	10618.179688
2354.013672	10520.473633
2353.048828	10630.270508
2352.085938	10423.690430
2351.121094	10520.503906
2350.156250	10536.929688
2349.191406	10649.242188
2348.226563	10429.835938
2347.261719	10461.813477
2346.296875	10625.890625
2345.332031	10406.594727
2344.367188	10490.349609
2343.400391	10483.457031
2342.435547	10567.171875
2341.468750	10505.914063
2340.503906	10506.785156
2339.537109	10505.068359
2338.570313	10534.395508
2337.603516	10522.327148
2336.636719	10489.573242
2335.669922	10578.361328
2334.703125	10537.851563
2333.736328	10414.637695
2332.769531	10710.153320
2331.800781	10687.729492
2330.833984	10879.756836
2329.865234	11051.054688
2328.898438	11010.505859
2327.929688	10626.512695
2326.962891	10717.726563
2325.994141	10584.315430
2325.025391	10484.502930
2324.056641	10593.757813
2323.087891	10509.457031
2322.119141	10211.055664
2321.148438	10364.152344
2320.179688	10297.982422
2319.210938	10567.049805
2318.240234	10601.416992
2317.271484	10414.085938
2316.300781	10353.104492
2315.330078	10449.333008
2314.359375	10457.930664
2313.390625	10479.404297
2312.419922	10418.451172
2311.449219	10445.074219
2310.476563	10438.216797
2309.505859	10668.203125
2308.535156	10437.375977
2307.564453	10620.962891
2306.591797	10506.008789
2305.621094	10370.510742
2304.648438	10448.554688
2303.675781	10361.974609
2302.703125	10581.421875
2301.732422	10348.300781
2300.759766	10449.430664
2299.787109	10468.283203
2298.814453	10505.116211
2297.839844	10362.084961
2296.867188	10450.300781
2295.894531	10232.838867
2294.919922	10477.698242
2293.947266	10165.298828
2292.972656	10461.433594
2292.000000	10331.381836
2291.025391	10381.018555
2290.050781	10446.035156
2289.076172	10341.704102
2288.101563	10416.964844
2287.126953	10348.578125
2286.152344	10559.719727
2285.175781	10458.000977
2284.201172	10364.004883
2283.226563	10336.678711
2282.250000	10222.232422
2281.275391	10389.663086
2280.298828	10313.670898
2279.322266	10373.455078
2278.345703	10407.610352
2277.371094	10605.625977
2276.394531	10329.959961
2275.417969	10420.416992
2274.439453	10403.355469
2273.462891	10465.623047
2272.486328	10422.975586
2271.507813	10344.529297
2270.531250	10360.738281
2269.552734	10249.083984
2268.576172	10462.171875
2267.597656	10542.260742
2266.619141	10364.177734
2265.640625	10431.478516
2264.662109	10488.537109
2263.683594	10430.617188
2262.705078	10428.909180
2261.726563	10330.156250
2260.748047	10264.629883
2259.767578	10405.915039
2258.789063	10411.868164
2257.808594	10415.266602
2256.830078	10362.526367
2255.849609	10582.791992
2254.869141	10325.970703
2253.888672	10329.379883
2252.908203	10585.243164
2251.927734	10537.615234
2250.947266	10528.241211
2249.966797	10383.784180
2248.986328	10425.405273
2248.003906	10316.683594
2247.023438	10302.255859
2246.041016	10476.319336
2245.060547	10456.775391
2244.078125	10419.414063
2243.095703	10348.968750
2242.115234	10500.000000
2241.132813	10483.008789
2240.150391	10420.220703
2239.166016	10370.172852
2238.183594	10317.597656
2237.201172	10417.641602
2236.218750	10377.790039
2235.234375	10348.121094
2234.251953	10366.762695
2233.267578	10471.814453
2232.283203	10370.988281
2231.300781	10293.062500
2230.316406	10540.339844
2229.332031	10144.906250
2228.347656	10323.555664
2227.363281	10464.059570
2226.378906	10282.089844
2225.392578	10417.476563
2224.408203	10382.775391
2223.423828	10360.772461
2222.437500	10402.205078
2221.451172	10436.013672
2220.466797	10490.100586
2219.480469	10275.367188
2218.494141	10347.210938
2217.507813	10381.004883
2216.521484	10369.164063
2215.535156	10271.163086
2214.548828	10337.891602
2213.562500	10554.067383
2212.574219	10261.044922
2211.587891	10563.268555
2210.599609	10407.076172
2209.613281	10448.408203
2208.625000	10277.097656
2207.636719	10260.226563
2206.650391	10339.518555
2205.662109	10398.543945
2204.673828	10093.281250
2203.685547	10228.204102
2202.695313	10398.485352
2201.707031	10288.058594
2200.718750	10541.697266
2199.728516	10603.157227
2198.740234	10373.973633
2197.750000	10331.843750
2196.761719	10246.779297
2195.771484	10462.327148
2194.781250	10382.319336
2193.791016	10340.214844
2192.800781	10295.598633
2191.810547	10399.927734
2190.820313	10451.222656
2189.830078	10457.077148
2188.837891	10662.248047
2187.847656	10642.840820
2186.857422	10454.452148
2185.865234	10283.778320
2184.873047	10375.379883
2183.882813	10600.562500
2182.890625	10535.809570
2181.898438	10403.034180
2180.906250	10310.617188
2179.914063	10392.061523
2178.921875	10360.128906
2177.927734	10378.576172
2176.935547	10364.282227
2175.943359	10604.273438
2174.949219	10398.637695
2173.955078	10472.434570
2172.962891	10415.354492
2171.968750	10330.617188
2170.974609	10303.765625
2169.980469	10503.286133
2168.986328	10649.930664
2167.992188	10653.210938
2166.998047	10621.294922
2166.003906	10647.199219
2165.007813	10386.602539
2164.013672	10500.479492
2163.019531	10511.316406
2162.023438	10509.590820
2161.027344	10510.375977
2160.033203	10573.936523
2159.037109	10612.369141
2158.041016	10723.585938
2157.044922	10601.354492
2156.048828	10531.859375
2155.052734	10821.169922
2154.054688	10621.216797
2153.058594	10672.142578
2152.062500	10860.976563
2151.064453	10673.651367
2150.066406	10676.911133
2149.070313	10609.988281
2148.072266	10708.488281
2147.074219	10601.491211
2146.076172	10777.623047
2145.078125	10450.221680
2144.080078	10656.373047
2143.082031	10644.605469
2142.083984	10692.928711
2141.083984	10771.273438
2140.085938	10749.481445
2139.085938	10497.477539
2138.087891	10488.246094
2137.087891	10771.700195
2136.087891	10724.909180
2135.089844	10645.623047
2134.089844	10593.867188
2133.089844	10854.616211
2132.087891	10632.875977
2131.087891	10641.125000
2130.087891	10754.315430
2129.087891	10725.066406
2128.085938	10615.895508
2127.085938	10783.976563
2126.083984	10729.765625
2125.082031	10790.417969
2124.082031	10598.930664
2123.080078	10687.037109
2122.078125	10637.868164
2121.076172	10818.252930
2120.074219	10883.827148
2119.070313	10712.434570
2118.068359	10728.128906
2117.066406	10756.285156
2116.062500	10472.814453
2115.060547	10877.374023
2114.056641	10755.963867
2113.054688	10724.293945
2112.050781	10764.882813
2111.046875	10957.401367
2110.042969	10634.327148
2109.039063	10632.578125
2108.035156	10780.208984
2107.031250	10686.333984
2106.025391	10886.171875
2105.021484	10874.426758
2104.015625	10626.324219
2103.011719	10684.279297
2102.005859	10734.751953
2101.000000	10921.982422
2099.996094	11071.854492
2098.990234	10759.286133
2097.984375	10740.117188
2096.978516	10621.547852
2095.972656	10731.613281
2094.964844	10782.018555
2093.958984	10675.919922
2092.953125	10569.855469
2091.945313	10836.291992
2090.939453	10742.648438
2089.931641	10711.092773
2088.923828	10883.062500
2087.916016	10858.937500
2086.908203	10795.124023
2085.900391	10927.302734
2084.892578	10650.196289
2083.884766	10725.318359
2082.876953	10785.539063
2081.869141	10749.056641
2080.859375	10672.928711
2079.851563	10643.912109
2078.841797	10721.449219
2077.833984	10741.980469
2076.824219	10670.856445
2075.814453	10542.793945
2074.804688	10605.438477
2073.794922	10821.559570
2072.785156	10668.781250
2071.775391	10738.797852
2070.763672	10910.247070
2069.753906	10784.744141
2068.744141	10585.070313
2067.732422	10543.753906
2066.720703	10828.875000
2065.710938	10765.279297
2064.699219	10845.085938
2063.687500	10690.054688
2062.675781	10792.087891
2061.664063	10866.907227
2060.652344	10808.296875
2059.640625	10744.764648
2058.628906	10740.525391
2057.615234	10936.295898
2056.603516	10843.147461
2055.589844	10801.866211
2054.578125	10735.917969
2053.564453	10679.861328
2052.550781	10623.823242
2051.537109	10656.608398
2050.523438	10869.428711
2049.509766	10670.358398
2048.496094	10907.762695
2047.482422	10629.865234
2046.466797	10842.548828
2045.453125	10976.302734
2044.439453	10898.110352
2043.423828	10672.130859
2042.408203	10850.182617
2041.394531	10843.468750
2040.378906	10886.003906
2039.363281	10977.762695
2038.347656	10801.184570
2037.332031	10944.611328
2036.316406	10755.791992
2035.298828	10965.606445
2034.283203	11037.595703
2033.265625	10925.098633
2032.250000	10805.260742
2031.232422	10948.542969
2030.216797	10836.115234
2029.199219	10721.265625
2028.181641	10815.339844
2027.164063	10892.182617
2026.146484	10855.993164
2025.128906	10984.384766
2024.111328	10980.118164
2023.091797	10808.881836
2022.074219	10735.903320
2021.056641	10950.140625
2020.037109	10842.802734
2019.017578	10706.053711
2018.000000	10770.531250
2016.980469	11060.664063
2015.960938	10671.326172
2014.941406	10836.316406
2013.921875	10856.595703
2012.902344	10680.754883
2011.882813	10951.053711
2010.861328	11032.567383
2009.841797	10886.186523
2008.820313	10889.290039
2007.800781	10875.247070
2006.779297	10777.943359
2005.757813	10800.650391
2004.738281	10884.554688
2003.716797	10860.728516
2002.695313	10780.621094
2001.671875	10673.623047
2000.650391	10718.346680
1999.628906	10765.500977
1998.607422	10683.014648
1997.583984	10566.320313
1996.562500	10589.026367
1995.539063	10738.839844
1994.515625	10563.534180
1993.494141	10701.083008
1992.470703	10562.491211
1991.447266	10858.784180
1990.423828	10783.715820
1989.400391	10430.271484
1988.375000	10638.537109
1987.351563	10541.570313
1986.328125	10473.924805
1985.302734	10650.352539
1984.279297	10643.714844
1983.253906	10476.057617
1982.228516	10540.189453
1981.203125	10504.304688
1980.177734	10590.355469
1979.152344	10710.511719
1978.126953	10672.177734
1977.101563	10487.619141
1976.076172	10690.584961
1975.050781	10569.432617
1974.023438	10504.349609
1972.998047	10431.980469
1971.970703	10483.833008
1970.943359	10616.019531
1969.917969	10692.168945
1968.890625	10666.062500
1967.863281	10484.209961
1966.835938	10431.379883
1965.808594	10531.835938
1964.779297	10549.556641
1963.751953	10343.521484
1962.724609	10609.293945
1961.695313	10471.391602
1960.667969	10428.336914
1959.638672	10574.871094
1958.609375	10529.383789
1957.580078	10359.998047
1956.550781	10394.725586
1955.521484	10524.165039
1954.492188	10345.150391
1953.462891	10418.709961
1952.433594	10528.659180
1951.404297	10201.669922
1950.373047	10362.582031
1949.343750	10450.647461
1948.312500	10259.689453
1947.281250	10374.424805
1946.250000	10547.326172
1945.220703	10497.085938
1944.189453	10812.951172
1943.158203	10537.249023
1942.125000	10445.833008
1941.093750	10368.986328
1940.062500	10408.459961
1939.031250	10530.283203
1937.998047	10467.991211
1936.964844	10410.563477
1935.933594	10525.061523
1934.900391	10361.125977
1933.867188	10451.388672
1932.833984	10377.059570
1931.800781	10506.003906
1930.767578	10400.240234
1929.734375	10444.477539
1928.701172	10370.198242
1927.666016	10547.416992
1926.632813	10335.338867
1925.597656	10449.656250
1924.564453	10431.010742
1923.529297	10499.361328
1922.494141	10558.025391
1921.458984	10635.995117
1920.423828	10378.221680
1919.388672	10663.869141
1918.353516	10563.113281
1917.318359	10732.761719
1916.283203	10574.100586
1915.246094	10524.086914
1914.210938	10565.776367
1913.173828	10539.904297
1912.138672	10579.165039
1911.101563	10589.472656
1910.064453	10438.224609
1909.027344	10520.875977
1907.990234	10849.365234
1906.953125	10743.937500
1905.916016	10648.184570
1904.876953	10723.517578
1903.839844	10603.709961
1902.802734	10508.025391
1901.763672	10602.608398
1900.724609	10706.790039
1899.687500	10671.316406
1898.648438	10633.447266
1897.609375	10494.519531
1896.570313	10752.635742
1895.531250	10717.176758
1894.492188	10814.017578
1893.451172	10576.551758
1892.412109	10781.583984
1891.373047	10580.261719
1890.332031	10523.226563
1889.291016	10641.647461
1888.251953	10548.576172
1887.210938	10578.061523
1886.169922	10511.454102
1885.128906	10615.386719
1884.087891	10692.871094
1883.046875	10698.303711
1882.005859	10660.524414
1880.962891	10581.956055
1879.921875	10604.200195
1878.880859	10626.437500
1877.837891	10634.272461
1876.794922	10582.142578
1875.753906	10530.030273
1874.710938	10571.444336
1873.667969	10636.817383
1872.625000	10366.602539
1871.582031	10602.139648
1870.537109	10444.635742
1869.494141	10538.734375
1868.451172	10616.033203
1867.406250	10645.408203
1866.363281	10593.359375
1865.318359	10625.122070
1864.273438	10589.849609
1863.230469	10559.375000
1862.185547	10481.050781
1861.140625	10515.202148
1860.095703	10532.596680
1859.048828	10506.933594
1858.003906	10555.411133
1856.958984	10422.159180
1855.912109	10422.822266
1854.867188	10437.826172
1853.820313	10448.043945
1852.773438	10494.099609
1851.728516	10487.582031
1850.681641	10421.352539
1849.634766	10441.118164
1848.587891	10506.245117
1847.541016	10308.738281
1846.492188	10469.344727
1845.445313	10374.531250
1844.398438	10640.065430
1843.349609	10487.996094
1842.302734	10293.038086
1841.253906	10443.972656
1840.205078	10482.779297
1839.156250	10593.099609
1838.107422	10281.445313
1837.058594	10403.678711
1836.009766	10375.740234
1834.960938	10428.819336
1833.912109	10393.738281
1832.861328	10256.249023
1831.812500	10161.670898
1830.761719	10479.047852
1829.710938	10305.901367
1828.662109	10294.670898
1827.611328	10281.063477
1826.560547	10293.634766
1825.509766	10056.397461
1824.458984	10473.378906
1823.408203	10255.216797
1822.355469	10277.293945
1821.304688	10292.231445
1820.251953	10321.425781
1819.201172	10429.042969
1818.148438	10344.140625
1817.095703	10283.025391
1816.044922	10388.218750
1814.992188	10103.852539
1813.939453	10325.402344
1812.886719	10261.955078
1811.832031	10212.772461
1810.779297	10308.393555
1809.726563	10202.263672
1808.671875	10108.031250
1807.619141	10462.210938
1806.564453	10318.155273
1805.509766	10318.814453
1804.457031	10350.297852
1803.402344	10301.163086
1802.347656	10394.269531
1801.292969	10314.333008
1800.238281	10291.293945
1799.181641	10431.739258
1798.126953	10373.155273
1797.070313	10335.906250
1796.015625	10478.640625
1794.958984	10320.635742
1793.904297	10328.390625
1792.847656	10300.639648
1791.791016	10308.394531
1790.734375	10337.442383
1789.677734	10309.702148
1788.621094	10357.661133
1787.562500	10386.684570
1786.505859	10441.708008
1785.449219	10402.147461
1784.390625	10433.511719
1783.333984	10363.242188
1782.275391	10654.525391
1781.216797	10551.166016
1780.158203	10400.596680
1779.099609	10320.930664
1778.041016	10425.477539
1776.982422	10305.696289
1775.923828	10230.804688
1774.865234	10460.404297
1773.804688	10397.311523
1772.746094	10610.290039
1771.685547	10403.291992
1770.625000	10639.785156
1769.566406	10421.058594
1768.505859	10258.993164
1767.445313	10396.377930
1766.384766	10432.363281
1765.322266	10425.916016
1764.261719	10289.875000
1763.201172	10255.181641
1762.140625	10302.942383
1761.078125	10383.658203
1760.015625	10438.445313
1758.955078	10601.512695
1757.892578	10366.710938
1756.830078	10522.674805
1755.767578	10433.858398
1754.705078	10312.132813
1753.642578	10385.693359
1752.580078	10468.637695
1751.515625	10405.755859
1750.453125	10498.073242
1749.390625	10456.363281
1748.326172	10522.787109
1747.261719	10584.487305
1746.199219	10394.756836
1745.134766	10289.661133
1744.070313	10562.764648
1743.005859	10537.523438
1741.941406	10289.223633
1740.875000	10501.150391
1739.810547	10386.733398
1738.746094	10319.292969
1737.679688	10402.049805
1736.615234	10344.012695
1735.548828	10480.689453
1734.482422	10551.651367
1733.416016	10599.139648
1732.349609	10480.148438
1731.283203	10715.165039
1730.216797	10741.506836
1729.150391	10559.279297
1728.083984	10580.951172
1727.015625	10501.884766
1725.949219	10544.638672
1724.880859	10608.455078
1723.812500	10611.372070
1722.746094	10609.606445
1721.677734	10617.203125
1720.609375	10643.518555
1719.541016	10599.628906
1718.472656	10551.075195
1717.404297	10668.612305
1716.333984	10610.708008
1715.265625	10548.144531
1714.195313	10530.023438
1713.126953	10516.582031
1712.056641	10605.980469
1710.986328	10599.541016
1709.916016	10621.139648
1708.845703	10567.979492
1707.775391	10526.514648
1706.705078	10604.158203
1705.634766	10406.267578
1704.564453	10444.219727
1703.492188	10510.167969
1702.421875	10548.088867
1701.349609	10618.663086
1700.279297	10700.877930
1699.207031	10503.166992
1698.134766	10531.734375
1697.062500	10730.506836
1695.990234	10495.587891
1694.917969	10743.248047
1693.845703	10571.329102
1692.771484	10595.199219
1691.699219	10486.265625
1690.625000	10423.954102
1689.552734	10580.588867
1688.478516	10681.284180
1687.404297	10539.811523
1686.330078	10733.591797
1685.255859	10545.608398
1684.181641	10581.083984
1683.107422	10590.954102
1682.033203	10551.968750
1680.958984	10347.857422
1679.882813	10511.243164
1678.808594	10560.643555
1677.732422	10605.377930
1676.656250	10522.258789
1675.582031	10643.673828
1674.505859	10665.134766
1673.429688	10665.679688
1672.353516	10573.313477
1671.277344	10611.031250
1670.199219	10602.295898
1669.123047	10586.598633
1668.046875	10598.760742
1666.968750	10666.619141
1665.890625	10465.280273
1664.814453	10516.897461
1663.736328	10517.462891
1662.658203	10594.565430
1661.580078	10541.782227
1660.501953	10558.572266
1659.423828	10369.041992
1658.345703	10714.975586
1657.265625	10495.355469
1656.187500	10484.336914
1655.107422	10464.055664
1654.029297	10508.633789
1652.949219	10532.355469
1651.869141	10581.538086
1650.789063	10491.800781
1649.708984	10425.239258
1648.628906	10571.613281
1647.548828	10377.796875
1646.468750	10482.486328
1645.386719	10422.909180
1644.306641	10390.663086
1643.224609	10358.416016
1642.144531	10326.169922
1641.062500	10293.922852
1639.980469	10261.676758
1638.898438	10474.869141
1637.816406	10343.737305
1636.734375	10277.330078
1635.652344	10421.122070
1634.570313	10216.167969
1633.486328	10346.068359
1632.404297	10141.194336
1631.320313	10243.366211
1630.236328	10202.424805
1629.154297	10062.281250
1628.070313	10194.404297
1626.986328	10220.380859
1625.902344	10223.287109
1624.818359	10113.208008
1623.734375	10141.489258
1622.648438	10176.675781
1621.564453	10039.002930
1620.478516	10117.975586
1619.394531	10162.363281
1618.308594	10158.362305
1617.222656	9993.145508
1616.136719	9940.817383
1615.050781	10180.901367
1613.964844	10199.917969
1612.878906	10014.089844
1611.792969	10115.969727
1610.707031	10273.034180
1609.619141	10114.890625
1608.533203	10156.901367
1607.445313	10185.099609
1606.357422	10119.018555
1605.271484	10082.844727
1604.183594	10012.205078
1603.095703	10111.649414
1602.007813	10160.508789
1600.919922	10101.377930
1599.830078	10079.017578
1598.742188	10079.629883
1597.652344	10057.279297
1596.564453	10236.966797
1595.474609	9998.828125
1594.386719	10153.218750
1593.296875	10298.378906
1592.207031	9947.929688
1591.117188	10223.826172
1590.027344	10261.106445
1588.937500	10206.649414
1587.845703	10230.163086
1586.755859	10152.805664
1585.664063	10141.940430
1584.574219	10101.287109
1583.482422	10351.629883
1582.390625	10104.782227
1581.300781	10284.037109
1580.208984	10144.914063
1579.117188	10241.672852
1578.025391	10203.332031
1576.931641	10336.670898
1575.839844	10273.152344
1574.748047	10161.603516
1573.654297	10420.707031
1572.560547	10245.124023
1571.468750	10353.185547
1570.375000	10390.326172
1569.281250	10390.874023
1568.187500	10496.570313
1567.093750	10446.820313
1566.000000	10490.773438
1564.906250	10399.916016
1563.810547	10407.312500
1562.716797	10471.805664
1561.621094	10467.769531
1560.527344	10648.670898
1559.431641	10466.549805
1558.335938	10556.093750
1557.240234	10768.836914
1556.144531	10673.487305
1555.048828	10744.701172
1553.953125	10683.600586
1552.857422	10535.861328
1551.759766	10645.823242
1550.664063	10534.614258
1549.566406	10740.271484
1548.470703	10581.224609
1547.373047	10527.045898
1546.275391	10390.870117
1545.177734	10569.078125
1544.080078	10685.735352
1542.982422	10617.911133
1541.884766	10470.426758
1540.785156	10407.213867
1539.687500	10448.712891
1538.587891	10419.657227
1537.490234	10568.072266
1536.390625	10402.518555
1535.291016	10623.666992
1534.193359	10403.583008
1533.093750	10445.039063
1531.992188	10381.912109
1530.892578	10584.731445
1529.792969	10776.119141
1528.693359	10490.301758
1527.591797	10493.087891
1526.492188	10384.577148
1525.390625	10432.797852
1524.289063	10546.849609
1523.189453	10501.949219
1522.087891	10429.825195
1520.986328	10437.155273
1519.882813	10394.563477
1518.781250	10456.344727
1517.679688	10361.592773
1516.578125	10346.248047
1515.474609	10242.475586
1514.371094	10422.131836
1513.269531	10547.324219
1512.166016	10407.306641
1511.062500	10308.123047
1509.958984	10338.114258
1508.855469	10542.520508
1507.751953	10370.886719
1506.648438	10534.457031
1505.542969	10283.637695
1504.439453	10340.771484
1503.333984	10243.976563
1502.230469	10344.092773
1501.125000	10272.217773
1500.019531	10204.890625
1498.914063	10275.558594
1497.808594	10296.450195
1496.703125	10299.246094
1495.597656	10241.000977
1494.492188	10289.010742
1493.384766	10194.627930
1492.279297	10136.428711
1491.171875	10209.282227
1490.066406	10076.558594
1488.958984	10230.700195
1487.851563	10262.854492
1486.744141	10215.979492
1485.636719	10291.014648
1484.529297	10151.616211
1483.421875	10233.404297
1482.312500	10062.475586
1481.205078	9966.044922
1480.095703	10013.991211
1478.988281	10032.606445
1477.878906	10139.146484
1476.769531	10074.325195
1475.660156	9993.749023
1474.550781	10052.916016
1473.441406	10125.583008
1472.332031	10290.586914
1471.222656	10002.808594
1470.111328	10284.880859
1469.001953	10325.935547
1467.890625	10209.388672
1466.781250	10083.877930
1465.669922	10208.212891
1464.558594	10129.995117
1463.447266	10312.772461
1462.335938	10365.025391
1461.224609	10203.608398
1460.113281	10174.912109
1459.000000	10105.756836
1457.888672	9969.189453
1456.775391	9994.485352
1455.664063	10170.327148
1454.550781	10215.799805
1453.437500	10299.445313
1452.324219	10122.530273
1451.210938	10210.653320
1450.097656	10119.130859
1448.984375	10305.996094
1447.871094	10297.532227
1446.755859	10257.653320
1445.642578	10278.367188
1444.527344	10377.589844
1443.412109	10315.287109
1442.298828	10140.876953
1441.183594	10148.141602
1440.068359	10150.919922
1438.953125	10290.424805
1437.837891	10219.223633
1436.720703	10134.600586
1435.605469	10359.168945
1434.490234	10151.354492
1433.373047	10149.648438
1432.255859	10365.142578
1431.140625	10155.192383
1430.023438	10372.851563
1428.906250	10227.873047
1427.789063	10120.983398
1426.671875	10318.401367
1425.554688	10325.614258
1424.435547	10223.234375
1423.318359	10333.324219
1422.199219	10253.333984
1421.082031	10012.420898
1419.962891	10209.656250
1418.843750	10156.542969
1417.724609	10081.103516
1416.605469	10293.864258
1415.486328	10108.983398
1414.367188	10185.443359
1413.248047	10069.858398
1412.126953	10168.624023
1411.007813	10256.195313
1409.886719	10254.469727
1408.767578	10054.161133
1407.646484	10161.785156
1406.525391	10168.998047
1405.404297	10053.548828
1404.283203	10250.308594
1403.162109	10105.902344
1402.041016	9894.672852
1400.917969	10082.444336
1399.796875	10192.162109
1398.673828	10128.065430
1397.552734	10081.811523
1396.429688	10193.700195
1395.306641	10078.418945
1394.183594	10065.590820
1393.060547	10072.800781
1391.937500	10031.043945
1390.814453	10013.779297
1389.691406	10029.892578
1388.566406	10137.207031
1387.443359	10171.086914
1386.318359	9889.178711
1385.195313	10265.494141
1384.070313	9990.332031
1382.945313	10066.443359
1381.820313	10000.302734
1380.695313	9971.956055
1379.570313	9983.606445
1378.443359	9928.617188
1377.318359	9991.348633
1376.193359	9916.392578
1375.066406	9837.021484
1373.939453	10063.991211
1372.814453	10006.813477
1371.687500	10071.696289
1370.560547	9786.025391
1369.433594	10043.904297
1368.306641	10135.360352
1367.177734	10082.652344
1366.050781	9959.016602
1364.923828	10054.873047
1363.794922	10019.934570
1362.666016	10066.997070
1361.539063	10109.612305
1360.410156	10121.200195
1359.281250	9984.391602
1358.152344	10095.645508
1357.023438	10279.926758
1355.892578	10101.098633
1354.763672	10168.009766
1353.634766	10137.528320
1352.503906	10091.568359
1351.375000	10193.840820
1350.244141	9990.846680
1349.113281	10300.978516
1347.982422	10316.930664
1346.851563	10131.703125
1345.720703	10079.157227
1344.589844	10302.875000
1343.458984	10226.012695
1342.326172	10005.575195
1341.195313	10403.690430
1340.062500	10178.879883
1338.931641	10232.367188
1337.798828	10299.081055
1336.666016	10239.953125
1335.533203	10348.576172
1334.400391	10293.873047
1333.267578	10464.223633
1332.132813	10497.753906
1331.000000	10282.049805
1329.867188	10403.802734
1328.732422	10245.509766
1327.597656	10475.243164
1326.464844	10286.134766
1325.330078	10246.937500
1324.195313	10342.153320
1323.060547	10443.945313
1321.925781	10332.056641
1320.789063	10356.739258
1319.654297	10374.808594
1318.517578	10273.994141
1317.382813	10366.906250
1316.246094	10380.561523
1315.111328	10416.214844
1313.974609	10432.056641
1312.837891	10230.136719
1311.701172	10250.402344
1310.564453	10224.485352
1309.425781	10200.775391
1308.289063	10377.097656
1307.152344	10351.171875
1306.013672	10265.925781
1304.875000	10354.268555
1303.738281	10354.717773
1302.599609	10287.083008
1301.460938	10184.336914
1300.322266	10268.241211
1299.183594	10275.288086
1298.044922	10172.595703
1296.904297	10320.094727
1295.765625	10175.743164
1294.625000	10231.058594
1293.486328	10161.340820
1292.345703	10185.939453
1291.205078	10168.872070
1290.064453	10232.918945
1288.923828	10088.725586
1287.783203	10036.619141
1286.642578	10039.305664
1285.501953	9956.555664
1284.359375	10038.105469
1283.218750	10069.257813
1282.076172	10120.106445
1280.935547	10068.045898
1279.792969	10267.715820
1278.650391	10121.543945
1277.507813	10034.499023
1276.365234	10083.120117
1275.222656	9937.052734
1274.078125	9972.551758
1272.935547	10263.870117
1271.792969	10120.031250
1270.648438	10013.400391
1269.503906	10127.539063
1268.359375	10093.050781
1267.216797	9912.195313
1266.072266	10043.766602
1264.927734	10000.573242
1263.781250	9974.862305
1262.636719	10053.958008
1261.492188	10150.488281
1260.345703	10070.201172
1259.201172	10088.138672
1258.054688	10136.614258
1256.908203	10067.276367
1255.761719	10026.314453
1254.615234	10168.544922
1253.468750	9957.514648
1252.322266	10099.708008
1251.175781	10169.925781
1250.029297	10113.725586
1248.880859	10205.706055
1247.732422	10175.659180
1246.585938	10110.773438
1245.437500	10355.147461
1244.289063	10187.916016
1243.140625	10127.413086
1241.992188	10188.822266
1240.843750	10117.458984
1239.695313	10244.125000
1238.544922	10148.843750
1237.396484	10253.709961
1236.246094	10254.149414
1235.097656	10137.169922
1233.947266	10394.167969
1232.796875	10227.208008
1231.646484	10190.704102
1230.496094	10193.326172
1229.345703	10500.108398
1228.195313	10480.953125
1227.042969	10444.429688
1225.892578	10507.806641
1224.740234	10367.076172
1223.589844	10354.467773
1222.437500	10344.033203
1221.285156	10459.462891
1220.132813	10368.737305
1218.980469	10364.812500
1217.828125	10434.631836
1216.675781	10378.651367
1215.521484	10519.993164
1214.369141	10383.807617
1213.214844	10650.812500
1212.062500	10668.512695
1210.908203	10792.375000
1209.753906	10586.911133
1208.599609	10472.487305
1207.445313	10535.681641
1206.291016	10429.965820
1205.134766	10536.443359
1203.980469	10513.013672
1202.826172	10454.964844
1201.669922	10522.434570
1200.513672	10434.115234
1199.359375	10730.847656
1198.203125	10780.933594
1197.046875	10411.514648
1195.890625	10775.119141
1194.734375	10725.738281
1193.576172	10633.150391
1192.419922	10607.579102
1191.263672	10761.335938
1190.105469	10683.908203
1188.947266	10690.736328
1187.791016	10470.827148
1186.632813	10691.430664
1185.474609	10760.853516
1184.316406	10590.683594
1183.156250	10785.258789
1181.998047	10604.354492
1180.839844	10721.201172
1179.679688	10743.109375
1178.521484	10801.667969
1177.361328	10627.349609
1176.201172	10862.677734
1175.042969	10718.582031
1173.882813	10576.690430
1172.720703	10814.059570
1171.560547	10700.204102
1170.400391	10769.468750
1169.240234	11032.526367
1168.078125	10787.347656
1166.917969	10822.115234
1165.755859	10887.004883
1164.593750	11104.668945
1163.431641	10932.800781
1162.269531	10883.617188
1161.107422	11066.753906
1159.945313	10884.225586
1158.783203	11131.807617
1157.619141	11011.675781
1156.457031	10917.377930
1155.292969	11126.141602
1154.130859	11272.520508
1152.966797	11204.005859
1151.802734	11202.105469
1150.638672	11335.508789
1149.474609	11410.888672
1148.310547	11239.341797
1147.144531	11269.632813
1145.980469	11317.083984
1144.814453	11471.810547
1143.650391	11611.466797
1142.484375	11474.351563
1141.318359	11515.299805
1140.154297	11579.821289
1138.988281	11477.084961
1137.820313	11822.413086
1136.654297	11691.806641
1135.488281	11535.528320
1134.320313	11863.529297
1133.154297	11756.544922
1131.986328	12065.119141
1130.820313	12088.767578
1129.652344	11977.516602
1128.484375	12033.283203
1127.316406	12146.822266
1126.148438	12181.139648
1124.980469	12166.232422
1123.810547	12211.230469
1122.642578	12367.438477
1121.472656	12341.813477
1120.304688	12230.666992
1119.134766	12455.203125
1117.964844	12521.486328
1116.794922	12632.626953
1115.625000	12592.018555
1114.455078	12743.701172
1113.285156	12801.344727
1112.113281	12807.711914
1110.943359	12822.618164
1109.771484	12925.051758
1108.601563	13023.180664
1107.429688	13349.639648
1106.257813	13172.393555
1105.085938	13089.081055
1103.914063	13103.920898
1102.742188	13253.121094
1101.570313	13440.653320
1100.396484	13530.046875
1099.224609	13546.931641
1098.050781	13617.093750
1096.878906	13689.362305
1095.705078	13853.222656
1094.531250	13750.745117
1093.357422	13737.757813
1092.183594	13856.803711
1091.009766	13924.709961
1089.835938	13945.757813
1088.660156	14017.881836
1087.486328	14189.999023
1086.310547	14125.881836
1085.134766	14187.299805
1083.960938	14482.665039
1082.785156	14471.694336
1081.609375	14452.222656
1080.433594	14645.346680
1079.257813	14804.395508
1078.080078	14689.242188
1076.904297	14665.495117
1075.726563	14958.298828
1074.550781	15023.724609
1073.373047	14972.322266
1072.195313	14816.891602
1071.017578	15039.409180
1069.839844	15126.000000
1068.662109	15250.762695
1067.484375	15358.507813
1066.306641	15478.944336
1065.126953	15469.945313
1063.949219	15706.967773
1062.769531	15649.161133
1061.589844	15962.394531
1060.410156	15775.257813
1059.230469	15948.482422
1058.050781	15877.957031
1056.871094	15828.642578
1055.691406	16061.081055
1054.511719	16481.937500
1053.330078	16352.074219
1052.150391	16315.414063
1050.968750	16361.323242
1049.787109	16654.849609
1048.605469	16770.515625
1047.423828	16886.144531
1046.242188	16646.339844
1045.060547	16984.031250
1043.878906	17091.101563
1042.695313	17187.564453
1041.513672	17429.859375
1040.330078	17401.527344
1039.148438	17271.765625
1037.964844	17448.419922
1036.781250	17639.800781
1035.597656	17689.599609
1034.414063	17566.210938
1033.230469	17715.244141
1032.044922	18026.781250
1030.861328	17941.388672
1029.675781	18050.181641
1028.492188	18112.515625
1027.306641	18168.500000
1026.121094	18154.855469
1024.935547	18438.578125
1023.750000	18620.992188
1022.564453	18470.240234
1021.378906	18601.996094
1020.191406	18457.621094
1019.005859	18861.154297
1017.818359	18670.433594
1016.632813	18700.953125
1015.445313	18937.855469
1014.257813	18732.478516
1013.070313	19015.611328
1011.882813	19060.783203
1010.695313	19063.847656
1009.507813	19395.175781
1008.318359	19135.189453
1007.130859	19197.134766
1005.941406	19055.048828
1004.751953	19253.671875
1003.564453	19395.458984
1002.375000	19186.140625
1001.185547	19437.181641
999.996094	19402.343750
998.804688	19184.726563
997.615234	19534.369141
996.425781	19218.085938
995.234375	19536.103516
994.042969	19108.646484
992.853516	19315.310547
991.662109	19433.750000
990.470703	19581.529297
989.279297	19391.447266
988.087891	19390.236328
986.894531	19185.568359
985.703125	19297.634766
984.511719	19271.275391
983.318359	19177.839844
982.125000	19455.435547
980.933594	19376.667969
979.740234	19369.169922
978.546875	19129.130859
977.353516	19075.593750
976.158203	19009.509766
974.964844	19198.900391
973.771484	18889.966797
972.576172	19087.685547
971.382813	19258.128906
970.187500	19294.595703
968.992188	19149.037109
967.796875	19430.244141
966.601563	19129.947266
965.406250	19101.585938
964.210938	19075.326172
963.013672	18819.138672
961.818359	18912.060547
960.621094	18971.517578
959.425781	19112.433594
958.228516	18866.857422
957.031250	18995.210938
955.833984	19017.021484
954.636719	18844.658203
953.439453	19142.033203
952.242188	18980.140625
951.042969	18966.462891
949.845703	18819.259766
948.646484	18895.312500
947.447266	18962.994141
946.250000	18913.876953
945.050781	18931.492188
943.851563	18953.271484
942.650391	18833.312500
941.451172	18859.265625
940.251953	18714.361328
939.050781	18919.478516
937.851563	18914.160156
936.650391	18879.689453
935.449219	18691.152344
934.250000	18810.779297
933.048828	18817.968750
931.847656	18698.210938
930.644531	19106.990234
929.443359	19070.435547
928.242188	18765.576172
927.039063	18691.660156
925.837891	18457.662109
924.634766	18878.603516
923.431641	18515.783203
922.228516	18774.468750
921.025391	18681.908203
919.822266	18416.947266
918.619141	18486.496094
917.414063	18454.257813
916.210938	18615.136719
915.005859	18437.560547
913.802734	18617.068359
912.597656	18321.255859
911.392578	18264.169922
910.187500	18213.326172
908.982422	18245.470703
907.777344	18368.857422
906.572266	18210.195313
905.365234	18180.125000
904.160156	18384.298828
902.953125	18163.537109
901.746094	17965.644531
900.541016	18016.433594
899.333984	17874.562500
898.126953	18068.255859
896.919922	17816.671875
895.710938	17927.492188
894.503906	17580.794922
893.296875	17776.472656
892.087891	17810.675781
890.878906	17586.246094
889.671875	17512.900391
888.462891	17460.261719
887.253906	17374.552734
886.044922	17168.957031
884.833984	17215.626953
883.625000	17260.214844
882.416016	17209.728516
881.205078	16954.710938
879.996094	17038.568359
878.785156	17116.199219
877.574219	17010.013672
876.363281	16763.460938
875.152344	16766.781250
873.941406	16683.410156
872.730469	16587.685547
871.517578	16772.603516
870.306641	16798.609375
869.093750	16393.523438
867.880859	16512.384766
866.669922	16206.455078
865.457031	16533.523438
864.244141	16588.400391
863.031250	16307.344727
861.816406	16417.875000
860.603516	16318.232422
859.390625	16012.648438
858.175781	16300.279297
856.962891	15978.329102
855.748047	15934.414063
854.533203	16034.599609
853.318359	15902.194336
852.103516	16033.213867
850.888672	16096.296875
849.671875	15828.189453
848.457031	15829.586914
847.242188	15787.802734
846.025391	15680.244141
844.808594	15508.999023
843.591797	15473.455078
842.376953	15733.818359
841.158203	15468.144531
839.941406	15557.925781
838.724609	15542.933594
837.507813	15554.639648
836.289063	15395.936523
835.072266	15614.987305
833.853516	15468.641602
832.634766	15431.101563
831.416016	15565.913086
830.197266	15509.907227
828.978516	15380.085938
827.759766	15641.971680
826.541016	15551.125977
825.320313	15368.064453
824.101563	15469.952148
822.880859	15383.279297
821.660156	15620.351563
820.441406	15697.559570
819.220703	15649.804688
818.000000	15528.345703
816.777344	15732.468750
815.556641	15457.504883
814.335938	15499.876953
813.113281	15476.750977
811.892578	15690.970703
810.669922	15549.168945
809.447266	15605.812500
808.224609	15633.805664
807.001953	15672.011719
805.779297	15542.574219
804.556641	15627.791016
803.332031	15533.145508
802.109375	15751.142578
800.884766	15634.035156
799.662109	15827.429688
798.437500	15667.462891
797.212891	15677.020508
795.988281	15555.920898
794.763672	15641.014648
793.539063	15864.849609
792.312500	15700.930664
791.087891	15869.595703
789.861328	15785.279297
788.636719	15749.935547
787.410156	15967.439453
786.183594	15707.823242
784.957031	15786.654297
783.730469	15732.990234
782.503906	15695.645508
781.277344	15819.255859
780.048828	15865.420898
778.822266	15925.825195
777.593750	15792.768555
776.365234	15741.191406
775.136719	15952.210938
773.908203	15979.994141
772.679688	15950.791992
771.451172	15710.017578
770.222656	15788.678711
768.994141	15767.658203
767.763672	15986.584961
766.535156	15941.139648
765.304688	15859.121094
764.074219	15817.777344
762.843750	15802.863281
761.613281	16263.359375
760.382813	15990.397461
759.152344	16194.801758
757.919922	15893.515625
756.689453	15951.687500
755.457031	15796.698242
754.226563	16088.264648
752.994141	15990.122070
751.761719	15960.994141
750.529297	16033.299805
749.296875	16069.074219
748.064453	16094.696289
746.830078	16091.924805
745.597656	16058.747070
744.363281	16370.128906
743.130859	16073.480469
741.896484	16172.014648
740.662109	16173.280273
739.427734	16385.183594
738.193359	16206.184570
736.958984	16262.107422
735.722656	16158.090820
734.488281	16282.816406
733.251953	16296.200195
732.017578	16214.484375
730.781250	16235.965820
729.544922	16184.625977
728.308594	16305.193359
727.072266	16447.958984
725.835938	16491.619141
724.599609	16405.908203
723.361328	16265.664063
722.125000	16505.318359
720.886719	16130.768555
719.648438	16390.560547
718.412109	16363.500977
717.173828	16211.267578
715.935547	16519.359375
714.695313	16320.726563
713.457031	16334.056641
712.218750	16502.744141
710.978516	16269.920898
709.740234	16513.189453
708.500000	16532.525391
707.259766	16287.717773
706.019531	16407.880859
704.779297	16380.864258
703.539063	16390.130859
702.298828	16492.080078
701.056641	16618.166016
699.816406	16377.622070
698.574219	16537.919922
697.333984	16468.621094
696.091797	16407.396484
694.849609	16511.246094
693.607422	16423.873047
692.365234	16577.986328
691.121094	16518.794922
689.878906	16528.013672
688.636719	16625.714844
687.392578	16743.490234
686.148438	16684.310547
684.904297	16522.634766
683.662109	16620.269531
682.417969	16816.326172
681.171875	16781.279297
679.927734	16943.093750
678.683594	16908.035156
677.437500	16728.414063
676.193359	16928.296875
674.947266	16995.626953
673.701172	16920.443359
672.455078	16795.119141
671.208984	16748.082031
669.962891	16817.402344
668.716797	16860.625000
667.470703	17132.425781
666.222656	16846.781250
664.976563	17106.462891
663.728516	16889.062500
662.480469	16966.296875
661.232422	16704.919922
659.984375	16718.058594
658.736328	16881.400391
657.488281	16908.519531
656.240234	16719.404297
654.990234	16752.546875
653.742188	16643.578125
652.492188	16760.765625
651.242188	16639.826172
649.992188	16842.988281
648.742188	16828.076172
647.492188	16759.179688
646.242188	16740.287109
644.992188	16771.376953
643.740234	16582.605469
642.490234	16307.972656
641.238281	16566.882813
639.986328	16645.919922
638.734375	16507.228516
637.482422	16742.005859
636.230469	16591.365234
634.978516	16556.556641
633.726563	16695.400391
632.472656	16453.050781
631.220703	16356.432617
629.966797	16924.125000
628.712891	16544.240234
627.458984	16692.931641
626.205078	16616.275391
624.951172	16537.648438
623.697266	16827.775391
622.443359	16671.419922
621.187500	17001.269531
619.933594	16717.447266
618.677734	16832.066406
617.421875	16922.748047
616.167969	16752.572266
614.912109	16980.593750
613.654297	17353.830078
612.398438	17271.226563
611.142578	17252.320313
609.884766	17155.835938
608.628906	17115.076172
607.371094	17470.066406
606.113281	17506.808594
604.857422	17692.630859
603.599609	17437.144531
602.339844	17650.734375
601.082031	17822.525391
599.824219	17829.373047
598.564453	17971.279297
597.306641	18105.193359
596.046875	18111.984375
594.787109	18166.417969
593.529297	18034.257813
592.269531	18301.025391
591.007813	18192.695313
589.748047	18348.250000
588.488281	18351.021484
587.226563	18641.343750
585.966797	18729.322266
584.705078	18726.078125
583.443359	18653.460938
582.183594	18882.093750
580.921875	18795.601563
579.658203	18782.439453
578.396484	18995.083984
577.134766	18781.873047
575.871094	19154.822266
574.609375	19282.162109
573.345703	19215.482422
572.082031	19097.369141
570.818359	19319.625000
569.554688	19480.476563
568.291016	19255.566406
567.027344	19169.167969
565.763672	19306.232422
564.498047	19261.369141
563.234375	19267.912109
561.968750	19634.132813
560.703125	19460.798828
559.437500	19410.009766
558.171875	19284.179688
556.906250	19658.039063
555.640625	19388.066406
554.375000	19372.857422
553.107422	19499.773438
551.839844	19466.787109
550.574219	19668.621094
549.306641	19533.029297
548.039063	19369.869141
546.771484	19654.441406
545.503906	19404.556641
544.236328	19525.390625
542.966797	19594.935547
541.699219	19542.265625
540.429688	19400.943359
539.160156	19691.121094
537.892578	19435.574219
536.623047	19729.582031
535.353516	19722.220703
534.082031	20053.480469
532.812500	19658.291016
531.542969	19780.833984
530.271484	19858.076172
529.001953	19758.226563
527.730469	19931.828125
526.458984	19916.568359
525.187500	19810.859375
523.916016	20031.542969
522.644531	19967.130859
521.373047	20230.945313
520.099609	20174.376953
518.828125	20233.742188
517.554688	20192.906250
516.281250	20379.902344
515.007813	20411.707031
513.734375	20586.818359
512.460938	20583.242188
511.187500	20772.000000
509.914063	20801.750000
508.638672	20825.601563
507.365234	20704.289063
506.089844	20785.023438
504.814453	20838.277344
503.541016	20856.222656
502.265625	21074.101563
500.988281	21137.074219
499.712891	20890.419922
498.437500	20933.808594
497.160156	20969.347656
495.884766	20807.064453
494.607422	21244.031250
493.330078	21226.634766
492.052734	21238.603516
490.775391	21180.111328
489.498047	20994.447266
488.220703	21157.095703
486.943359	20991.058594
485.664063	21239.703125
484.386719	21108.906250
483.107422	21085.685547
481.828125	20919.773438
480.548828	20961.085938
479.269531	20887.093750
477.990234	20758.421875
476.710938	20913.035156
475.429688	20833.228516
474.150391	20856.941406
472.869141	20564.361328
471.589844	20867.253906
470.308594	20885.091797
469.027344	20967.318359
467.746094	20653.457031
466.464844	20782.509766
465.181641	20638.468750
463.900391	20732.376953
462.617188	20564.996094
461.335938	20598.455078
460.052734	20614.359375
458.769531	20499.697266
457.486328	20807.857422
456.203125	20397.111328
454.919922	20712.970703
453.634766	20680.154297
452.351563	20559.738281
451.066406	20474.400391
449.783203	20544.792969
448.498047	20881.753906
447.212891	20866.443359
445.927734	20703.298828
444.642578	20804.718750
443.357422	20736.923828
442.070313	20958.843750
440.785156	20867.716797
439.498047	20965.146484
438.212891	21029.507813
436.925781	21016.128906
435.638672	21492.275391
434.351563	21199.142578
433.064453	21129.425781
431.775391	21653.839844
430.488281	21547.183594
429.199219	21531.783203
427.912109	21157.392578
426.623047	21555.322266
425.333984	21584.542969
424.044922	21875.583984
422.755859	21914.431641
421.466797	21842.753906
420.177734	22046.363281
418.886719	21937.859375
417.597656	21988.294922
416.306641	22116.208984
415.015625	22350.619141
413.724609	21848.966797
412.433594	22160.798828
411.142578	22457.033203
409.851563	21961.427734
408.560547	22309.849609
407.267578	22360.140625
405.976563	22176.306641
404.683594	22267.226563
403.390625	22226.593750
402.097656	22305.869141
400.804688	22334.845703
399.511719	22419.871094
398.218750	22298.062500
396.923828	22211.078125
395.630859	22116.394531
394.335938	22176.283203
393.042969	22151.167969
391.748047	21969.644531
390.453125	22089.376953
389.158203	22004.445313
387.861328	22016.046875
386.566406	21975.539063
385.271484	21927.328125
383.974609	21711.304688
382.677734	21684.371094
381.382813	21748.078125
380.085938	21686.441406
378.789063	21516.873047
377.492188	21532.388672
376.193359	21522.847656
374.896484	21592.304688
373.599609	21628.986328
372.300781	21654.099609
371.001953	21502.041016
369.705078	21482.882813
368.406250	21571.531250
367.107422	21444.583984
365.806641	21637.119141
364.507813	21510.205078
363.208984	21658.416016
361.908203	21437.296875
360.609375	21602.773438
359.308594	21566.314453
358.007813	21368.392578
356.707031	21512.650391
355.406250	21268.685547
354.105469	21301.474609
352.802734	21605.105469
351.501953	21593.646484
350.199219	21564.910156
348.898438	21493.941406
347.595703	21273.267578
346.292969	21292.580078
344.990234	21290.775391
343.687500	21287.054688
342.382813	21373.492188
341.080078	21199.056641
339.777344	21438.886719
338.472656	21536.753906
337.167969	21327.875000
335.863281	21130.568359
334.558594	21138.371094
333.253906	21119.345703
331.949219	21245.912109
330.644531	21121.535156
329.337891	21075.710938
328.033203	21073.939453
326.726563	21070.251953
325.419922	21416.814453
324.113281	21034.177734
322.806641	21175.904297
321.500000	21032.556641
320.193359	21124.503906
318.886719	21225.982422
317.578125	21017.691406
316.271484	21381.037109
314.962891	21625.757813
313.654297	21006.658203
312.345703	21216.966797
311.037109	21314.496094
309.728516	21467.376953
308.419922	21354.773438
307.109375	21351.035156
305.800781	21022.783203
304.490234	21389.365234
303.179688	21467.673828
301.869141	21553.585938
300.558594	21370.500000
299.248047	21645.212891
297.937500	21551.798828
296.625000	21641.445313
295.314453	21595.718750
294.001953	21506.169922
292.691406	21671.998047
291.378906	21546.267578
290.066406	21593.923828
288.753906	21397.781250
287.441406	21635.869141
286.126953	21536.882813
284.814453	21346.560547
283.500000	21535.046875
282.187500	21333.371094
280.873047	21363.878906
279.558594	21512.312500
278.244141	21344.980469
276.929688	21346.943359
275.615234	21354.609375
274.298828	21407.892578
272.984375	21214.083984
271.667969	21501.099609
270.351563	21313.041016
269.037109	21499.259766
267.720703	21368.242188
266.404297	21172.707031
265.085938	21279.111328
263.769531	21263.990234
262.453125	21258.363281
261.134766	21210.990234
259.816406	21146.558594
258.500000	21287.013672
257.181641	21488.109375
255.863281	21199.906250
254.544922	21361.128906
253.224609	21418.041016
251.906250	21148.949219
250.585938	21366.943359
249.267578	21486.341797
247.947266	21641.687500
246.626953	21368.955078
245.306641	21376.566406
243.986328	21501.556641
242.666016	21615.142578
241.345703	21475.083984
240.023438	21539.435547
238.703125	21802.414063
237.380859	21879.925781
236.058594	21898.779297
234.736328	21796.607422
233.414063	21673.673828
232.091797	21605.599609
230.769531	22079.957031
229.445313	21817.205078
228.123047	21875.718750
226.798828	21728.320313
225.476563	22083.335938
224.152344	22000.152344
222.828125	21973.632813
221.503906	21790.451172
220.177734	21943.265625
218.853516	21980.923828
217.527344	22033.662109
216.203125	21841.164063
214.876953	21818.466797
213.550781	21959.826172
212.224609	21931.458984
210.898438	22001.117188
209.572266	22264.867188
208.246094	22146.013672
206.917969	22068.646484
205.591797	22358.613281
204.263672	22273.703125
202.935547	22290.500000
201.609375	22222.572266
200.281250	22457.718750
198.951172	22374.726563
197.623047	22545.785156
196.294922	22413.892578
194.964844	22788.029297
193.636719	22894.980469
192.306641	22968.046875
190.976563	23270.445313
189.646484	23193.046875
188.316406	23395.693359
186.986328	23541.898438
185.654297	23633.570313
184.324219	23621.898438
182.992188	23762.349609
181.662109	23835.154297
180.330078	23819.697266
178.998047	24168.384766
177.666016	23766.277344
176.333984	24388.794922
175.000000	24245.679688
173.667969	24393.343750
172.333984	24160.257813
171.001953	24493.509766
169.667969	24324.226563
168.333984	24361.181641
167.000000	24519.935547
165.666016	24551.218750
164.332031	24245.283203
162.996094	24653.085938
161.662109	24495.183594
160.326172	24513.339844
158.992188	24372.363281
157.656250	24755.521484
156.320313	24629.521484
154.984375	24679.445313
153.646484	24860.302734
152.310547	24781.107422
150.974609	24600.955078
149.636719	25221.121094
148.298828	25261.544922
146.960938	25539.328125
145.625000	25579.679688
144.285156	25692.884766
142.947266	25538.910156
141.609375	25941.585938
140.271484	26207.796875
138.931641	26216.248047
137.591797	26327.369141
136.253906	26621.365234
134.914063	26514.035156
133.574219	26710.869141
132.232422	26931.884766
130.892578	27072.619141
129.552734	27082.765625
128.210938	27365.125000
126.871094	27229.808594
125.529297	27428.166016
124.187500	27462.464844
122.845703	27871.248047
121.503906	27352.187500
120.162109	27375.302734
118.818359	27258.744141
117.476563	27976.339844
116.132813	27634.468750
114.789063	27557.007813
113.447266	27589.365234
112.103516	27418.910156
110.759766	27778.675781
109.414063	27963.486328
108.070313	28540.595703
106.726563	28472.347656
105.380859	28320.470703
104.035156	28189.089844
102.689453	28065.187500
101.345703	28366.792969
99.998047	28683.152344
98.652344	29032.828125
97.306641	29144.691406
95.960938	29109.841797
94.613281	29423.986328
93.265625	29678.626953
91.919922	29892.351563
90.572266	29823.994141
89.224609	29651.781250
87.875000	29720.732422
86.527344	29889.792969
85.179688	30125.533203
83.830078	30175.824219
82.482422	30320.617188
81.132813	29624.087891
79.783203	29804.125000
78.433594	29650.673828
77.083984	30280.683594
75.734375	30430.876953
74.382813	29566.464844
73.033203	29722.283203
71.681641	29674.464844
70.330078	29160.365234
68.978516	28925.804688
67.626953	28841.154297
66.275391	28508.712891
64.923828	28274.388672
63.572266	27918.126953
62.218750	27970.496094
60.867188	27826.943359
59.513672	26979.437500
58.160156	26204.281250
56.806641	25181.882813
55.453125	24261.417969
54.099609	23651.486328
52.744141	23041.769531
51.390625	22437.802734
