#Wave		#Intensity
4002.113281	7466.811035
4001.415039	7456.072754
4000.716797	7415.506348
4000.017578	7213.927734
3999.319336	7295.056641
3998.620117	7150.796875
3997.920898	7410.740234
3997.221680	7291.540039
3996.522461	7487.018555
3995.823242	7296.346680
3995.124023	7380.957520
3994.424805	7329.738770
3993.724609	7167.768555
3993.025391	7413.125488
3992.325195	7497.662598
3991.625000	7446.457520
3990.924805	7366.702148
3990.224609	7254.838867
3989.524414	7385.752930
3988.824219	7498.778809
3988.124023	7426.202637
3987.422852	7385.761230
3986.721680	7381.006836
3986.021484	7361.986816
3985.320313	7360.803711
3984.619141	7366.752441
3983.917969	7426.176270
3983.216797	7382.208496
3982.514648	7402.406250
3981.813477	7529.500000
3981.112305	7335.896484
3980.410156	7370.340820
3979.708008	7347.786133
3979.005859	7289.627930
3978.303711	7487.847656
3977.601563	7443.924805
3976.899414	7417.812988
3976.197266	7498.474609
3975.494141	7283.773926
3974.791992	7535.200195
3974.088867	7252.977051
3973.385742	7283.820801
3972.682617	7204.418945
3971.979492	7445.029785
3971.276367	7394.065918
3970.573242	7325.347168
3969.869141	7277.972168
3969.166016	7475.778320
3968.461914	7186.820313
3967.758789	7416.544922
3967.054688	7486.381836
3966.350586	7428.366211
3965.646484	7544.332031
3964.941406	7504.073242
3964.237305	7431.885254
3963.533203	7522.954102
3962.828125	7447.237793
3962.124023	7456.684082
3961.418945	7529.970215
3960.713867	7390.456055
3960.008789	7453.091797
3959.303711	7508.617188
3958.598633	7301.825684
3957.892578	7694.037598
3957.187500	7434.130859
3956.481445	7429.394043
3955.776367	7375.066406
3955.070313	7359.715332
3954.364258	7379.780273
3953.658203	7116.591309
3952.952148	7412.810547
3952.245117	7390.383301
3951.539063	7491.824219
3950.832031	7522.465820
3950.125977	7316.068359
3949.418945	7321.967773
3948.711914	7561.281738
3948.004883	7499.954590
3947.297852	7406.828125
3946.590820	7356.149902
3945.883789	7323.159668
3945.175781	7417.395508
3944.468750	7377.339355
3943.760742	7178.326660
3943.052734	7396.162598
3942.344727	7522.109375
3941.636719	7478.530273
3940.928711	7533.815430
3940.220703	7423.181641
3939.511719	7369.051270
3938.803711	7456.084961
3938.094727	7426.662598
3937.386719	7453.690430
3936.677734	7494.817383
3935.968750	7366.663574
3935.259766	7432.471680
3934.550781	7529.986328
3933.840820	7465.332520
3933.131836	7333.740723
3932.421875	7406.558594
3931.712891	7324.339844
3931.002930	7527.465820
3930.292969	7441.732422
3929.583008	7190.524414
3928.873047	7379.490234
3928.163086	7536.713867
3927.452148	7345.444824
3926.742188	7414.646484
3926.031250	7424.011719
3925.321289	7345.425781
3924.610352	7302.038086
3923.899414	7395.819336
3923.188477	7250.466797
3922.477539	7386.413574
3921.765625	7511.771973
3921.054688	7324.295410
3920.342773	7291.494141
3919.631836	7378.158691
3918.919922	7415.615723
3918.208008	7439.011230
3917.496094	7367.583008
3916.784180	7717.515625
3916.072266	7516.173340
3915.359375	7297.345215
3914.647461	7355.834961
3913.934570	7407.287598
3913.222656	7648.173828
3912.509766	7387.371094
3911.796875	7417.750488
3911.083984	7500.719238
3910.371094	7527.563965
3909.658203	7256.430664
3908.944336	7546.177734
3908.231445	7394.277832
3907.517578	7519.229004
3906.803711	7339.355469
3906.089844	7390.717773
3905.375977	7494.596191
3904.662109	7461.879395
3903.948242	7289.131348
3903.234375	7343.969238
3902.519531	7524.785156
3901.805664	7387.103516
3901.090820	7347.431641
3900.375977	7349.750488
3899.661133	7376.552246
3898.946289	7448.807617
3898.231445	7377.681641
3897.516602	7488.368652
3896.801758	7371.818359
3896.085938	7353.161133
3895.370117	7502.235840
3894.655273	7494.044434
3893.939453	7391.540039
3893.223633	7603.402832
3892.507813	7465.993164
3891.791992	7478.760742
3891.075195	7414.724121
3890.359375	7375.140137
3889.642578	7391.405762
3888.925781	7484.429688
3888.209961	7472.762695
3887.493164	7642.481445
3886.776367	7404.101074
3886.059570	7619.107422
3885.341797	7624.857910
3884.625000	7539.973145
3883.907227	7423.747559
3883.190430	7499.221191
3882.472656	7849.923340
3881.754883	7507.266113
3881.037109	7450.332031
3880.319336	7473.514160
3879.601563	7458.387207
3878.883789	7742.666992
3878.165039	7539.534668
3877.447266	7284.263672
3876.728516	7429.244141
3876.009766	7542.865234
3875.291016	7419.903320
3874.572266	7561.313477
3873.853516	7591.397949
3873.134766	7534.548828
3872.415039	7529.863770
3871.696289	7507.800781
3870.976563	7471.843262
3870.256836	7599.209473
3869.537109	7452.075684
3868.817383	7555.088379
3868.097656	7383.696777
3867.377930	7497.104492
3866.658203	7440.351074
3865.937500	7623.140137
3865.217773	7385.901855
3864.497070	7495.765137
3863.776367	7428.638672
3863.055664	7528.052246
3862.334961	7377.695313
3861.614258	7418.127930
3860.893555	7760.218750
3860.171875	7731.238281
3859.451172	7442.290039
3858.729492	7562.399414
3858.007813	7429.506836
3857.287109	7618.873535
3856.565430	7475.621582
3855.842773	7678.773926
3855.121094	7521.706055
3854.399414	7582.824219
3853.676758	7401.587891
3852.955078	7556.162109
3852.232422	7575.715332
3851.509766	7463.771973
3850.787109	7597.502930
3850.064453	7665.467285
3849.341797	7480.932617
3848.619141	7497.022949
3847.895508	7447.416016
3847.172852	7383.996582
3846.449219	7645.496582
3845.725586	7692.651855
3845.001953	7549.752441
3844.278320	7527.813477
3843.554688	7533.514160
3842.831055	7528.852539
3842.107422	7538.003906
3841.382813	7526.437500
3840.659180	7480.355469
3839.934570	7548.183594
3839.209961	7422.743164
3838.485352	7514.709961
3837.760742	7668.742676
3837.036133	7681.309570
3836.310547	7445.571289
3835.585938	7665.053711
3834.860352	7674.166992
3834.135742	7748.769531
3833.410156	7630.349121
3832.684570	7642.908691
3831.958984	7603.784668
3831.233398	7533.670410
3830.507813	7535.906738
3829.781250	7710.324219
3829.055664	7416.424805
3828.329102	7501.298828
3827.602539	7768.571289
3826.875977	7526.424805
3826.149414	7673.176270
3825.422852	7482.727539
3824.696289	7515.925293
3823.969727	7635.093262
3823.242188	7688.887695
3822.515625	7560.444336
3821.788086	7569.544434
3821.060547	7434.286621
3820.333008	7512.133789
3819.605469	7483.441895
3818.877930	7753.636230
3818.150391	7439.824219
3817.421875	7648.121582
3816.694336	7430.571289
3815.965820	7649.102539
3815.237305	7747.421875
3814.508789	7626.057617
3813.780273	7470.416504
3813.051758	7407.460938
3812.323242	7725.302246
3811.593750	7343.348145
3810.865234	7695.390625
3810.135742	7594.722656
3809.407227	7528.368652
3808.677734	7486.029785
3807.948242	7621.914551
3807.218750	7624.119141
3806.488281	7739.381348
3805.758789	7375.040527
3805.029297	7723.200195
3804.298828	7704.839844
3803.568359	7672.790527
3802.837891	7657.867188
3802.107422	7567.648438
3801.376953	7669.100586
3800.646484	7630.232910
3799.916016	7533.219727
3799.185547	7549.114746
3798.454102	7705.223633
3797.722656	7488.563965
3796.992188	7634.375488
3796.260742	7438.306152
3795.529297	7649.016602
3794.796875	7692.214844
3794.065430	7591.897461
3793.333984	7641.922363
3792.601563	7709.009277
3791.870117	7591.662109
3791.137695	7703.123535
3790.405273	7718.958496
3789.672852	7581.184570
3788.940430	7450.280273
3788.208008	7732.308594
3787.474609	7478.598145
3786.742188	7661.604980
3786.008789	7609.216797
3785.276367	7679.609863
3784.542969	7746.570313
3783.809570	7683.965820
3783.076172	7645.240723
3782.342773	7589.488281
3781.608398	7584.864258
3780.875000	7672.226563
3780.140625	7797.029785
3779.407227	7649.332520
3778.672852	7954.575684
3777.938477	7834.137207
3777.204102	7557.147461
3776.469727	7790.782715
3775.735352	7779.325195
3775.000000	7808.700195
3774.265625	7589.724609
3773.530273	7693.951172
3772.794922	7910.372070
3772.059570	7939.707031
3771.324219	7761.646973
3770.588867	7811.391113
3769.853516	7660.597656
3769.118164	7839.470215
3768.381836	7841.611328
3767.646484	7660.311523
3766.910156	7839.097656
3766.173828	7637.480469
3765.437500	7592.116211
3764.701172	7692.745117
3763.964844	7606.654297
3763.227539	7829.423828
3762.491211	7651.721191
3761.753906	7803.165527
3761.017578	7737.464355
3760.280273	7566.644531
3759.542969	7741.766113
3758.805664	7815.116699
3758.068359	7763.014648
3757.331055	7897.347168
3756.592773	7614.804688
3755.855469	7803.331055
3755.117188	7744.487793
3754.378906	7753.408203
3753.640625	7786.032715
3752.902344	7889.755859
3752.164063	7902.034180
3751.425781	7975.239258
3750.686523	7781.042480
3749.948242	7641.051758
3749.208984	7842.834473
3748.470703	7888.937988
3747.731445	7830.173340
3746.992188	7913.464355
3746.252930	7831.045410
3745.512695	7904.166504
3744.773438	7987.404785
3744.034180	7773.206543
3743.293945	7744.927734
3742.553711	7902.479492
3741.813477	8002.553711
3741.073242	7893.191895
3740.333008	7712.948730
3739.592773	7924.426270
3738.852539	7798.249023
3738.111328	7844.253906
3737.371094	7923.991699
3736.629883	7872.108398
3735.888672	7978.805176
3735.147461	7913.436523
3734.406250	7797.499023
3733.665039	7759.156738
3732.923828	8162.498047
3732.181641	8036.462891
3731.440430	7859.911133
3730.698242	7969.858887
3729.956055	7897.825195
3729.214844	7984.148926
3728.472656	7935.713379
3727.729492	8109.565430
3726.987305	7987.045898
3726.245117	7928.532227
3725.501953	7795.982422
3724.759766	7831.754883
3724.016602	7897.800781
3723.273438	7805.693359
3722.530273	8070.197266
3721.787109	8021.815918
3721.043945	7875.925293
3720.299805	7985.621582
3719.556641	8105.367676
3718.812500	7942.727051
3718.068359	7867.517578
3717.325195	7896.499023
3716.581055	7965.786621
3715.835938	8031.692871
3715.091797	8090.860840
3714.347656	8035.835449
3713.602539	7950.609863
3712.858398	7976.191406
3712.113281	7954.774902
3711.368164	7976.991699
3710.623047	7989.134766
3709.877930	7984.500000
3709.132813	7973.157715
3708.387695	7911.512207
3707.641602	8151.676270
3706.896484	8116.843262
3706.150391	7911.062012
3705.404297	8010.342773
3704.658203	8230.229492
3703.912109	8007.775879
3703.166016	8170.642578
3702.419922	8005.209961
3701.672852	7930.250977
3700.926758	8156.670410
3700.179688	8014.753906
3699.432617	8160.751465
3698.685547	7992.104980
3697.938477	8054.402832
3697.191406	8059.803711
3696.444336	7998.299316
3695.696289	7943.503906
3694.949219	8129.500488
3694.201172	7954.332520
3693.454102	8086.779297
3692.706055	7938.414063
3691.958008	8120.949707
3691.208984	7882.407715
3690.460938	8181.824219
3689.712891	8180.513184
3688.963867	7855.240723
3688.215820	8134.481445
3687.466797	8183.259277
3686.717773	8061.772461
3685.968750	7993.727539
3685.219727	8139.280762
3684.470703	8077.917969
3683.720703	8156.689453
3682.971680	8208.750977
3682.221680	8177.420898
3681.471680	8159.438477
3680.722656	8144.795410
3679.972656	8080.155762
3679.221680	8135.520020
3678.471680	8377.476563
3677.721680	8119.585938
3676.970703	8221.553711
3676.220703	8133.638184
3675.469727	8032.429199
3674.718750	8434.031250
3673.967773	8206.298828
3673.216797	8234.941406
3672.465820	8183.701172
3671.714844	8275.560547
3670.962891	8364.064453
3670.211914	8382.682617
3669.459961	8198.414063
3668.708008	8220.377930
3667.956055	8172.512695
3667.204102	8280.906250
3666.452148	8356.027344
3665.699219	8338.072266
3664.947266	8313.476563
3664.194336	8680.909180
3663.442383	8280.917969
3662.689453	8419.079102
3661.936523	8271.624023
3661.183594	8300.179688
3660.430664	8474.785156
3659.676758	8340.666992
3658.923828	8355.922852
3658.169922	8321.405273
3657.416992	8333.341797
3656.663086	8351.907227
3655.909180	8387.049805
3655.155273	8471.916992
3654.401367	8463.928711
3653.646484	8562.015625
3652.892578	8404.875977
3652.137695	8612.291992
3651.383789	8402.182617
3650.628906	8467.088867
3649.874023	8634.650391
3649.119141	8451.129883
3648.364258	8552.418945
3647.609375	8468.285156
3646.853516	8682.078125
3646.098633	8693.924805
3645.342773	8378.184570
3644.586914	8628.279297
3643.831055	8593.818359
3643.075195	8642.051758
3642.319336	8643.974609
3641.563477	8738.471680
3640.806641	8661.039063
3640.050781	8626.599609
3639.293945	8625.217773
3638.537109	8554.448242
3637.780273	8751.295898
3637.023438	8706.953125
3636.266602	8662.625000
3635.509766	8714.069336
3634.752930	8656.547852
3633.995117	8856.520508
3633.237305	8696.680664
3632.480469	8926.281250
3631.722656	8868.761719
3630.964844	8979.502930
3630.207031	8839.534180
3629.448242	8871.095703
3628.690430	8797.134766
3627.931641	8973.750000
3627.173828	9100.864258
3626.415039	9089.519531
3625.656250	8976.027344
3624.897461	8697.840820
3624.138672	9078.563477
3623.379883	8984.888672
3622.620117	9088.827148
3621.861328	9034.690430
3621.101563	9092.499023
3620.341797	9015.338867
3619.582031	8895.420898
3618.822266	9005.869141
3618.062500	9037.326172
3617.302734	8970.090820
3616.542969	8886.432617
3615.782227	9079.019531
3615.021484	8998.658203
3614.261719	9352.240234
3613.500977	9041.789063
3612.740234	9023.910156
3611.979492	9377.317383
3611.217773	9113.002930
3610.457031	9262.635742
3609.695313	9037.833008
3608.934570	9230.116211
3608.172852	9258.184570
3607.411133	9194.333984
3606.649414	9261.782227
3605.887695	9066.692383
3605.125977	9337.557617
3604.363281	9309.818359
3603.601563	9416.563477
3602.838867	9533.112305
3602.076172	9275.834961
3601.314453	9198.948242
3600.551758	9387.585938
3599.788086	9156.673828
3599.025391	9381.301758
3598.262695	9497.743164
3597.499023	9365.193359
3596.736328	9114.781250
3595.972656	9408.038086
3595.208984	9252.647461
3594.445313	9369.014648
3593.681641	9518.074219
3592.916992	9408.555664
3592.153320	9534.657227
3591.389648	9454.614258
3590.625000	9541.415039
3589.860352	9330.578125
3589.095703	9361.783203
3588.331055	9265.470703
3587.566406	9348.976563
3586.801758	9295.185547
3586.036133	9479.962891
3585.271484	9390.226563
3584.505859	9607.596680
3583.741211	9429.679688
3582.975586	9451.029297
3582.209961	9472.371094
3581.443359	9536.147461
3580.677734	9312.657227
3579.912109	9621.210938
3579.145508	9378.198242
3578.379883	9520.250000
3577.613281	9427.387695
3576.846680	9301.938477
3576.080078	9303.708984
3575.313477	9579.361328
3574.545898	9623.466797
3573.779297	9423.097656
3573.012695	9659.490234
3572.245117	9609.066406
3571.477539	9350.153320
3570.709961	9443.119141
3569.942383	9519.771484
3569.174805	9345.660156
3568.407227	9383.233398
3567.638672	9450.090820
3566.871094	9484.378906
3566.102539	9476.351563
3565.333984	9344.684570
3564.565430	9349.693359
3563.796875	9478.302734
3563.028320	9444.262695
3562.259766	9351.704102
3561.490234	9320.945313
3560.721680	9374.712891
3559.952148	9386.210938
3559.182617	9254.724609
3558.413086	9409.196289
3557.643555	9391.446289
3556.874023	9500.373047
3556.104492	9498.850586
3555.333984	9270.042969
3554.564453	9424.385742
3553.793945	9263.827148
3553.023438	9440.838867
3552.252930	9218.675781
3551.482422	9304.795898
3550.711914	9358.450195
3549.941406	9318.031250
3549.169922	9430.036133
3548.399414	9276.138672
3547.627930	9362.179688
3546.856445	9344.473633
3546.084961	9485.567383
3545.313477	9296.117188
3544.541992	9229.833984
3543.770508	9247.790039
3542.998047	9026.081055
3542.226563	9426.162109
3541.454102	9337.236328
3540.681641	9173.886719
3539.909180	9178.889648
3539.136719	9022.088867
3538.364258	9166.242188
3537.591797	9494.744141
3536.818359	9234.463867
3536.045898	9090.690430
3535.272461	9357.610352
3534.499023	9081.311523
3533.725586	9506.535156
3532.952148	9388.664063
3532.178711	9244.978516
3531.404297	9069.031250
3530.630859	9090.190430
3529.856445	9169.479492
3529.082031	9452.190430
3528.308594	9234.346680
3527.534180	9142.475586
3526.759766	9157.149414
3525.984375	9194.409180
3525.209961	9341.365234
3524.434570	9168.879883
3523.660156	9189.990234
3522.884766	9091.762695
3522.109375	9383.750000
3521.333984	9224.263672
3520.558594	9245.350586
3519.783203	9466.263672
3519.006836	9335.843750
3518.231445	9141.023438
3517.455078	9075.127930
3516.678711	9147.757813
3515.902344	9316.979492
3515.125977	9405.647461
3514.349609	9243.166016
3513.573242	9112.925781
3512.796875	9359.287109
3512.019531	9238.723633
3511.242188	9073.154297
3510.465820	9187.508789
3509.688477	9063.814453
3508.911133	9316.416992
3508.132813	9321.354492
3507.355469	9226.629883
3506.578125	9096.578125
3505.799805	9111.189453
3505.021484	9148.290039
3504.244141	9355.655273
3503.465820	9106.810547
3502.687500	9204.916016
3501.908203	9280.511719
3501.129883	9327.185547
3500.351563	9136.288086
3499.572266	9375.551758
3498.792969	9236.054688
3498.014648	9372.547852
3497.235352	9172.139648
3496.455078	9157.839844
3495.675781	9268.622070
3494.896484	9148.492188
3494.116211	9294.506836
3493.336914	9254.550781
3492.556641	9365.245117
3491.776367	9456.676758
3490.996094	9410.304688
3490.215820	9075.628906
3489.435547	9192.686523
3488.655273	9130.366211
3487.874023	9269.791016
3487.092773	9133.842773
3486.312500	9234.810547
3485.531250	9252.533203
3484.750000	9187.051758
3483.968750	9159.984375
3483.186523	9062.548828
3482.405273	9259.398438
3481.623047	9123.602539
3480.841797	9262.825195
3480.059570	9264.538086
3479.277344	9106.431641
3478.495117	9073.013672
3477.712891	9218.545898
3476.930664	9249.016602
3476.147461	9190.037109
3475.365234	9258.828125
3474.582031	9100.873047
3473.798828	9172.848633
3473.015625	8925.574219
3472.232422	9141.182617
3471.449219	9158.865234
3470.666016	9307.362305
3469.881836	9082.555664
3469.098633	9055.582031
3468.314453	9079.644531
3467.530273	9183.416016
3466.746094	9114.993164
3465.961914	8986.025391
3465.177734	9179.001953
3464.392578	9183.904297
3463.608398	9313.063477
3462.823242	9333.871094
3462.039063	9204.970703
3461.253906	9146.172852
3460.468750	9138.338867
3459.683594	9356.541016
3458.897461	9285.013672
3458.112305	9194.414063
3457.326172	9380.681641
3456.541016	9267.824219
3455.754883	9333.140625
3454.968750	9309.381836
3454.182617	9301.529297
3453.396484	8969.371094
3452.610352	9174.567383
3451.823242	9058.671875
3451.037109	9327.347656
3450.250000	9271.835938
3449.462891	9400.605469
3448.675781	9275.217773
3447.888672	8956.137695
3447.101563	9145.227539
3446.314453	9299.333008
3445.526367	9034.366211
3444.739258	9267.787109
3443.951172	9285.341797
3443.163086	9115.691406
3442.375000	9085.678711
3441.586914	9046.160156
3440.798828	9200.106445
3440.009766	9097.165039
3439.221680	9285.927734
3438.432617	9344.666016
3437.644531	9229.072266
3436.855469	9525.461914
3436.066406	9308.490234
3435.277344	9297.495117
3434.487305	9162.978516
3433.698242	9199.511719
3432.908203	9327.854492
3432.119141	9253.545898
3431.329102	9150.774414
3430.539063	9133.484375
3429.749023	8948.494141
3428.958984	9272.924805
3428.168945	9378.988281
3427.377930	9317.393555
3426.587891	9097.707031
3425.796875	9197.423828
3425.005859	9101.113281
3424.214844	9219.760742
3423.423828	9095.035156
3422.632813	9156.771484
3421.840820	9117.393555
3421.049805	9078.028320
3420.257813	9051.307617
3419.466797	9097.221680
3418.674805	9171.535156
3417.882813	8955.413086
3417.090820	9174.907227
3416.297852	9059.833008
3415.505859	9332.877930
3414.713867	9233.587891
3413.920898	9172.179688
3413.127930	9110.791016
3412.334961	9185.004883
3411.541992	9167.769531
3410.749023	9046.520508
3409.956055	9155.375977
3409.162109	9179.117188
3408.369141	9130.386719
3407.575195	9242.326172
3406.781250	9058.168945
3405.987305	9141.742188
3405.193359	9156.019531
3404.399414	9119.922852
3403.605469	9231.772461
3402.810547	9050.911133
3402.016602	9191.054688
3401.221680	9173.850586
3400.426758	9043.413086
3399.631836	9057.688477
3398.836914	9106.548828
3398.041992	9189.977539
3397.247070	9122.490234
3396.451172	9011.022461
3395.655273	9075.570313
3394.860352	9045.836914
3394.064453	9126.066406
3393.268555	8945.566406
3392.472656	9006.942383
3391.675781	9112.257813
3390.879883	8944.403320
3390.083008	9203.505859
3389.287109	9082.767578
3388.490234	9097.000977
3387.693359	8982.593750
3386.896484	9087.810547
3386.099609	9152.219727
3385.301758	9006.498047
3384.504883	9099.117188
3383.707031	8972.260742
3382.909180	8986.494141
3382.112305	9028.928711
3381.314453	8914.676758
3380.515625	9032.299805
3379.717773	8990.129883
3378.919922	8932.312500
3378.121094	8912.091797
3377.323242	9032.769531
3376.524414	8937.408203
3375.725586	8973.534180
3374.926758	9031.554688
3374.127930	9180.295898
3373.328125	9156.924805
3372.529297	9171.095703
3371.729492	9094.567383
3370.930664	9033.697266
3370.130859	9094.777344
3369.331055	9177.718750
3368.531250	9173.122070
3367.731445	9162.276367
3366.930664	9023.333008
3366.130859	8993.770508
3365.330078	8976.710938
3364.529297	8919.059570
3363.729492	8961.342773
3362.928711	9091.026367
3362.126953	8905.405273
3361.326172	8919.581055
3360.525391	9092.894531
3359.723633	9116.395508
3358.922852	8940.246094
3358.121094	9172.731445
3357.319336	9027.813477
3356.517578	9091.841797
3355.715820	9018.683594
3354.913086	9176.199219
3354.111328	9103.050781
3353.308594	8964.490234
3352.506836	8972.399414
3351.704102	9126.706055
3350.901367	9081.640625
3350.098633	9080.183594
3349.294922	9128.542969
3348.492188	8837.577148
3347.688477	8998.005859
3346.885742	9074.360352
3346.082031	9076.016602
3345.278320	9015.453125
3344.474609	9079.326172
3343.670898	9049.880859
3342.867188	8986.241211
3342.062500	9217.969727
3341.258789	8924.298828
3340.454102	8994.349609
3339.649414	8930.758789
3338.844727	9187.202148
3338.040039	9282.027344
3337.235352	9125.242188
3336.429688	8890.870117
3335.625000	9075.741211
3334.819336	9127.060547
3334.014648	9116.285156
3333.208984	9068.271484
3332.403320	8998.551758
3331.596680	8972.289063
3330.791016	9119.743164
3329.985352	9130.686523
3329.178711	9076.505859
3328.373047	8938.629883
3327.566406	9098.393555
3326.759766	9065.939453
3325.953125	8875.448242
3325.145508	9121.902344
3324.338867	9297.024414
3323.532227	9314.117188
3322.724609	8829.494141
3321.916992	9100.568359
3321.109375	8959.789063
3320.301758	8890.250977
3319.494141	9161.184570
3318.686523	9193.754883
3317.878906	9102.553711
3317.070313	9181.524414
3316.261719	9192.423828
3315.454102	9101.266602
3314.645508	9102.898438
3313.836914	9107.621094
3313.027344	9133.979492
3312.218750	9287.040039
3311.410156	9112.508789
3310.600586	9052.345703
3309.791016	8955.132813
3308.981445	9098.858398
3308.171875	9075.782227
3307.362305	9157.689453
3306.552734	9035.825195
3305.743164	9049.808594
3304.932617	9039.098633
3304.122070	8954.337891
3303.312500	8996.091797
3302.501953	9102.609375
3301.691406	9020.962891
3300.879883	9007.180664
3300.069336	8996.486328
3299.258789	9167.668945
3298.447266	9045.996094
3297.635742	9004.483398
3296.824219	9147.851563
3296.012695	9100.173828
3295.201172	9120.275391
3294.389648	8921.714844
3293.578125	8991.103516
3292.765625	8866.514648
3291.953125	9055.937500
3291.141602	8882.135742
3290.329102	9043.800781
3289.516602	8885.438477
3288.703125	9145.488281
3287.890625	8971.782227
3287.078125	9025.696289
3286.264648	9021.173828
3285.451172	8998.206055
3284.637695	9150.448242
3283.824219	9038.343750
3283.010742	8889.402344
3282.197266	9013.937500
3281.383789	8987.916992
3280.569336	8863.625000
3279.754883	9181.561523
3278.940430	9017.364258
3278.126953	9040.475586
3277.311523	9039.024414
3276.497070	9040.642578
3275.682617	8928.733398
3274.867188	9016.266602
3274.052734	9027.088867
3273.237305	8970.437500
3272.421875	8935.268555
3271.606445	8973.690430
3270.791016	8978.380859
3269.975586	8943.226563
3269.159180	8837.602539
3268.343750	8826.993164
3267.527344	9131.913086
3266.710938	8778.216797
3265.894531	9027.923828
3265.078125	8851.946289
3264.261719	9165.850586
3263.445313	9155.197266
3262.627930	9043.551758
3261.811523	8928.882813
3260.994141	8854.023438
3260.176758	9030.021484
3259.359375	9199.845703
3258.541992	9036.296875
3257.724609	9010.386719
3256.906250	8905.002930
3256.088867	9056.398438
3255.270508	9103.840820
3254.452148	9080.991211
3253.633789	9070.368164
3252.815430	9175.820313
3251.997070	8914.753906
3251.177734	9053.786133
3250.359375	8933.263672
3249.540039	8931.830078
3248.720703	8973.125000
3247.902344	8922.859375
3247.083008	9043.470703
3246.262695	9011.513672
3245.443359	8964.314453
3244.624023	9014.719727
3243.803711	8848.618164
3242.983398	9219.133789
3242.163086	9050.004883
3241.342773	8832.166992
3240.522461	8839.890625
3239.702148	8871.985352
3238.881836	9205.643555
3238.060547	9237.668945
3237.240234	9093.059570
3236.418945	9216.434570
3235.597656	9193.644531
3234.776367	9003.455078
3233.955078	8925.927734
3233.132813	9216.602539
3232.311523	9254.672852
3231.489258	9055.468750
3230.666992	8987.106445
3229.845703	9006.949219
3229.022461	9142.318359
3228.200195	9162.129883
3227.377930	9102.910156
3226.555664	9034.593750
3225.732422	9182.024414
3224.909180	9147.132813
3224.086914	9145.664063
3223.263672	9080.419922
3222.440430	9018.233398
3221.616211	9101.791992
3220.792969	9088.188477
3219.968750	9126.183594
3219.145508	9197.545898
3218.321289	9129.321289
3217.497070	8951.911133
3216.672852	9074.828125
3215.848633	9091.565430
3215.024414	9211.387695
3214.199219	9270.540039
3213.375000	9041.720703
3212.549805	9125.125000
3211.724609	9196.381836
3210.899414	9140.372070
3210.074219	9105.583984
3209.249023	9588.705078
3208.422852	9154.138672
3207.597656	9055.782227
3206.771484	9314.666016
3205.945313	9307.117188
3205.119141	9326.805664
3204.292969	9249.665039
3203.466797	9030.361328
3202.640625	9186.198242
3201.813477	9459.931641
3200.987305	9113.701172
3200.160156	9169.679688
3199.333008	9337.484375
3198.505859	9363.186523
3197.678711	9261.960938
3196.850586	9224.216797
3196.023438	9346.591797
3195.195313	9432.681641
3194.368164	9385.868164
3193.540039	9179.040039
3192.711914	9289.265625
3191.883789	9200.238281
3191.055664	9298.353516
3190.226563	9586.538086
3189.398438	9238.043945
3188.569336	9399.451172
3187.740234	9455.246094
3186.911133	9339.136719
3186.082031	9346.681641
3185.252930	9013.577148
3184.423828	9304.496094
3183.593750	9272.865234
3182.763672	9385.874023
3181.934570	9393.404297
3181.104492	9147.910156
3180.274414	9336.175781
3179.444336	9334.675781
3178.613281	9351.240234
3177.783203	9331.676758
3176.952148	9354.255859
3176.122070	9373.817383
3175.291016	9324.170898
3174.459961	9388.855469
3173.628906	9261.019531
3172.796875	9367.794922
3171.965820	9273.078125
3171.133789	9439.943359
3170.302734	9086.740234
3169.470703	9277.625000
3168.638672	9276.134766
3167.806641	9430.874023
3166.974609	9306.197266
3166.141602	9463.884766
3165.309570	9348.250977
3164.476563	9490.868164
3163.644531	9312.224609
3162.811523	9523.836914
3161.978516	9264.216797
3161.144531	9475.767578
3160.311523	9444.244141
3159.478516	9376.735352
3158.644531	9219.275391
3157.810547	9304.753906
3156.977539	9324.246094
3156.143555	9445.651367
3155.308594	9192.370117
3154.474609	9313.757813
3153.640625	9297.280273
3152.805664	9181.947266
3151.970703	9554.878906
3151.136719	9298.787109
3150.301758	9381.133789
3149.466797	9319.749023
3148.630859	9297.297852
3147.795898	9319.747070
3146.959961	9309.271484
3146.125000	9430.443359
3145.289063	9425.936523
3144.453125	9361.611328
3143.617188	9482.715820
3142.781250	9478.201172
3141.945313	9354.108398
3141.108398	9388.473633
3140.271484	9276.388672
3139.435547	9460.156250
3138.598633	9533.325195
3137.761719	9325.683594
3136.924805	9327.171875
3136.086914	9457.061523
3135.250000	9398.814453
3134.412109	9471.932617
3133.575195	9261.481445
3132.737305	9388.314453
3131.899414	9249.553711
3131.061523	9376.345703
3130.222656	9410.631836
3129.384766	9477.711914
3128.545898	9359.897461
3127.708008	9215.289063
3126.869141	9476.122070
3126.030273	9265.972656
3125.191406	9365.799805
3124.352539	9462.614258
3123.512695	9380.662109
3122.673828	9239.166992
3121.833984	9228.747070
3120.994141	9388.047852
3120.154297	9431.194336
3119.314453	9179.648438
3118.474609	9282.334961
3117.634766	9545.668945
3116.793945	9410.254883
3115.954102	9319.502930
3115.113281	9297.185547
3114.272461	9361.111328
3113.431641	9279.330078
3112.590820	9295.673828
3111.750000	9537.902344
3110.908203	9438.300781
3110.067383	9297.132813
3109.225586	9286.725586
3108.383789	9347.609375
3107.541992	9512.416992
3106.700195	9199.103516
3105.858398	9438.104492
3105.015625	9466.271484
3104.173828	9360.871094
3103.331055	9320.789063
3102.488281	9476.540039
3101.645508	9466.116211
3100.802734	9328.156250
3099.959961	9285.138672
3099.116211	9342.947266
3098.273438	9371.089844
3097.429688	9363.655273
3096.585938	9255.458008
3095.743164	9206.558594
3094.898438	9465.793945
3094.054688	9405.027344
3093.210938	9382.783203
3092.366211	9348.700195
3091.522461	9302.784180
3090.677734	9446.342773
3089.833008	9539.538086
3088.988281	9366.361328
3088.143555	9379.649414
3087.297852	9339.680664
3086.453125	9423.958984
3085.607422	9378.081055
3084.762695	9373.615234
3083.916992	9582.019531
3083.071289	9420.852539
3082.225586	9318.848633
3081.378906	9296.664063
3080.533203	9410.397461
3079.686523	9349.800781
3078.839844	9298.084961
3077.994141	9311.354492
3077.147461	9481.113281
3076.299805	9503.206055
3075.453125	9421.979492
3074.606445	9458.830078
3073.758789	9286.162109
3072.912109	9467.588867
3072.064453	9309.723633
3071.216797	9488.137695
3070.369141	9377.500977
3069.520508	9544.052734
3068.672852	9628.007813
3067.824219	9420.135742
3066.976563	9330.209961
3066.127930	9596.842773
3065.279297	9427.373047
3064.430664	9443.529297
3063.582031	9365.437500
3062.732422	9537.663086
3061.883789	9515.519531
3061.034180	9307.930664
3060.184570	9421.217773
3059.334961	9546.239258
3058.485352	9288.726563
3057.635742	9349.009766
3056.786133	9453.392578
3055.935547	9443.047852
3055.084961	9491.514648
3054.235352	9392.970703
3053.384766	9638.371094
3052.534180	9378.192383
3051.683594	9376.682617
3050.832031	9425.120117
3049.981445	9388.352539
3049.129883	9601.247070
3048.278320	9394.140625
3047.426758	9627.517578
3046.575195	9499.735352
3045.723633	9565.714844
3044.872070	9382.224609
3044.019531	9415.924805
3043.167969	9376.270508
3042.315430	9401.161133
3041.462891	9417.244141
3040.610352	9222.194336
3039.757813	9510.964844
3038.905273	9412.697266
3038.051758	9686.688477
3037.199219	9441.902344
3036.345703	9396.432617
3035.492188	9476.946289
3034.638672	9440.272461
3033.785156	9397.752930
3032.931641	9522.147461
3032.077148	9485.483398
3031.223633	9574.697266
3030.369141	9552.669922
3029.514648	9387.263672
3028.660156	9397.456055
3027.805664	9454.448242
3026.951172	9496.797852
3026.095703	9404.614258
3025.241211	9350.471680
3024.385742	9480.517578
3023.530273	9473.145508
3022.674805	9337.188477
3021.819336	9347.373047
3020.963867	9237.772461
3020.107422	9478.729492
3019.251953	9538.535156
3018.395508	9458.157227
3017.539063	9488.750000
3016.682617	9440.515625
3015.826172	9558.661133
3014.969727	9323.665039
3014.113281	9287.151367
3013.255859	9370.255859
3012.398438	9441.666992
3011.541992	9361.406250
3010.684570	9307.413086
3009.827148	9200.959961
3008.968750	9563.842773
3008.111328	9521.500000
3007.252930	9671.494141
3006.395508	9294.093750
3005.537109	9178.988281
3004.678711	9410.515625
3003.820313	9368.230469
3002.961914	9410.395508
3002.102539	9368.124023
3001.244141	9474.310547
3000.384766	9417.490234
2999.525391	9430.522461
2998.666016	9367.908203
2997.806641	9372.216797
2996.947266	9495.766602
2996.087891	9654.169922
2995.227539	9466.541016
2994.367188	9700.478516
2993.507813	9355.951172
2992.647461	9525.898438
2991.787109	9381.992188
2990.925781	9444.392578
2990.065430	9681.048828
2989.205078	9502.336914
2988.343750	9521.131836
2987.482422	9406.373047
2986.621094	9637.076172
2985.759766	9417.853516
2984.898438	9596.248047
2984.037109	9443.833008
2983.174805	9480.022461
2982.312500	9568.407227
2981.451172	9558.166016
2980.588867	9521.832031
2979.726563	9355.055664
2978.864258	9347.750977
2978.000977	9578.089844
2977.138672	9504.106445
2976.275391	9528.649414
2975.412109	9532.907227
2974.548828	9386.561523
2973.685547	9509.564453
2972.822266	9435.651367
2971.958984	9506.500000
2971.094727	9525.228516
2970.231445	9622.084961
2969.367188	9510.584961
2968.502930	9517.731445
2967.638672	9669.498047
2966.774414	9555.151367
2965.909180	9420.601563
2965.044922	9471.122070
2964.179688	9460.923828
2963.314453	9485.410156
2962.450195	9541.674805
2961.583984	9462.128906
2960.718750	9402.829102
2959.853516	9701.693359
2958.987305	9607.719727
2958.122070	9762.087891
2957.255859	9668.133789
2956.389648	9556.892578
2955.523438	9584.210938
2954.657227	9556.697266
2953.791016	9618.626953
2952.923828	9625.729492
2952.056641	9791.455078
2951.190430	9570.721680
2950.323242	9612.425781
2949.456055	9325.490234
2948.587891	9736.144531
2947.720703	9740.338867
2946.853516	9718.599609
2945.985352	9665.177734
2945.117188	9539.763672
2944.249023	9495.027344
2943.380859	9706.575195
2942.512695	9728.041016
2941.644531	9691.930664
2940.775391	9506.173828
2939.907227	9616.866211
2939.038086	9505.985352
2938.168945	9642.532227
2937.299805	9684.120117
2936.430664	9662.428711
2935.560547	9680.997070
2934.691406	9653.562500
2933.821289	9600.268555
2932.951172	9624.584961
2932.081055	9720.728516
2931.210938	9759.382813
2930.340820	9556.735352
2929.470703	9784.955078
2928.599609	9680.000977
2927.729492	9704.280273
2926.858398	9651.043945
2925.987305	9649.487305
2925.116211	9673.757813
2924.244141	9841.483398
2923.373047	9690.719727
2922.501953	9755.127930
2921.629883	9756.421875
2920.757813	9903.953125
2919.885742	9876.552734
2919.013672	9616.978516
2918.141602	9764.458984
2917.269531	9739.959961
2916.396484	9789.959961
2915.523438	9550.618164
2914.651367	9580.583008
2913.778320	9919.816406
2912.904297	9755.012695
2912.031250	9905.165039
2911.158203	10043.820313
2910.284180	9870.489258
2909.411133	9937.570313
2908.537109	9724.258789
2907.663086	9954.387695
2906.789063	9967.081055
2905.915039	9876.828125
2905.040039	9778.026367
2904.166016	9730.710938
2903.291016	9623.388672
2902.416016	9833.305664
2901.541016	9877.434570
2900.666016	9775.853516
2899.791016	9731.431641
2898.915039	9746.997070
2898.040039	9833.941406
2897.164063	9766.691406
2896.288086	9822.204102
2895.412109	9669.357422
2894.536133	9984.540039
2893.660156	9671.943359
2892.783203	9770.223633
2891.907227	9831.394531
2891.030273	9744.256836
2890.153320	9625.784180
2889.276367	9618.528320
2888.399414	9779.444336
2887.522461	9706.620117
2886.644531	9628.119141
2885.767578	9734.825195
2884.889648	9733.253906
2884.011719	9939.588867
2883.133789	9989.240234
2882.255859	9574.798828
2881.377930	9672.885742
2880.499023	9611.554688
2879.621094	9783.591797
2878.742188	9819.000977
2877.863281	9939.743164
2876.984375	9625.260742
2876.105469	9882.500000
2875.226563	9806.976563
2874.346680	9725.790039
2873.466797	9832.235352
2872.587891	9878.962891
2871.708008	9732.447266
2870.828125	9833.156250
2869.948242	9871.337891
2869.067383	9923.708984
2868.187500	9711.964844
2867.306641	9943.218750
2866.425781	9825.221680
2865.544922	9715.776367
2864.664063	9722.721680
2863.783203	9704.126953
2862.902344	9784.833008
2862.020508	9811.619141
2861.139648	9730.624023
2860.257813	9797.108398
2859.375977	9823.877930
2858.494141	9799.613281
2857.612305	9761.185547
2856.729492	9742.606445
2855.847656	9619.200195
2854.964844	9764.956055
2854.082031	9726.557617
2853.199219	9798.618164
2852.316406	9907.464844
2851.433594	9651.070313
2850.549805	9672.156250
2849.666992	9911.156250
2848.783203	9708.647461
2847.899414	9803.273438
2847.015625	9776.231445
2846.131836	9604.953125
2845.248047	9657.130859
2844.363281	9864.798828
2843.479492	9727.512695
2842.594727	9692.023438
2841.709961	9687.631836
2840.825195	9835.822266
2839.940430	9797.506836
2839.055664	9762.028320
2838.169922	9709.615234
2837.285156	9761.698242
2836.399414	9658.483398
2835.513672	9831.938477
2834.627930	9694.875977
2833.742188	9851.336914
2832.856445	9855.388672
2831.969727	9588.621094
2831.083984	9835.281250
2830.197266	10056.480469
2829.310547	9784.168945
2828.423828	9678.278320
2827.537109	9998.050781
2826.649414	9838.611328
2825.762695	9820.115234
2824.875000	9886.144531
2823.987305	9828.208984
2823.099609	9787.190430
2822.211914	9732.105469
2821.324219	9930.436523
2820.436523	9683.918945
2819.547852	9828.714844
2818.659180	9720.187500
2817.771484	9921.205078
2816.882813	9818.324219
2815.993164	9830.801758
2815.104492	9910.771484
2814.215820	10021.645508
2813.326172	9842.904297
2812.437500	9754.172852
2811.547852	9814.427734
2810.658203	9987.067383
2809.768555	9951.737305
2808.877930	9643.927734
2807.988281	10122.662109
2807.097656	9769.991211
2806.207031	9981.806641
2805.317383	9915.624023
2804.426758	9860.689453
2803.535156	9898.385742
2802.644531	10023.055664
2801.753906	9875.546875
2800.862305	9798.212891
2799.970703	10004.172852
2799.079102	10176.415039
2798.187500	10014.957031
2797.295898	9755.435547
2796.404297	9829.535156
2795.511719	10049.333984
2794.619141	9918.820313
2793.727539	9903.208984
2792.834961	9977.235352
2791.942383	9815.990234
2791.048828	10027.211914
2790.156250	10089.982422
2789.262695	10105.146484
2788.370117	10078.323242
2787.476563	10199.819336
2786.583008	10195.372070
2785.689453	10146.166992
2784.794922	10021.460938
2783.901367	9941.538086
2783.006836	10082.529297
2782.113281	10310.136719
2781.218750	9928.331055
2780.324219	10214.577148
2779.429688	10210.131836
2778.534180	10012.915039
2777.639648	10058.782227
2776.744141	10121.391602
2775.848633	10150.471680
2774.954102	10048.318359
2774.058594	10222.559570
2773.162109	10064.605469
2772.266602	10015.537109
2771.370117	10142.264648
2770.474609	10126.675781
2769.578125	10228.240234
2768.681641	10207.064453
2767.785156	10024.168945
2766.888672	10273.459961
2765.991211	10190.961914
2765.094727	10203.248047
2764.197266	10335.352539
2763.299805	10250.096680
2762.402344	10103.583984
2761.504883	10093.593750
2760.607422	9924.875000
2759.708984	10293.582031
2758.811523	10130.453125
2757.913086	10245.716797
2757.014648	10330.331055
2756.116211	10156.144531
2755.217773	10173.975586
2754.319336	10378.167969
2753.419922	10201.275391
2752.520508	10205.186523
2751.622070	10033.939453
2750.722656	10149.067383
2749.823242	10089.058594
2748.922852	10234.708008
2748.023438	10135.805664
2747.124023	9914.703125
2746.223633	10260.292969
2745.323242	10244.746094
2744.422852	10043.168945
2743.522461	9997.124023
2742.622070	10323.045898
2741.720703	10193.710938
2740.820313	10158.762695
2739.918945	10065.562500
2739.017578	10285.850586
2738.116211	10084.492188
2737.214844	10351.846680
2736.313477	10011.912109
2735.411133	10193.254883
2734.509766	10219.321289
2733.607422	10270.321289
2732.705078	10204.929688
2731.802734	10225.441406
2730.900391	10079.749023
2729.997070	10100.273438
2729.094727	10057.102539
2728.191406	10191.134766
2727.288086	10344.500000
2726.384766	10265.330078
2725.481445	10266.435547
2724.578125	10190.070313
2723.673828	10301.839844
2722.770508	10098.261719
2721.866211	10481.022461
2720.961914	10388.081055
2720.057617	9974.481445
2719.153320	9978.394531
2718.249023	10283.543945
2717.343750	10082.927734
2716.439453	10073.006836
2715.534180	10110.047852
2714.628906	10343.168945
2713.723633	10347.016602
2712.818359	10314.969727
2711.912109	9937.869141
2711.006836	10024.581055
2710.100586	10315.478516
2709.194336	10156.534180
2708.289063	9989.365234
2707.381836	10076.012695
2706.475586	10477.024414
2705.569336	10522.203125
2704.662109	10316.484375
2703.754883	10138.397461
2702.848633	10153.291992
2701.941406	10179.203125
2701.033203	10334.597656
2700.125977	10060.207031
2699.218750	10251.375977
2698.310547	10291.022461
2697.402344	10259.068359
2696.494141	10100.489258
2695.585938	10159.407227
2694.677734	10306.371094
2693.769531	10112.089844
2692.860352	10550.634766
2691.951172	10180.332031
2691.042969	10236.437500
2690.133789	10058.791016
2689.224609	10486.061523
2688.314453	10223.215820
2687.405273	10103.375000
2686.495117	10464.476563
2685.585938	10113.838867
2684.675781	10183.625000
2683.765625	10096.827148
2682.854492	10227.010742
2681.944336	10222.607422
2681.034180	10240.167969
2680.123047	10296.151367
2679.211914	10187.448242
2678.300781	10314.766602
2677.389648	10378.940430
2676.478516	10168.780273
2675.567383	10142.448242
2674.655273	10321.791992
2673.743164	10292.700195
2672.831055	10258.135742
2671.918945	10412.705078
2671.006836	10241.108398
2670.094727	10579.209961
2669.182617	10317.235352
2668.269531	10236.128906
2667.356445	10264.594727
2666.443359	10257.454102
2665.530273	10307.809570
2664.617188	10336.249023
2663.704102	10389.311523
2662.790039	10269.958984
2661.875977	10290.181641
2660.962891	10315.869141
2660.048828	10243.083008
2659.134766	10372.687500
2658.219727	10193.279297
2657.305664	10333.784180
2656.390625	10476.976563
2655.476563	10502.607422
2654.561523	10470.846680
2653.646484	10466.416992
2652.730469	10284.434570
2651.815430	10342.851563
2650.900391	10461.325195
2649.984375	10372.260742
2649.068359	10616.261719
2648.152344	10327.955078
2647.236328	10307.177734
2646.320313	10395.545898
2645.404297	10448.420898
2644.487305	10315.801758
2643.570313	10295.038086
2642.653320	10481.511719
2641.736328	10250.803711
2640.819336	10475.385742
2639.902344	10541.821289
2638.984375	10507.412109
2638.067383	10434.870117
2637.149414	10577.552734
2636.231445	10611.244141
2635.313477	10489.702148
2634.395508	10419.931641
2633.476563	10483.576172
2632.558594	10351.226563
2631.639648	10491.060547
2630.720703	10301.611328
2629.801758	10430.525391
2628.882813	10426.113281
2627.963867	10459.776367
2627.044922	10362.907227
2626.125000	10467.256836
2625.205078	10248.092773
2624.285156	10314.376953
2623.365234	10290.963867
2622.445313	10574.579102
2621.525391	10521.248047
2620.604492	10427.192383
2619.683594	10542.274414
2618.763672	10361.357422
2617.842773	10299.950195
2616.920898	10523.570313
2616.000000	10378.024414
2615.079102	10514.727539
2614.157227	10437.055664
2613.235352	10462.488281
2612.314453	10493.334961
2611.391602	10467.226563
2610.469727	10508.908203
2609.547852	10553.286133
2608.625000	10321.189453
2607.703125	10455.011719
2606.780273	10737.813477
2605.857422	10527.471680
2604.934570	10682.863281
2604.011719	10510.512695
2603.087891	10595.454102
2602.165039	10498.978516
2601.241211	10483.739258
2600.317383	10663.368164
2599.393555	10442.451172
2598.469727	10456.988281
2597.544922	10628.418945
2596.621094	10645.625000
2595.696289	10578.995117
2594.771484	10569.166016
2593.846680	10608.000000
2592.921875	10603.574219
2591.997070	10626.174805
2591.072266	10592.024414
2590.146484	10560.586914
2589.220703	10510.250000
2588.294922	10802.922852
2587.369141	10614.848633
2586.443359	10659.021484
2585.517578	10659.990234
2584.590820	10687.947266
2583.665039	10659.225586
2582.738281	10635.910156
2581.811523	10361.718750
2580.884766	10500.291016
2579.957031	10509.372070
2579.030273	10707.194336
2578.102539	10576.051758
2577.175781	10544.683594
2576.248047	10777.438477
2575.320313	10541.257813
2574.391602	10598.816406
2573.463867	10624.031250
2572.536133	10678.864258
2571.607422	10574.801758
2570.678711	10753.474609
2569.750000	10627.896484
2568.821289	10677.308594
2567.892578	10640.589844
2566.962891	10652.314453
2566.034180	10516.072266
2565.104492	10581.607422
2564.174805	10668.636719
2563.245117	10683.036133
2562.315430	10536.123047
2561.384766	10496.778320
2560.455078	10720.830078
2559.524414	10861.507813
2558.593750	10741.526367
2557.663086	10675.309570
2556.732422	10826.667969
2555.801758	10768.514648
2554.870117	10715.750000
2553.939453	10773.068359
2553.007813	10755.211914
2552.076172	10646.117188
2551.144531	10939.541992
2550.212891	10795.576172
2549.280273	10659.703125
2548.348633	10596.286133
2547.416016	10650.874023
2546.483398	10810.005859
2545.550781	10725.149414
2544.618164	10648.360352
2543.685547	10563.557617
2542.751953	10687.767578
2541.819336	10648.525391
2540.885742	10716.433594
2539.952148	10910.185547
2539.018555	10747.756836
2538.084961	10903.959961
2537.150391	10712.141602
2536.216797	10804.069336
2535.282227	10837.097656
2534.347656	10763.099609
2533.413086	10796.124023
2532.478516	10700.759766
2531.543945	10854.117188
2530.608398	10876.415039
2529.673828	10585.938477
2528.738281	10827.439453
2527.802734	10881.797852
2526.867188	10743.760742
2525.930664	11006.489258
2524.995117	10897.857422
2524.058594	10591.635742
2523.123047	10811.537109
2522.186523	10791.089844
2521.250000	10842.720703
2520.312500	10768.897461
2519.375977	10905.904297
2518.439453	10778.734375
2517.501953	11051.740234
2516.564453	10951.257813
2515.626953	10800.140625
2514.689453	10806.382813
2513.751953	11001.896484
2512.813477	11005.437500
2511.875977	10731.819336
2510.937500	10919.255859
2509.999023	10914.814453
2509.060547	10705.272461
2508.122070	10764.785156
2507.182617	11090.557617
2506.244141	10652.125000
2505.304688	10964.499023
2504.365234	10866.901367
2503.425781	10974.236328
2502.486328	10820.793945
2501.546875	10957.363281
2500.606445	10678.964844
2499.666016	10969.752930
2498.726563	11015.828125
2497.786133	10785.406250
2496.845703	10953.765625
2495.904297	10784.553711
2494.963867	10865.169922
2494.022461	10972.328125
2493.081055	11103.357422
2492.140625	10812.059570
2491.199219	10887.306641
2490.256836	10874.915039
2489.315430	10735.106445
2488.373047	10974.885742
2487.431641	10848.374023
2486.489258	10809.461914
2485.546875	10728.117188
2484.604492	11036.703125
2483.661133	10973.910156
2482.718750	10863.410156
2481.775391	10835.129883
2480.833008	10875.776367
2479.889648	10956.163086
2478.945313	10898.733398
2478.001953	10979.089844
2477.058594	10635.584961
2476.114258	10975.513672
2475.169922	10976.375000
2474.226563	10871.328125
2473.282227	10882.793945
2472.336914	10986.893555
2471.392578	10950.701172
2470.447266	10837.788086
2469.502930	11071.473633
2468.557617	10696.712891
2467.612305	10895.964844
2466.666992	10695.873047
2465.721680	10707.349609
2464.775391	10792.835938
2463.829102	10904.723633
2462.883789	10815.745117
2461.937500	10639.606445
2460.991211	10851.845703
2460.043945	10797.253906
2459.097656	10800.776367
2458.150391	10899.349609
2457.204102	10770.858398
2456.256836	10845.648438
2455.309570	10936.248047
2454.362305	10852.668945
2453.414063	10937.960938
2452.466797	10791.101563
2451.518555	10654.838867
2450.570313	10713.750977
2449.622070	10959.833984
2448.673828	10765.616211
2447.725586	10634.716797
2446.776367	10764.743164
2445.828125	10683.946289
2444.878906	10695.375977
2443.929688	10643.588867
2442.980469	10731.392578
2442.030273	10740.175781
2441.081055	10701.568359
2440.130859	10899.870117
2439.181641	10977.045898
2438.231445	10793.695313
2437.281250	10841.922852
2436.331055	10753.349609
2435.379883	10822.607422
2434.429688	10668.326172
2433.478516	10805.933594
2432.527344	10817.315430
2431.576172	10833.950195
2430.625000	10808.533203
2429.673828	10827.790039
2428.721680	10818.143555
2427.770508	10564.225586
2426.818359	10840.877930
2425.866211	10516.142578
2424.914063	10666.696289
2423.960938	10704.331055
2423.008789	10881.048828
2422.055664	10845.162109
2421.103516	10811.910156
2420.150391	10710.465820
2419.197266	10774.288086
2418.243164	10780.397461
2417.290039	10731.445313
2416.335938	10698.237305
2415.382813	10738.429688
2414.428711	10783.848633
2413.474609	10577.714844
2412.520508	10654.583008
2411.565430	10689.515625
2410.611328	10538.494141
2409.656250	10594.380859
2408.701172	10561.236328
2407.746094	10538.572266
2406.791016	10730.526367
2405.835938	10600.553711
2404.879883	10863.075195
2403.923828	10547.392578
2402.968750	10718.293945
2402.013672	10564.871094
2401.056641	10489.937500
2400.099609	10645.079102
2399.144531	10617.204102
2398.187500	10544.911133
2397.230469	10694.740234
2396.273438	10645.969727
2395.316406	10735.655273
2394.359375	10632.048828
2393.402344	10499.752930
2392.443359	10451.044922
2391.486328	10548.533203
2390.529297	10651.209961
2389.570313	10644.251953
2388.613281	10465.096680
2387.654297	10377.301758
2386.695313	10511.237305
2385.736328	10457.365234
2384.777344	10781.582031
2383.818359	10623.404297
2382.859375	10467.883789
2381.900391	10453.144531
2380.941406	10652.076172
2379.982422	10522.679688
2379.021484	10547.009766
2378.062500	10542.683594
2377.101563	10564.398438
2376.142578	10356.991211
2375.181641	10628.630859
2374.220703	10288.541992
2373.259766	10349.317383
2372.298828	10264.367188
2371.337891	10572.262695
2370.376953	10570.536133
2369.416016	10480.390625
2368.455078	10465.677734
2367.492188	10362.579102
2366.531250	10587.027344
2365.568359	10538.518555
2364.607422	10490.024414
2363.644531	10498.703125
2362.681641	10496.989258
2361.718750	10445.927734
2360.757813	10498.753906
2359.794922	10458.093750
2358.830078	10417.446289
2357.867188	10275.587891
2356.904297	10325.810547
2355.941406	10412.341797
2354.976563	10527.381836
2354.013672	10613.851563
2353.048828	10350.185547
2352.085938	10600.011719
2351.121094	10676.055664
2350.156250	10337.336914
2349.191406	10226.796875
2348.226563	10263.995117
2347.261719	10319.316406
2346.296875	10353.896484
2345.332031	10347.024414
2344.367188	10391.946289
2343.400391	10265.968750
2342.435547	10406.670898
2341.468750	10216.024414
2340.503906	10455.027344
2339.537109	10246.322266
2338.570313	10234.299805
2337.603516	10312.812500
2336.636719	10282.678711
2335.669922	10309.441406
2334.703125	10346.536133
2333.736328	10331.920898
2332.769531	10485.301758
2331.800781	10584.366211
2330.833984	10719.570313
2329.865234	10852.145508
2328.898438	10638.581055
2327.929688	10647.171875
2326.962891	10387.235352
2325.994141	10346.813477
2325.025391	10265.107422
2324.056641	10384.721680
2323.087891	10251.429688
2322.119141	10401.964844
2321.148438	10304.825195
2320.179688	10290.245117
2319.210938	10275.669922
2318.240234	10132.190430
2317.271484	10184.666016
2316.300781	10131.454102
2315.330078	10274.104492
2314.359375	10241.505859
2313.390625	10193.461914
2312.419922	10178.916992
2311.449219	10210.729492
2310.476563	10268.280273
2309.505859	10011.737305
2308.535156	10282.939453
2307.564453	10157.727539
2306.591797	10261.563477
2305.621094	10087.514648
2304.648438	10101.298828
2303.675781	10081.643555
2302.703125	10162.279297
2301.732422	10170.901367
2300.759766	10215.507813
2299.787109	10131.590820
2298.814453	10240.432617
2297.839844	9992.102539
2296.867188	10201.117188
2295.894531	10394.653320
2294.919922	10254.276367
2293.947266	10311.654297
2292.972656	10117.425781
2292.000000	10144.004883
2291.025391	10224.469727
2290.050781	10353.660156
2289.076172	10487.939453
2288.101563	10201.494141
2287.126953	10110.060547
2286.152344	10287.905273
2285.175781	10427.234375
2284.201172	10279.411133
2283.226563	10267.476563
2282.250000	10276.046875
2281.275391	10207.748047
2280.298828	10185.583008
2279.322266	10224.897461
2278.345703	9979.935547
2277.371094	10218.989258
2276.394531	10429.803711
2275.417969	10356.425781
2274.439453	10272.833984
2273.462891	10148.328125
2272.486328	10310.405273
2271.507813	10088.729492
2270.531250	10307.029297
2269.552734	10295.113281
2268.576172	9978.948242
2267.597656	10158.813477
2266.619141	10233.827148
2265.640625	10175.930664
2264.662109	9977.524414
2263.683594	10241.573242
2262.705078	10173.486328
2261.726563	10120.744141
2260.748047	10305.483398
2259.767578	10099.557617
2258.789063	10085.141602
2257.808594	10183.022461
2256.830078	10107.354492
2255.849609	10230.712891
2254.869141	10356.581055
2253.888672	10201.857422
2252.908203	10284.336914
2251.927734	10170.468750
2250.947266	10171.352539
2249.966797	10093.221680
2248.986328	10101.761719
2248.003906	9957.420898
2247.023438	10134.118164
2246.041016	10333.679688
2245.060547	10077.316406
2244.078125	10309.923828
2243.095703	10130.023438
2242.115234	9980.727539
2241.132813	10175.059570
2240.150391	10071.607422
2239.166016	10181.901367
2238.183594	10187.864258
2237.201172	10270.125977
2236.218750	10174.353516
2235.234375	10073.527344
2234.251953	10043.913086
2233.267578	10113.434570
2232.283203	10083.823242
2231.300781	10183.804688
2230.316406	10349.805664
2229.332031	9987.423828
2228.347656	10105.148438
2227.363281	10121.266602
2226.378906	10226.236328
2225.392578	10049.412109
2224.408203	10083.295898
2223.423828	10208.520508
2222.437500	10366.685547
2221.451172	10009.846680
2220.466797	9947.333984
2219.480469	10186.611328
2218.494141	10306.643555
2217.507813	10117.360352
2216.521484	9996.573242
2215.535156	10126.713867
2214.548828	10076.910156
2213.562500	10176.593750
2212.574219	10134.397461
2211.587891	10383.457031
2210.599609	10161.458984
2209.613281	10099.031250
2208.625000	10173.313477
2207.636719	10209.608398
2206.650391	10291.439453
2205.662109	10064.576172
2204.673828	10242.530273
2203.685547	10046.099609
2202.695313	10046.980469
2201.707031	10136.354492
2200.718750	10091.715820
2199.728516	10294.792969
2198.740234	10275.414063
2197.750000	10149.917969
2196.761719	10170.990234
2195.771484	10409.282227
2194.781250	10157.550781
2193.791016	10173.559570
2192.800781	10227.432617
2191.810547	10336.822266
2190.820313	10181.170898
2189.830078	10121.461914
2188.837891	10192.967773
2187.847656	10148.411133
2186.857422	10035.769531
2185.865234	10147.602539
2184.873047	10138.373047
2183.882813	10345.947266
2182.890625	10180.415039
2181.898438	10345.071289
2180.906250	10098.961914
2179.914063	10147.690430
2178.921875	10322.345703
2177.927734	10255.170898
2176.935547	10447.376953
2175.943359	10428.039063
2174.949219	10146.915039
2173.955078	10318.909180
2172.962891	10342.378906
2171.968750	10441.320313
2170.974609	10127.675781
2169.980469	10362.437500
2168.986328	10179.673828
2167.992188	10321.319336
2166.998047	10520.738281
2166.003906	10317.929688
2165.007813	10183.041992
2164.013672	10384.896484
2163.019531	10521.365234
2162.023438	10298.594727
2161.027344	10389.827148
2160.033203	10388.120117
2159.037109	10426.583984
2158.041016	10344.544922
2157.044922	10367.943359
2156.048828	10306.015625
2155.052734	10439.806641
2154.054688	10377.886719
2153.058594	10491.556641
2152.062500	10424.631836
2151.064453	10292.539063
2150.066406	10676.911133
2149.070313	10579.910156
2148.072266	10598.220703
2147.074219	10396.026367
2146.076172	10504.549805
2145.078125	10592.998047
2144.080078	10320.778320
2143.082031	10524.412109
2142.083984	10562.741211
2141.083984	10601.056641
2140.085938	10599.314453
2139.085938	10540.017578
2138.087891	10405.680664
2137.087891	10469.011719
2136.087891	10337.231445
2135.089844	10530.589844
2134.089844	10523.858398
2133.089844	10602.125977
2132.087891	10567.889648
2131.087891	10503.674805
2130.087891	10549.423828
2129.087891	10405.288086
2128.085938	10361.114258
2127.085938	10511.754883
2126.083984	10417.636719
2125.082031	10678.069336
2124.082031	10361.791016
2123.080078	10664.575195
2122.078125	10635.372070
2121.076172	10416.560547
2120.074219	10579.489258
2119.070313	10448.052734
2118.068359	10648.329102
2117.066406	10432.150391
2116.062500	10604.940430
2115.060547	10351.451172
2114.056641	10549.118164
2113.054688	10437.748047
2112.050781	10538.174805
2111.046875	10543.914063
2110.042969	10509.803711
2109.039063	10505.584961
2108.035156	10670.664063
2107.031250	10305.478516
2106.025391	10609.910156
2105.021484	10550.931641
2104.015625	10429.770508
2103.011719	10460.394531
2102.005859	10647.700195
2101.000000	10464.413086
2099.996094	10499.987305
2098.990234	10552.951172
2097.984375	10633.238281
2096.978516	10422.735352
2095.972656	10435.928711
2094.964844	10496.320313
2093.958984	10497.077148
2092.953125	10587.240234
2091.945313	10592.947266
2090.939453	10583.755859
2089.931641	10505.062500
2088.923828	10503.333984
2087.916016	10630.641602
2086.908203	10561.903320
2085.900391	10592.414063
2084.892578	10394.730469
2083.884766	10596.366211
2082.876953	10373.952148
2081.869141	10602.793945
2080.859375	10658.057617
2079.851563	10559.652344
2078.841797	10488.536133
2077.833984	10588.381836
2076.824219	10601.500977
2075.814453	10376.863281
2074.804688	10585.628906
2073.794922	10663.111328
2072.785156	10792.548828
2071.775391	10429.429688
2070.763672	10578.659180
2069.753906	10448.262695
2068.744141	10453.962891
2067.732422	10437.401367
2066.720703	10408.480469
2065.710938	10475.996094
2064.699219	10531.128906
2063.687500	10603.545898
2062.675781	10703.122070
2061.664063	10562.990234
2060.652344	10610.659180
2059.640625	10618.791992
2058.628906	10671.375000
2057.615234	10459.731445
2056.603516	10722.173828
2055.589844	10663.633789
2054.578125	10565.624023
2053.564453	10529.336914
2052.550781	10500.462891
2051.537109	10565.335938
2050.523438	10568.528320
2049.509766	10482.943359
2048.496094	10712.981445
2047.482422	10703.820313
2046.466797	10613.324219
2045.453125	10678.113281
2044.439453	10624.610352
2043.423828	10541.562500
2042.408203	10608.792969
2041.394531	10703.091797
2040.378906	10644.694336
2039.363281	10601.086914
2038.347656	10843.031250
2037.332031	10718.187500
2036.316406	10605.688477
2035.298828	10680.209961
2034.283203	10575.133789
2033.265625	10573.390625
2032.250000	10888.870117
2031.232422	10611.702148
2030.216797	10568.162109
2029.199219	10659.819336
2028.181641	10631.029297
2027.164063	10612.077148
2026.146484	10706.136719
2025.128906	10522.608398
2024.111328	10518.417969
2023.091797	10708.208008
2022.074219	10571.415039
2021.056641	10682.584961
2020.037109	10607.196289
2019.017578	10433.678711
2018.000000	10763.170898
2016.980469	10658.368164
2015.960938	10480.022461
2014.941406	10681.827148
2013.921875	10545.215820
2012.902344	10487.094727
2011.882813	10598.110352
2010.861328	10591.460938
2009.841797	10624.016602
2008.820313	10580.617188
2007.800781	10698.891602
2006.779297	10699.575195
2005.757813	10594.970703
2004.738281	10507.536133
2003.716797	10473.981445
2002.695313	10575.042969
2001.671875	10646.707031
2000.650391	10532.408203
1999.628906	10418.147461
1998.607422	10626.762695
1997.583984	10544.312500
1996.562500	10457.000000
1995.539063	10601.946289
1994.515625	10529.316406
1993.494141	10266.099609
1992.470703	10464.757813
1991.447266	10365.313477
1990.423828	10456.418945
1989.400391	10527.956055
1988.375000	10323.556641
1987.351563	10529.363281
1986.328125	10290.857422
1985.302734	10462.434570
1984.279297	10263.058594
1983.253906	10444.341797
1982.228516	10298.699219
1981.203125	10260.415039
1980.177734	10344.068359
1979.152344	10344.798828
1978.126953	10406.469727
1977.101563	10146.400391
1976.076172	10161.782227
1975.050781	10450.044922
1974.023438	10409.342773
1972.998047	10239.561523
1971.970703	10147.765625
1970.943359	10163.133789
1969.917969	10309.958008
1968.890625	10201.156250
1967.863281	10228.674805
1966.835938	10470.311523
1965.808594	10337.208008
1964.779297	10255.229492
1963.751953	10139.228516
1962.724609	10076.762695
1961.695313	10280.369141
1960.667969	10483.976563
1959.638672	10687.583008
1958.609375	10891.189453
1957.580078	11094.796875
1956.550781	11298.403320
1955.521484	11466.527344
1954.492188	11634.651367
1953.462891	11965.370117
1952.433594	10972.916992
1951.404297	10310.895508
1950.373047	10420.826172
1949.343750	10064.844727
1948.312500	10269.393555
1947.281250	10073.646484
1946.250000	10096.233398
1945.220703	10038.793945
1944.189453	10201.995117
1943.158203	10166.373047
1942.125000	10058.052734
1941.093750	10301.135742
1940.062500	10221.902344
1939.031250	10254.126953
1937.998047	10233.055664
1936.964844	10330.650391
1935.933594	10258.726563
1934.900391	10177.143555
1933.867188	10044.757813
1932.833984	10154.417969
1931.800781	10203.550781
1930.767578	10129.287109
1929.734375	10328.374023
1928.701172	10307.318359
1927.666016	10385.409180
1926.632813	10417.538086
1925.597656	10220.020508
1924.564453	10392.340820
1923.529297	10318.129883
1922.494141	10439.640625
1921.458984	10317.132813
1920.423828	10313.010742
1919.388672	10226.786133
1918.353516	10437.563477
1917.318359	10283.752930
1916.283203	10284.465820
1915.246094	10374.466797
1914.210938	10336.557617
1913.173828	10421.695313
1912.138672	10270.424805
1911.101563	10292.841797
1910.064453	10418.934570
1909.027344	10340.063477
1907.990234	10316.659180
1906.953125	10300.491211
1905.916016	10465.051758
1904.876953	10499.458008
1903.839844	10244.792969
1902.802734	10681.433594
1901.763672	10450.901367
1900.724609	10432.318359
1899.687500	10348.745117
1898.648438	10387.949219
1897.609375	10547.460938
1896.570313	10353.231445
1895.531250	10440.526367
1894.492188	10542.224609
1893.451172	10350.495117
1892.412109	10466.600586
1891.373047	10616.323242
1890.332031	10427.080078
1889.291016	10379.691406
1888.251953	10277.052734
1887.210938	10369.046875
1886.169922	10417.773438
1885.128906	10339.195313
1884.087891	10284.655273
1883.046875	10724.712891
1882.005859	10422.876953
1880.962891	10385.149414
1879.921875	10263.445313
1878.880859	10348.120117
1877.837891	10101.719727
1876.794922	10637.308594
1875.753906	10587.583984
1874.710938	10398.810547
1873.667969	10265.236328
1872.625000	10402.555664
1871.582031	10472.727539
1870.537109	10334.415039
1869.494141	10538.734375
1868.451172	10393.268555
1867.406250	10290.960938
1866.363281	10442.504883
1865.318359	10122.356445
1864.273438	10259.514648
1863.230469	10360.728516
1862.185547	10356.618164
1861.140625	10208.957031
1860.095703	10281.421875
1859.048828	10282.109375
1858.003906	10330.624023
1856.958984	10345.648438
1855.912109	10305.684570
1854.867188	10141.446289
1853.820313	10125.426758
1852.773438	10343.569336
1851.728516	10274.963867
1850.681641	10163.386719
1849.634766	10235.735352
1848.587891	10315.222656
1847.541016	10170.269531
1846.492188	10170.970703
1845.445313	10181.216797
1844.398438	10076.921875
1843.349609	10056.165039
1842.302734	10178.539063
1841.253906	10374.807617
1840.205078	10170.394531
1839.156250	10280.766602
1838.107422	10138.416016
1837.058594	10124.817383
1836.009766	10020.666992
1834.960938	10219.147461
1833.912109	10145.985352
1832.861328	10108.574219
1831.812500	10068.794922
1830.761719	10167.128906
1829.710938	10236.862305
1828.662109	10149.474609
1827.611328	10193.008789
1826.560547	10067.584961
1825.509766	9992.163086
1824.458984	10088.031250
1823.408203	10074.465820
1822.355469	10103.707031
1821.304688	10111.541016
1820.251953	10095.600586
1819.201172	10039.260742
1818.148438	10009.079102
1817.095703	10088.199219
1816.044922	10212.428711
1814.992188	10265.362305
1813.939453	10163.918945
1812.886719	10178.852539
1811.832031	10212.772461
1810.779297	9968.974609
1809.726563	10062.246094
1808.671875	10127.013672
1807.619141	10085.001953
1806.564453	10012.168945
1805.509766	10264.267578
1804.457031	10018.329102
1803.402344	10161.286133
1802.347656	10228.340820
1801.292969	10243.232422
1800.238281	10232.053711
1799.181641	10133.215820
1798.126953	10249.975586
1797.070313	10120.376953
1796.015625	10329.454102
1794.958984	10204.620117
1793.904297	10188.721680
1792.847656	10071.052734
1791.791016	10289.462891
1790.734375	10226.235352
1789.677734	10004.527344
1788.621094	9827.833984
1787.562500	10303.913086
1786.505859	10141.414063
1785.449219	10099.540039
1784.390625	10109.680664
1783.333984	10193.081055
1782.275391	10063.789063
1781.216797	10220.408203
1780.158203	10027.375000
1779.099609	10217.012695
1778.041016	10146.834961
1776.982422	10322.222656
1775.923828	10129.299805
1774.865234	10264.507813
1773.804688	10097.616211
1772.746094	10421.537109
1771.685547	10025.848633
1770.625000	10080.789063
1769.566406	10140.428711
1768.505859	10287.287109
1767.445313	10066.333984
1766.384766	10095.302734
1765.322266	10390.565430
1764.261719	10157.922852
1763.201172	10144.455078
1762.140625	10152.190430
1761.078125	10244.707031
1760.015625	10275.969727
1758.955078	10205.986328
1757.892578	10128.963867
1756.830078	10383.815430
1755.767578	9996.172852
1754.705078	10378.009766
1753.642578	10188.094727
1752.580078	9995.890625
1751.515625	10156.488281
1750.453125	10253.548828
1749.390625	10240.089844
1748.326172	10097.362305
1747.261719	10323.634766
1746.199219	10199.737305
1745.134766	10230.930664
1744.070313	10283.251953
1743.005859	10262.753906
1741.941406	10120.163086
1740.875000	10247.601563
1739.810547	10250.591797
1738.746094	10274.702148
1737.679688	10188.518555
1736.615234	10252.514648
1735.548828	10243.771484
1734.482422	10188.125000
1733.416016	10188.774414
1732.349609	10161.289063
1731.283203	10321.345703
1730.216797	10331.346680
1729.150391	10310.880859
1728.083984	10124.068359
1727.015625	10197.346680
1725.949219	10368.973633
1724.880859	10378.957031
1723.812500	10426.399414
1722.746094	10349.750000
1721.677734	10408.884766
1720.609375	10460.978516
1719.541016	10400.740234
1718.472656	10321.805664
1717.404297	10310.731445
1716.333984	10241.192383
1715.265625	10389.139648
1714.195313	10478.588867
1713.126953	10331.916992
1712.056641	10365.253906
1710.986328	10410.262695
1709.916016	10361.801758
1708.845703	10215.246094
1707.775391	10405.063477
1706.705078	10270.223633
1705.634766	10200.803711
1704.564453	10460.560547
1703.492188	10297.770508
1702.421875	10121.031250
1701.349609	10497.333984
1700.279297	10294.958008
1699.207031	10220.936523
1698.134766	10221.566406
1697.062500	10336.448242
1695.990234	10267.118164
1694.917969	10244.429688
1693.845703	10280.011719
1692.771484	10404.126953
1691.699219	10176.407227
1690.625000	10305.156250
1689.552734	10263.846680
1688.478516	10318.022461
1687.404297	10379.165039
1686.330078	10477.531250
1685.255859	10424.582031
1684.181641	10334.416992
1683.107422	10276.854492
1682.033203	10123.934570
1680.958984	10450.197266
1679.882813	10406.595703
1678.808594	10263.030273
1677.732422	10365.931641
1676.656250	10315.392578
1675.582031	10076.630859
1674.505859	10516.426758
1673.429688	10254.478516
1672.353516	10361.939453
1671.277344	10525.102539
1670.199219	10402.603516
1669.123047	10393.904297
1668.046875	10234.327148
1666.968750	10211.732422
1665.890625	10302.848633
1664.814453	10264.008789
1663.736328	10334.208008
1662.658203	10209.561523
1661.580078	10300.615234
1660.501953	10213.111328
1659.423828	10280.952148
1658.345703	10471.611328
1657.265625	10377.169922
1656.187500	10444.948242
1655.107422	10155.948242
1654.029297	10202.894531
1652.949219	10370.248047
1651.869141	10150.867188
1650.789063	10281.130859
1649.708984	10230.807617
1648.628906	10152.729492
1647.548828	10248.218750
1646.468750	10151.655273
1645.386719	10082.880859
1644.306641	10250.028320
1643.224609	10273.753906
1642.144531	10137.945313
1641.062500	10080.775391
1639.980469	10086.026367
1638.898438	10213.748047
1637.816406	9990.244141
1636.734375	10182.619141
1635.652344	9996.147461
1634.570313	10144.581055
1633.486328	9902.764648
1632.404297	10048.854492
1631.320313	10003.323242
1630.236328	9886.267578
1629.154297	10122.272461
1628.070313	10095.206055
1626.986328	9789.053711
1625.902344	9911.953125
1624.818359	10097.067383
1623.734375	9931.697266
1622.648438	10031.459961
1621.564453	9898.419922
1620.478516	9760.816406
1619.394531	9791.440430
1618.308594	9985.601563
1617.222656	9928.659180
1616.136719	9811.865234
1615.050781	9833.249023
1613.964844	9928.289063
1612.878906	9804.647461
1611.792969	9699.457031
1610.707031	9893.403320
1609.619141	9765.228516
1608.533203	10012.000000
1607.445313	10042.521484
1606.357422	9964.968750
1605.271484	9924.222656
1604.183594	9936.355469
1603.095703	9822.087891
1602.007813	9834.233398
1600.919922	9775.156250
1599.830078	9872.291992
1598.742188	9900.497070
1597.652344	9908.027344
1596.564453	10011.978516
1595.474609	9978.168945
1594.386719	9804.374023
1593.296875	9940.414063
1592.207031	9984.637695
1591.117188	9966.911133
1590.027344	9995.060547
1588.937500	9860.389648
1587.845703	10003.182617
1586.755859	10051.942383
1585.664063	9921.911133
1584.574219	9906.502930
1583.482422	9886.517578
1582.390625	10109.364258
1581.300781	10036.669922
1580.208984	10039.572266
1579.117188	10085.975586
1578.025391	9951.510742
1576.931641	10190.180664
1575.839844	10016.837891
1574.748047	10017.451172
1573.654297	10072.968750
1572.560547	10055.272461
1571.468750	10087.895508
1570.375000	10189.105469
1569.281250	10294.853516
1568.187500	10183.411133
1567.093750	10101.715820
1566.000000	9974.346680
1564.906250	10064.066406
1563.810547	10144.617188
1562.716797	10170.327148
1561.621094	10170.909180
1560.527344	10292.498047
1559.431641	10215.443359
1558.335938	10371.219727
1557.240234	10316.998047
1556.144531	10586.786133
1555.048828	10498.326172
1553.953125	10380.245117
1552.857422	10371.666016
1551.759766	10317.487305
1550.664063	10306.641602
1549.566406	10402.927734
1548.470703	10478.671875
1547.373047	10292.352539
1546.275391	10358.974609
1545.177734	10348.129883
1544.080078	10371.449219
1542.982422	10326.448242
1541.884766	10279.185547
1540.785156	10297.951172
1539.687500	10207.466797
1538.587891	10456.065430
1537.490234	10331.456055
1536.390625	10218.262695
1535.291016	10293.880859
1534.193359	10389.938477
1533.093750	10417.755859
1531.992188	10286.436523
1530.892578	10139.250000
1529.792969	10314.804688
1528.693359	10156.301758
1527.591797	10252.285156
1526.492188	10191.512695
1525.390625	10055.818359
1524.289063	10208.533203
1523.189453	10127.366211
1522.087891	10116.589844
1520.986328	10251.061523
1519.882813	10106.392578
1518.781250	10027.564453
1517.679688	10225.494141
1516.578125	10144.403320
1515.474609	10358.120117
1514.371094	10390.391602
1513.269531	10123.436523
1512.166016	10178.400391
1511.062500	10183.492188
1509.958984	10147.800781
1508.855469	10130.243164
1507.751953	10234.994141
1506.648438	10208.369141
1505.542969	10036.848633
1504.439453	9996.682617
1503.333984	9990.479492
1502.230469	10113.268555
1501.125000	10073.108398
1500.019531	9971.881836
1498.914063	9952.115234
1497.808594	10043.166992
1496.703125	9962.344727
1495.597656	9960.673828
1494.492188	9988.387695
1493.384766	9959.592773
1492.279297	9899.173828
1491.171875	9958.511719
1490.066406	9992.982422
1488.958984	9873.868164
1487.851563	9937.695313
1486.744141	9974.408203
1485.636719	9868.899414
1484.529297	9934.952148
1483.421875	9912.976563
1482.312500	9839.116211
1481.205078	9999.881836
1480.095703	9878.666992
1478.988281	9827.399414
1477.878906	9746.837891
1476.769531	9828.610352
1475.660156	9833.722656
1474.550781	9967.283203
1473.441406	9884.497070
1472.332031	9817.508789
1471.222656	9964.517578
1470.111328	9920.057617
1469.001953	9839.585938
1467.890625	9698.356445
1466.781250	9811.523438
1465.669922	10043.926758
1464.558594	9994.988281
1463.447266	9932.567383
1462.335938	9730.708008
1461.224609	10088.910156
1460.113281	9945.554688
1459.000000	10002.338867
1457.888672	10052.359375
1456.775391	9821.429688
1455.664063	10010.783203
1454.550781	9901.259766
1453.437500	9890.612305
1452.324219	9927.131836
1451.210938	9788.484375
1450.097656	10067.491211
1448.984375	9993.965820
1447.871094	10064.109375
1446.755859	10096.080078
1445.642578	10024.829102
1444.527344	10059.038086
1443.412109	9927.257813
1442.298828	10030.991211
1441.183594	10094.329102
1440.068359	9890.870117
1438.953125	9978.866211
1437.837891	10035.457031
1436.720703	10127.878906
1435.605469	9886.464844
1434.490234	10070.716797
1433.373047	10075.743164
1432.255859	9977.765625
1431.140625	10049.968750
1430.023438	9916.212891
1428.906250	10064.496094
1427.789063	10232.867188
1426.671875	9982.807617
1425.554688	10003.498047
1424.435547	9979.451172
1423.318359	9980.009766
1422.199219	10132.601563
1421.082031	10068.306641
1419.962891	9742.533203
1418.843750	9937.545898
1417.724609	9918.000000
1416.605469	9965.478516
1415.486328	9899.030273
1414.367188	9935.330078
1413.248047	9880.072266
1412.126953	9958.777344
1411.007813	10021.831055
1409.886719	9955.427734
1408.767578	10018.460938
1407.646484	10092.626953
1406.525391	9923.638672
1405.404297	9953.192383
1404.283203	9661.646484
1403.162109	9827.226563
1402.041016	9778.763672
1400.917969	9815.005859
1399.796875	10025.041016
1398.673828	9978.795898
1397.552734	9785.549805
1396.429688	9919.759766
1395.306641	9893.595703
1394.183594	9831.817383
1393.060547	9792.321289
1391.937500	9921.986328
1390.814453	9880.261719
1389.691406	9767.353516
1388.566406	9854.691406
1387.443359	9819.669922
1386.318359	9722.394531
1385.195313	9647.384766
1384.070313	9863.619141
1382.945313	9684.145508
1381.820313	9680.292969
1380.695313	9716.435547
1379.570313	9785.889648
1378.443359	9837.549805
1377.318359	9718.191406
1376.193359	9678.807617
1375.066406	9728.239258
1373.939453	9897.515625
1372.814453	9844.804688
1371.687500	9989.596680
1370.560547	9788.244141
1369.433594	9875.323242
1368.306641	9694.017578
1367.177734	9876.431641
1366.050781	9863.682617
1364.923828	9833.204102
1363.794922	9793.871094
1362.666016	9894.154297
1361.539063	9832.666992
1360.410156	9932.909180
1359.281250	9991.036133
1358.152344	9874.201172
1357.023438	10065.162109
1355.892578	9837.668945
1354.763672	10050.704102
1353.634766	9960.492188
1352.503906	9989.790039
1351.375000	9952.710938
1350.244141	9933.338867
1349.113281	10042.237305
1347.982422	9991.901367
1346.851563	10120.649414
1345.720703	9950.958008
1344.589844	9975.799805
1343.458984	9872.476563
1342.326172	10023.249023
1341.195313	9972.964844
1340.062500	9973.492188
1338.931641	9954.145508
1337.798828	10038.568359
1336.666016	10034.668945
1335.533203	10121.256836
1334.400391	10086.450195
1333.267578	10102.399414
1332.132813	10078.637695
1331.000000	10187.212891
1329.867188	9918.673828
1328.732422	9804.558594
1327.597656	10148.993164
1326.464844	10085.569336
1325.330078	10145.570313
1324.195313	10051.321289
1323.060547	10139.945313
1321.925781	10030.310547
1320.789063	10090.279297
1319.654297	10152.428711
1318.517578	10196.945313
1317.382813	10184.219727
1316.246094	10230.916016
1315.111328	10110.373047
1313.974609	10185.665039
1312.837891	10058.571289
1311.701172	10041.479492
1310.564453	10114.544922
1309.425781	10060.075195
1308.289063	10155.092773
1307.152344	9942.399414
1306.013672	9962.694336
1304.875000	9954.866211
1303.738281	9947.037109
1302.599609	9939.208984
1301.460938	9931.379883
1300.322266	9923.551758
1299.183594	10093.094727
1298.044922	9904.837891
1296.904297	10230.125977
1295.765625	10039.715820
1294.625000	9871.304688
1293.486328	10088.962891
1292.345703	9898.671875
1291.205078	9796.144531
1290.064453	9842.717773
1288.923828	10079.958008
1287.783203	9876.646484
1286.642578	9662.448242
1285.501953	9737.489258
1284.359375	9884.785156
1283.218750	9975.091797
1282.076172	9861.739258
1280.935547	9936.695313
1279.792969	9832.141602
1278.650391	9937.714844
1277.507813	9837.572266
1276.365234	9706.835938
1275.222656	9969.863281
1274.078125	9933.186523
1272.935547	9682.236328
1271.792969	9768.049805
1270.648438	9788.256836
1269.503906	9769.119141
1268.359375	9822.095703
1267.216797	9730.861328
1266.072266	9869.016602
1264.927734	9817.116211
1263.781250	9907.169922
1262.636719	9800.698242
1261.492188	9825.236328
1260.345703	9941.431641
1259.201172	9704.078125
1258.054688	9942.434570
1256.908203	9857.859375
1255.761719	9753.682617
1254.615234	9821.815430
1253.468750	9903.006836
1252.322266	9846.833984
1251.175781	9947.608398
1250.029297	10009.124023
1248.880859	9935.529297
1247.732422	10092.876953
1246.585938	9990.977539
1245.437500	10028.486328
1244.289063	9909.212891
1243.140625	9916.244141
1241.992188	10032.105469
1240.843750	10032.583984
1239.695313	10063.525391
1238.544922	10214.109375
1237.396484	10049.244141
1236.246094	10247.625000
1235.097656	10202.403320
1233.947266	10218.069336
1232.796875	10090.265625
1231.646484	10090.731445
1230.496094	10160.731445
1229.345703	10132.941406
1228.195313	10172.498047
1227.042969	10153.401367
1225.892578	10066.995117
1224.740234	10202.071289
1223.589844	10395.711914
1222.437500	10083.587891
1221.285156	10190.381836
1220.132813	10149.602539
1218.980469	10252.009766
1217.828125	10378.240234
1216.675781	10252.875977
1215.521484	10201.271484
1214.369141	10238.564453
1213.214844	10163.137695
1212.062500	10243.765625
1210.908203	10285.365234
1209.753906	10344.281250
1208.599609	10368.520508
1207.445313	10329.949219
1206.291016	10373.669922
1205.134766	10304.801758
1203.980469	10513.013672
1202.826172	10377.055664
1201.669922	10414.246094
1200.513672	10278.350586
1199.359375	10350.152344
1198.203125	10324.609375
1197.046875	10355.294922
1195.890625	10569.734375
1194.734375	10302.069336
1193.576172	10306.807617
1192.419922	10430.389648
1191.263672	10469.670898
1190.105469	10370.692383
1188.947266	10377.573242
1187.791016	10466.508789
1186.632813	10406.441406
1185.474609	10519.085938
1184.316406	10618.741211
1183.156250	10478.834961
1181.998047	10170.686523
1180.839844	10294.079102
1179.679688	10587.818359
1178.521484	10473.887695
1177.361328	10444.083008
1176.201172	10386.262695
1175.042969	10660.387695
1173.882813	10600.394531
1172.720703	10620.143555
1171.560547	10588.182617
1170.400391	10588.541016
1169.240234	10616.894531
1168.078125	10690.455078
1166.917969	10398.013672
1165.755859	10760.011719
1164.593750	10829.205078
1163.431641	10829.519531
1162.269531	10776.049805
1161.107422	10836.600586
1159.945313	10703.575195
1158.783203	10804.970703
1157.619141	10725.741211
1156.457031	10928.125977
1155.292969	10909.078125
1154.130859	10997.475586
1152.966797	11025.687500
1151.802734	11135.515625
1150.638672	11180.875000
1149.474609	11123.146484
1148.310547	11183.520508
1147.144531	11054.973633
1145.980469	11297.767578
1144.814453	10952.510742
1143.650391	11150.183594
1142.484375	11191.193359
1141.318359	11223.610352
1140.154297	11457.589844
1138.988281	11592.863281
1137.820313	11382.958008
1136.654297	11434.608398
1135.488281	11769.110352
1134.320313	11642.841797
1133.154297	11711.558594
1131.986328	11718.136719
1130.820313	11780.391602
1129.652344	11932.552734
1128.484375	11829.910156
1127.316406	12063.345703
1126.148438	11851.572266
1124.980469	12127.717773
1123.810547	12204.812500
1122.642578	12266.908203
1121.472656	12307.595703
1120.304688	12322.610352
1119.134766	12262.794922
1117.964844	12093.986328
1116.794922	12299.233398
1115.625000	12365.520508
1114.455078	12354.874023
1113.285156	12611.236328
1112.113281	12359.217773
1110.943359	12730.798828
1109.771484	12557.838867
1108.601563	12696.587891
1107.429688	12726.443359
1106.257813	12894.990234
1105.085938	13046.410156
1103.914063	12818.079102
1102.742188	13005.717773
1101.570313	13212.484375
1100.396484	13231.558594
1099.224609	13314.577148
1098.050781	13487.083008
1096.878906	13310.049805
1095.705078	13510.194336
1094.531250	13571.804688
1093.357422	13465.131836
1092.183594	13716.255859
1091.009766	13884.255859
1089.835938	13749.908203
1088.660156	13790.138672
1087.486328	13958.039063
1086.310547	14230.139648
1085.134766	13925.635742
1083.960938	14167.870117
1082.785156	14259.031250
1081.609375	14362.918945
1080.433594	14430.629883
1079.257813	14241.127930
1078.080078	14240.830078
1076.904297	14427.515625
1075.726563	14620.510742
1074.550781	14862.292969
1073.373047	14830.032227
1072.195313	14867.852539
1071.017578	14909.905273
1069.839844	14900.999023
1068.662109	15087.346680
1067.484375	15269.386719
1066.306641	15309.218750
1065.126953	15304.491211
1063.949219	15458.829102
1062.769531	15583.425781
1061.589844	15610.455078
1060.410156	15620.515625
1059.230469	15766.213867
1058.050781	15839.814453
1056.871094	16157.038086
1055.691406	16103.447266
1054.511719	16143.064453
1053.330078	16409.250000
1052.150391	16503.847656
1050.968750	16386.726563
1049.787109	16288.691406
1048.605469	16641.431641
1047.423828	16790.933594
1046.242188	16669.609375
1045.060547	16825.400391
1043.878906	16780.240234
1042.695313	17018.417969
1041.513672	17112.761719
1040.330078	17211.300781
1039.148438	17106.929688
1037.964844	17433.628906
1036.781250	17498.259766
1035.597656	17349.537109
1034.414063	17610.560547
1033.230469	17856.712891
1032.044922	17853.669922
1030.861328	18015.265625
1029.675781	17826.480469
1028.492188	18002.794922
1027.306641	18094.660156
1026.121094	17998.765625
1024.935547	18075.837891
1023.750000	18133.906250
1022.564453	18415.425781
1021.378906	18703.173828
1020.191406	18426.007813
1019.005859	18429.187500
1017.818359	18575.626953
1016.632813	18557.714844
1015.445313	18659.853516
1014.257813	18785.121094
1013.070313	18861.919922
1011.882813	18614.523438
1010.695313	18863.906250
1009.507813	18932.234375
1008.318359	19063.656250
1007.130859	19176.099609
1005.941406	19048.740234
1004.751953	18955.068359
1003.564453	19273.513672
1002.375000	19297.554688
1001.185547	19058.863281
999.996094	19013.583984
998.804688	19132.199219
997.615234	19000.792969
996.425781	19098.367188
995.234375	19242.105469
994.042969	19373.197266
992.853516	19254.431641
991.662109	19322.507813
990.470703	19396.857422
989.279297	19135.468750
988.087891	19237.093750
986.894531	19307.220703
985.703125	19031.300781
984.511719	18971.439453
983.318359	19171.550781
982.125000	19034.130859
980.933594	19133.570313
979.740234	19113.541016
978.546875	19305.107422
977.353516	19209.648438
976.158203	18940.398438
974.964844	19018.826172
973.771484	19044.886719
972.576172	19035.355469
971.382813	19203.714844
970.187500	18811.236328
968.992188	18787.103516
967.796875	18731.599609
966.601563	19060.931641
965.406250	18852.753906
964.210938	18968.701172
963.013672	18752.248047
961.818359	18905.791016
960.621094	18862.857422
959.425781	18957.830078
958.228516	18868.945313
957.031250	18677.753906
955.833984	18760.175781
954.636719	18811.253906
953.439453	18791.337891
952.242188	18992.664063
951.042969	18787.001953
949.845703	18675.298828
948.646484	18776.408203
947.447266	18746.083984
946.250000	18544.773438
945.050781	18654.191406
943.851563	19072.093750
942.650391	18839.564453
941.451172	18734.232422
940.251953	18808.121094
939.050781	18527.839844
937.851563	18764.197266
936.650391	18817.214844
935.449219	18749.451172
934.250000	18650.484375
933.048828	18630.642578
931.847656	18629.537109
930.644531	18580.576172
929.443359	18413.050781
928.242188	18599.177734
927.039063	18336.042969
925.837891	18517.960938
924.634766	18758.025391
923.431641	18540.724609
922.228516	18660.166016
921.025391	18523.992188
919.822266	18331.769531
918.619141	18320.324219
917.414063	18562.250000
916.210938	18301.595703
915.005859	18366.974609
913.802734	18324.392578
912.597656	18184.281250
911.392578	18365.843750
910.187500	18308.759766
908.982422	18081.601563
907.777344	18196.720703
906.572266	18133.472656
905.365234	17862.921875
904.160156	17953.142578
902.953125	18049.548828
901.746094	18081.685547
900.541016	17925.275391
899.333984	17973.992188
898.126953	18001.980469
896.919922	17483.281250
895.710938	17724.593750
894.503906	17690.507813
893.296875	17608.828125
892.087891	17494.068359
890.878906	17373.140625
889.671875	17599.781250
888.462891	17542.992188
887.253906	17308.380859
886.044922	17330.226563
884.833984	16973.765625
883.625000	16908.851563
882.416016	16812.962891
881.205078	17105.539063
879.996094	16825.792969
878.785156	16928.246094
877.574219	17034.792969
876.363281	16759.332031
875.152344	16523.185547
873.941406	16829.955078
872.730469	16614.513672
871.517578	16582.779297
870.306641	16410.773438
869.093750	16348.145508
867.880859	16450.517578
866.669922	16167.279297
865.457031	16335.615234
864.244141	15953.556641
863.031250	16150.721680
861.816406	16201.524414
860.603516	16083.378906
859.390625	16074.441406
858.175781	15927.525391
856.962891	15893.907227
855.748047	15755.306641
854.533203	15727.904297
853.318359	15873.382813
852.103516	15802.756836
850.888672	15666.321289
849.671875	15939.264648
848.457031	15862.492188
847.242188	15746.677734
846.025391	15604.175781
844.808594	15576.832031
843.591797	15549.497070
842.376953	15246.823242
841.158203	15250.370117
839.941406	15605.170898
838.724609	15415.599609
837.507813	15579.280273
836.289063	15391.830078
835.072266	15422.032227
833.853516	15604.096680
832.634766	15447.517578
831.416016	15409.987305
830.197266	15395.034180
828.978516	15412.900391
827.759766	15276.965820
826.541016	15473.216797
825.320313	15527.956055
824.101563	15443.308594
822.880859	15319.753906
821.660156	15417.516602
820.441406	15373.898438
819.220703	15399.931641
818.000000	15411.621094
816.777344	15329.125000
815.556641	15566.000000
814.335938	15264.503906
813.113281	15538.142578
811.892578	15291.996094
810.669922	15414.154297
809.447266	15429.914063
808.224609	15795.358398
807.001953	15432.791016
805.779297	15489.422852
804.556641	15349.818359
803.332031	15647.584961
802.109375	15638.766602
800.884766	15582.963867
799.662109	15529.222656
798.437500	15512.258789
797.212891	15683.146484
795.988281	15504.884766
794.763672	15577.740234
793.539063	15744.445313
792.312500	15609.112305
791.087891	15849.195313
789.861328	15646.579102
788.636719	15694.873047
787.410156	15918.502930
786.183594	15877.031250
784.957031	15664.356445
783.730469	15635.168945
782.503906	15610.066406
781.277344	15644.051758
780.048828	15506.925781
778.822266	15718.096680
777.593750	15837.564453
776.365234	15814.482422
775.136719	15726.270508
773.908203	15646.229492
772.679688	15688.302734
771.451172	15870.739258
770.222656	15579.166016
768.994141	15783.927734
767.763672	15888.982422
766.535156	15727.669922
765.304688	15718.865234
764.074219	15685.674805
762.843750	15723.615234
761.613281	15976.896484
760.382813	15911.176758
759.152344	15902.344727
757.919922	15871.179688
756.689453	15911.082031
755.457031	15680.994141
754.226563	16029.407227
752.994141	15996.209961
751.761719	16066.494141
750.529297	16059.670898
749.296875	16077.186523
748.064453	16015.612305
746.830078	15844.575195
745.597656	15843.874023
744.363281	16070.168945
743.130859	16091.717773
741.896484	16224.692383
740.662109	16045.661133
739.427734	16042.896484
738.193359	15930.782227
736.958984	16187.195313
735.722656	16218.820313
734.488281	16517.597656
733.251953	16128.239258
732.017578	16040.483398
730.781250	16177.300781
729.544922	16291.822266
728.308594	15981.636719
727.072266	16263.967773
725.835938	16139.873047
724.599609	16314.955078
723.361328	16358.622070
722.125000	16289.126953
720.886719	16031.782227
719.648438	16245.135742
718.412109	16149.440430
717.173828	16219.343750
715.935547	16299.316406
714.695313	16149.163086
713.457031	16344.147461
712.218750	16212.196289
710.978516	16397.013672
709.740234	16539.410156
708.500000	16461.943359
707.259766	16291.750000
706.019531	16407.880859
704.779297	16399.005859
703.539063	16297.428711
702.298828	16389.318359
701.056641	16452.972656
699.816406	16482.361328
698.574219	16239.867188
697.333984	16426.335938
696.091797	16353.041016
694.849609	16309.962891
693.607422	16285.011719
692.365234	16586.035156
691.121094	16476.546875
689.878906	16475.714844
688.636719	16436.671875
687.392578	16528.339844
686.148438	16547.601563
684.904297	16699.519531
683.662109	16648.404297
682.417969	16492.820313
681.171875	16686.855469
679.927734	16758.294922
678.683594	16685.111328
677.437500	16812.750000
676.193359	16805.830078
674.947266	16682.492188
673.701172	16677.605469
672.455078	16574.396484
671.208984	16968.769531
669.962891	16753.212891
668.716797	16856.615234
667.470703	16671.230469
666.222656	16736.515625
664.976563	16621.371094
663.728516	16788.855469
662.480469	16856.087891
661.232422	16775.041016
659.984375	16696.023438
658.736328	16462.820313
657.488281	16335.825195
656.240234	16605.285156
654.990234	16694.496094
653.742188	16689.609375
652.492188	16580.669922
651.242188	16783.876953
649.992188	16866.992188
648.742188	16422.074219
647.492188	16735.183594
646.242188	16330.427734
644.992188	16593.468750
643.740234	16586.601563
642.490234	16411.882813
641.238281	16476.974609
639.986328	16641.923828
638.734375	16439.322266
637.482422	16426.496094
636.230469	16691.193359
634.978516	16570.531250
633.726563	16392.029297
632.472656	16506.929688
631.220703	16300.567383
629.966797	16618.916016
628.712891	16466.455078
627.458984	16597.214844
626.205078	16614.281250
624.951172	16748.955078
623.697266	16773.960938
622.443359	16978.306641
621.187500	16652.597656
619.933594	16743.343750
618.677734	16471.562500
617.421875	17095.998047
616.167969	16876.017578
614.912109	17082.119141
613.654297	17226.447266
612.398438	16942.876953
611.142578	16965.810547
609.884766	17100.136719
608.628906	17391.542969
607.371094	17372.623047
606.113281	17311.957031
604.857422	17408.355469
603.599609	17643.853516
602.339844	17489.767578
601.082031	17578.136719
599.824219	17555.228516
598.564453	17605.816406
597.306641	18003.914063
596.046875	18032.564453
594.787109	17739.603516
593.529297	18095.787109
592.269531	18138.296875
591.007813	18061.742188
589.748047	18241.123047
588.488281	18519.615234
587.226563	18671.091797
585.966797	18596.476563
584.705078	18581.361328
583.443359	18661.388672
582.183594	18804.804688
580.921875	18767.863281
579.658203	18592.257813
578.396484	19104.023438
577.134766	18977.929688
575.871094	18843.958984
574.609375	19100.031250
573.345703	18946.291016
572.082031	19077.578125
570.818359	18929.830078
569.554688	18910.722656
568.291016	19303.039063
567.027344	19117.750000
565.763672	19157.935547
564.498047	19166.476563
563.234375	19287.679688
561.968750	19306.074219
560.703125	19320.509766
559.437500	19042.554688
558.171875	19335.535156
556.906250	19221.589844
555.640625	19411.761719
554.375000	19390.626953
553.107422	19543.197266
551.839844	19222.072266
550.574219	19354.886719
549.306641	19444.251953
548.039063	19281.107422
546.771484	19402.007813
545.503906	19305.964844
544.236328	19568.763672
542.966797	19529.888672
541.699219	19394.457031
540.429688	19570.400391
539.160156	19417.277344
537.892578	19561.638672
536.623047	19550.367188
535.353516	19588.324219
534.082031	19803.453125
532.812500	19786.236328
531.542969	19847.746094
530.271484	19881.687500
529.001953	19893.974609
527.730469	19874.785156
526.458984	19983.435547
525.187500	19952.435547
523.916016	19929.312500
522.644531	19890.468750
521.373047	19953.835938
520.099609	19985.740234
518.828125	20227.847656
517.554688	20428.621094
516.281250	20332.767578
515.007813	20270.326172
513.734375	20309.998047
512.460938	20538.095703
511.187500	20856.390625
509.914063	20676.166016
508.638672	20725.544922
507.365234	20596.404297
506.089844	21034.099609
504.814453	20718.664063
503.541016	20875.828125
502.265625	20750.667969
500.988281	20950.886719
499.712891	20976.638672
498.437500	20931.849609
497.160156	20730.369141
495.884766	21208.556641
494.607422	21281.236328
493.330078	21152.238281
492.052734	21170.091797
490.775391	21082.253906
489.498047	20953.355469
488.220703	21209.919922
486.943359	20996.927734
485.664063	21081.285156
484.386719	20985.714844
483.107422	20958.603516
481.828125	20851.357422
480.548828	20904.408203
479.269531	20924.220703
477.990234	20867.830078
476.710938	20905.222656
475.429688	20925.021484
474.150391	20876.468750
472.869141	20876.742188
471.589844	20861.398438
470.308594	20627.468750
469.027344	20858.041016
467.746094	20567.613281
466.464844	20671.320313
465.181641	20712.582031
463.900391	20597.826172
462.617188	20590.341797
461.335938	20508.785156
460.052734	20702.062500
458.769531	20501.646484
457.486328	20488.335938
456.203125	20451.654297
454.919922	20650.646484
453.634766	20617.841797
452.351563	20655.138672
451.066406	20706.046875
449.783203	20852.304688
448.498047	20547.054688
447.212891	20697.177734
445.927734	20720.806641
444.642578	20830.001953
443.357422	20495.796875
442.070313	20661.375000
440.785156	20648.056641
439.498047	20908.783203
438.212891	21045.052734
436.925781	20920.927734
435.638672	21082.400391
434.351563	21234.103516
433.064453	21335.263672
431.775391	21244.177734
430.488281	21265.710938
429.199219	21347.402344
427.912109	21603.710938
426.623047	21580.544922
425.333984	21910.433594
424.044922	21751.455078
422.755859	21749.603516
421.466797	21966.837891
420.177734	21716.820313
418.886719	22077.406250
417.597656	22127.816406
416.306641	21972.835938
415.015625	22054.238281
413.724609	22255.693359
412.433594	22122.070313
411.142578	22176.294922
409.851563	22162.750000
408.560547	22458.876953
407.267578	22410.453125
405.976563	22425.892578
404.683594	22054.439453
403.390625	22338.771484
402.097656	22203.378906
400.804688	22209.173828
399.511719	22342.546875
398.218750	22228.482422
396.923828	22120.255859
395.630859	22288.349609
394.335938	22052.652344
393.042969	22137.648438
391.748047	21915.576172
390.453125	21817.146484
389.158203	21987.072266
387.861328	21850.062500
386.566406	21848.177734
385.271484	21690.013672
383.974609	22181.990234
382.677734	21564.791016
381.382813	21960.197266
380.085938	21613.175781
378.789063	21777.111328
377.492188	21815.710938
376.193359	21549.826172
374.896484	21509.457031
373.599609	21511.480469
372.300781	21505.796875
371.001953	21480.859375
369.705078	21413.570313
368.406250	21327.056641
367.107422	21438.810547
365.806641	21741.033203
364.507813	21429.396484
363.208984	21718.048828
361.908203	21454.605469
360.609375	21548.929688
359.308594	21620.148438
358.007813	21374.160156
356.707031	21322.375000
355.406250	21424.339844
354.105469	21568.535156
352.802734	21443.744141
351.501953	21609.011719
350.199219	21657.083984
348.898438	21440.181641
347.595703	21405.720703
346.292969	21505.621094
344.990234	21386.724609
343.687500	21099.029297
342.382813	21262.230469
341.080078	21262.349609
339.777344	21452.310547
338.472656	21183.974609
337.167969	21115.093750
335.863281	21253.230469
334.558594	21153.701172
333.253906	21232.386719
331.949219	21138.638672
330.644531	21196.230469
329.337891	21468.271484
328.033203	21326.666016
326.726563	21221.478516
325.419922	21279.011719
324.113281	21214.054688
322.806641	21043.888672
321.500000	21319.494141
320.193359	21023.136719
318.886719	21315.857422
317.578125	21279.625000
316.271484	21226.199219
314.962891	21662.070313
313.654297	21413.683594
312.345703	21413.755859
311.037109	21369.892578
309.728516	21316.494141
308.419922	21450.251953
307.109375	21538.140625
305.800781	21574.457031
304.490234	21620.300781
303.179688	21763.449219
301.869141	21689.046875
300.558594	21778.718750
299.248047	21717.689453
297.937500	21422.128906
296.625000	21750.121094
295.314453	21675.779297
294.001953	21513.792969
292.691406	21622.453125
291.378906	21599.613281
290.066406	21652.976563
288.753906	21588.236328
287.441406	21555.890625
286.126953	21460.726563
284.814453	21544.531250
283.500000	21396.109375
282.187500	21548.398438
280.873047	21590.283203
279.558594	21470.464844
278.244141	21489.523438
276.929688	21656.898438
275.615234	21177.794922
274.298828	21596.082031
272.984375	21276.802734
271.667969	21309.175781
270.351563	21183.847656
269.037109	21506.857422
267.720703	21381.537109
266.404297	21444.248047
265.085938	21218.357422
263.769531	21357.003906
262.453125	21283.035156
261.134766	21243.250000
259.816406	21193.990234
258.500000	21290.808594
257.181641	21463.455078
255.863281	21205.593750
254.544922	21080.537109
253.224609	21196.259766
251.906250	21105.359375
250.585938	21389.681641
249.267578	21573.492188
247.947266	21454.158203
246.626953	21359.486328
245.306641	21507.222656
243.986328	21514.808594
242.666016	21550.783203
241.345703	21832.781250
240.023438	21507.267578
238.703125	21477.003906
237.380859	21643.476563
236.058594	21605.634766
234.736328	21613.187500
233.414063	21724.718750
232.091797	21879.685547
230.769531	21832.376953
229.445313	21720.835938
228.123047	22023.082031
226.798828	21936.101563
225.476563	22147.548828
224.152344	22062.464844
222.828125	21986.847656
221.503906	21973.548828
220.177734	21882.873047
218.853516	22113.009766
217.527344	21941.216797
216.203125	21844.935547
214.876953	21842.984375
213.550781	21969.253906
212.224609	22006.869141
210.898438	21987.921875
209.572266	21901.136719
208.246094	22025.417969
206.917969	22081.833984
205.591797	22219.224609
204.263672	22132.455078
202.935547	22401.593750
201.609375	22465.431641
200.281250	22367.367188
198.951172	22568.570313
197.623047	22508.152344
196.294922	22709.257813
194.964844	22951.673828
193.636719	23468.576172
192.306641	24491.101563
190.976563	24302.556641
189.646484	24461.812500
188.316406	24628.529297
186.986328	23487.408203
185.654297	23597.875000
184.324219	23648.195313
182.992188	23767.984375
181.662109	24030.431641
180.330078	23834.716797
178.998047	24070.781250
177.666016	23978.341797
176.333984	24184.273438
175.000000	23938.011719
173.667969	24085.730469
172.333984	24576.585938
171.001953	24360.382813
169.667969	24425.460938
168.333984	24439.904297
167.000000	24242.578125
165.666016	24303.890625
164.332031	24597.478516
162.996094	24611.878906
161.662109	24332.257813
160.326172	24502.105469
158.992188	24574.546875
157.656250	24587.064453
156.320313	24637.005859
154.984375	24857.197266
153.646484	24789.214844
152.310547	24960.667969
150.974609	25060.996094
149.636719	24983.662109
148.298828	24958.697266
146.960938	25572.972656
145.625000	25331.132813
144.285156	25408.882813
142.947266	25849.015625
141.609375	25956.529297
140.271484	26097.617188
138.931641	26227.451172
137.591797	26489.781250
136.253906	26528.041016
134.914063	26719.310547
133.574219	26755.648438
132.232422	26978.521484
130.892578	27214.371094
129.552734	27179.736328
128.210938	27273.763672
126.871094	27289.462891
125.529297	27431.894531
124.187500	27654.406250
122.845703	27852.615234
121.503906	27687.500000
120.162109	27518.716797
118.818359	27744.775391
117.476563	27754.777344
116.132813	27703.345703
114.789063	27741.267578
113.447266	27786.617188
112.103516	27554.730469
110.759766	27784.257813
109.414063	28129.015625
108.070313	28142.648438
106.726563	28702.892578
105.380859	28283.291016
104.035156	27845.251953
102.689453	28397.814453
101.345703	28455.974609
99.998047	28751.882813
98.652344	28874.960938
97.306641	29075.984375
95.960938	29191.533203
94.613281	29663.447266
93.265625	29559.845703
91.919922	29643.697266
90.572266	29551.265625
89.224609	29744.531250
87.875000	29830.158203
86.527344	29921.316406
85.179688	30492.625000
83.830078	30854.265625
82.482422	30135.283203
81.132813	30083.634766
79.783203	30017.183594
78.433594	30097.091797
77.083984	30145.484375
75.734375	30169.787109
74.382813	29842.318359
73.033203	29814.833984
71.681641	29876.193359
70.330078	29027.136719
68.978516	29118.210938
67.626953	28830.056641
66.275391	28656.666016
64.923828	28509.222656
63.572266	28128.886719
62.218750	27720.957031
60.867188	27961.855469
59.513672	27397.037109
58.160156	26137.773438
56.806641	25209.589844
55.453125	24167.232422
54.099609	23548.083984
52.744141	23038.076172
51.390625	22423.037109
