#Wave		#Intensity
4002.113281	7545.560059
4001.415039	7266.359863
4000.716797	7075.509766
4000.017578	7117.312500
3999.319336	7191.301758
3998.620117	7132.911133
3997.920898	7310.595215
3997.221680	7309.420410
3996.522461	7411.934082
3995.823242	7038.954590
3995.124023	7059.269043
3994.424805	7233.248047
3993.724609	7089.159180
3993.025391	7109.455566
3992.325195	7176.181152
3991.625000	7067.884766
3990.924805	7063.178223
3990.224609	7451.205078
3989.524414	7271.521973
3988.824219	7273.922852
3988.124023	7276.322266
3987.422852	7292.993164
3986.721680	7359.602539
3986.021484	7294.216797
3985.320313	7022.007324
3984.619141	7156.375977
3983.917969	7187.312012
3983.216797	7350.127441
3982.514648	7384.586426
3981.813477	7283.624023
3981.112305	7343.022461
3980.410156	7284.846191
3979.708008	7276.552246
3979.005859	7083.082520
3978.303711	7359.667969
3977.601563	7237.445801
3976.899414	7403.575684
3976.197266	7441.533203
3975.494141	7105.860840
3974.791992	7325.296387
3974.088867	7156.934570
3973.385742	7315.829590
3972.682617	7271.982910
3971.979492	7320.590332
3971.276367	7202.104492
3970.573242	7232.936035
3969.869141	7370.368652
3969.166016	7241.271973
3968.461914	7268.529297
3967.758789	7260.257813
3967.054688	7362.082520
3966.350586	7272.128906
3965.646484	7430.723145
3964.941406	7255.594238
3964.237305	7357.353516
3963.533203	7345.525879
3962.828125	7223.714355
3962.124023	7222.554199
3961.418945	7356.174805
3960.713867	7422.372559
3960.008789	7360.903320
3959.303711	7256.911621
3958.598633	7241.567871
3957.892578	7417.604980
3957.187500	7225.068359
3956.481445	7216.822266
3955.776367	7035.005859
3955.070313	7455.341797
3954.364258	7340.827637
3953.658203	7144.916016
3952.952148	7338.469727
3952.245117	7199.252441
3951.539063	7385.657227
3950.832031	7303.089844
3950.125977	7167.482910
3949.418945	7357.339355
3948.711914	7412.744141
3948.004883	7164.030273
3947.297852	7357.331055
3946.590820	7126.380371
3945.883789	7213.594727
3945.175781	7505.739746
3944.468750	7296.075195
3943.760742	7379.687012
3943.052734	7247.815430
3942.344727	7098.328613
3941.636719	7174.869141
3940.928711	7353.766113
3940.220703	7472.599121
3939.511719	7443.165039
3938.803711	7251.421875
3938.094727	7271.426270
3937.386719	7347.864258
3936.677734	7240.875488
3935.968750	7274.977051
3935.259766	7238.550781
3934.550781	7240.913574
3933.840820	7014.169922
3933.131836	7411.271973
3932.421875	7226.855957
3931.712891	7349.000977
3931.002930	7111.817383
3930.292969	7279.726074
3929.583008	7169.396484
3928.873047	7340.762207
3928.163086	7188.215820
3927.452148	7313.768066
3926.742188	7312.594238
3926.031250	7297.346191
3925.321289	7246.923828
3924.610352	7421.628418
3923.899414	7297.349121
3923.188477	7190.690918
3922.477539	7351.257324
3921.765625	7441.469727
3921.054688	7250.490234
3920.342773	7214.186523
3919.631836	7367.618652
3918.919922	7183.768066
3918.208008	7210.713379
3917.496094	7297.348633
3916.784180	7394.489746
3916.072266	7038.732910
3915.359375	7044.623535
3914.647461	7173.342773
3913.934570	7287.984863
3913.222656	7121.923340
3912.509766	7527.682129
3911.796875	7431.779297
3911.083984	7283.307129
3910.371094	7334.729492
3909.658203	7294.991699
3908.944336	7377.939941
3908.231445	7362.738281
3907.517578	7330.021973
3906.803711	7216.740723
3906.089844	7320.663574
3905.375977	7294.973633
3904.662109	7216.768066
3903.948242	7292.632324
3903.234375	7270.459473
3902.519531	7395.289063
3901.805664	7348.610840
3901.090820	7438.399902
3900.375977	7440.704102
3899.661133	7194.674316
3898.946289	6994.185547
3898.231445	7283.275391
3897.516602	7421.945313
3896.801758	7193.552734
3896.085938	7311.223145
3895.370117	7407.889648
3894.655273	7406.701172
3893.939453	7339.142578
3893.223633	7330.979492
3892.507813	7452.024902
3891.791992	7384.490723
3891.075195	7404.251465
3890.359375	7200.622070
3889.642578	7318.120117
3888.925781	7411.155273
3888.209961	7214.600098
3887.493164	7342.502930
3886.776367	7411.076172
3886.059570	7200.666504
3885.341797	7408.698242
3884.625000	7306.418457
3883.907227	7266.907715
3883.190430	7359.830566
3882.472656	7396.976074
3881.754883	7287.795898
3881.037109	7432.916504
3880.319336	7177.499023
3879.601563	7266.878906
3878.883789	7572.077637
3878.165039	7330.683594
3877.447266	7423.475586
3876.728516	7384.007324
3876.009766	7292.363770
3875.291016	7388.595703
3874.572266	7380.454102
3873.853516	7153.231934
3873.134766	7256.393066
3872.415039	7328.232910
3871.696289	7361.815430
3870.976563	7548.299316
3870.256836	7338.605469
3869.537109	7403.437500
3868.817383	7325.830078
3868.097656	7352.439453
3867.377930	7531.829590
3866.658203	7357.024414
3865.937500	7432.214844
3865.217773	7319.956055
3864.497070	7343.073730
3863.776367	7480.684082
3863.055664	7361.533203
3862.334961	7325.666504
3861.614258	7206.578125
3860.893555	7340.653809
3860.171875	7256.270020
3859.451172	7237.774414
3858.729492	7361.382324
3858.007813	7457.229004
3857.287109	7116.492188
3856.565430	7305.878418
3855.842773	7276.998047
3855.121094	7490.538574
3854.399414	7340.450684
3853.676758	7238.877441
3852.955078	7258.484863
3852.232422	7534.185547
3851.509766	7470.692383
3850.787109	7182.338867
3850.064453	7364.521973
3849.341797	7397.926270
3848.619141	7265.334473
3847.895508	7329.861328
3847.172852	7442.764648
3846.449219	7400.094238
3845.725586	7468.023926
3845.001953	7484.102539
3844.278320	7254.891113
3843.554688	7450.614746
3842.831055	7449.419434
3842.107422	7199.605469
3841.382813	7412.505371
3840.659180	7387.152832
3839.934570	7334.197754
3839.209961	7143.225586
3838.485352	7249.038574
3837.760742	7461.759277
3837.036133	7543.342773
3836.310547	7573.170410
3835.585938	7382.312500
3834.860352	7163.935059
3834.135742	7514.376465
3833.410156	7430.457520
3832.684570	7446.495117
3831.958984	7448.746094
3831.233398	7485.443848
3830.507813	7370.584961
3829.781250	7359.072266
3829.055664	7592.022461
3828.329102	7425.562988
3827.602539	7496.654297
3826.875977	7395.650391
3826.149414	7373.818848
3825.422852	7510.250000
3824.696289	7495.286621
3823.969727	7370.272461
3823.242188	7286.562012
3822.515625	7612.016113
3821.788086	7407.978516
3821.060547	7265.872559
3820.333008	7697.703125
3819.605469	7507.493164
3818.877930	7506.289551
3818.150391	7453.563477
3817.421875	7421.459961
3816.694336	7375.631836
3815.965820	7525.508301
3815.237305	7555.195313
3814.508789	7492.206543
3813.780273	7563.067383
3813.051758	7380.013184
3812.323242	7557.211914
3811.593750	7507.981934
3810.865234	7431.333496
3810.135742	7491.859863
3809.407227	7572.935547
3808.677734	7215.244141
3807.948242	7796.697266
3807.218750	7528.174805
3806.488281	7492.707520
3805.758789	7611.397949
3805.029297	7442.356445
3804.298828	7454.860840
3803.568359	7563.228027
3802.837891	7579.131836
3802.107422	7365.707520
3801.376953	7665.678223
3800.646484	7572.065430
3799.916016	7403.218750
3799.185547	7453.339844
3798.454102	7352.965332
3797.722656	7474.886230
3796.992188	7497.620117
3796.260742	7506.672852
3795.529297	7621.674316
3794.796875	7459.842285
3794.065430	7561.146973
3793.333984	7546.270508
3792.601563	7497.242188
3791.870117	7267.231934
3791.137695	7361.672852
3790.405273	7619.953613
3789.672852	7516.329590
3788.940430	7583.382324
3788.208008	7609.464844
3787.474609	7352.362305
3786.742188	7531.978516
3786.008789	7588.752930
3785.276367	7498.873047
3784.542969	7453.346191
3783.809570	7574.876953
3783.076172	7583.888184
3782.342773	7507.697754
3781.608398	7629.160156
3780.875000	7457.594727
3780.140625	7633.527344
3779.407227	7526.725098
3778.672852	7457.414551
3777.938477	7405.148926
3777.204102	7638.846191
3776.469727	7440.214844
3775.735352	7564.934082
3775.000000	7754.260742
3774.265625	7440.039551
3773.530273	7483.064941
3772.794922	7614.498535
3772.059570	7511.269043
3771.324219	7635.855957
3770.588867	7522.458008
3769.853516	7609.617676
3769.118164	7740.924805
3768.381836	7607.178711
3767.646484	7402.137207
3766.910156	7648.894531
3766.173828	7603.520996
3765.437500	7510.626465
3764.701172	7635.032715
3763.964844	7660.963379
3763.227539	7690.279297
3762.491211	7621.182129
3761.753906	7474.075684
3761.017578	7846.012695
3760.280273	7532.728516
3759.542969	7575.604980
3758.805664	7716.791992
3758.068359	7773.184570
3757.331055	7470.280273
3756.592773	7587.693848
3755.855469	7457.721191
3755.117188	7656.405273
3754.378906	7719.536133
3753.640625	7592.990723
3752.902344	7659.497070
3752.164063	7644.727051
3751.425781	7711.203125
3750.686523	7747.197266
3749.948242	7773.027832
3749.208984	7612.759766
3748.470703	7591.242188
3747.731445	7617.084473
3746.992188	7724.082031
3746.252930	7902.052246
3745.512695	7724.987305
3744.773438	7642.624512
3744.034180	7475.796875
3743.293945	7765.202148
3742.553711	7760.579590
3741.813477	7688.396973
3741.073242	7683.787598
3740.333008	7885.172852
3739.592773	7728.594727
3738.852539	7605.824707
3738.111328	7695.739746
3737.371094	7832.872559
3736.629883	7561.677734
3735.888672	7955.188965
3735.147461	7751.524902
3734.406250	7686.202637
3733.665039	7779.389160
3732.923828	7703.968750
3732.181641	7837.574219
3731.440430	7930.690918
3730.698242	7922.680176
3729.956055	7911.302246
3729.214844	7758.437012
3728.472656	7666.249512
3727.729492	7641.446777
3726.987305	7677.244141
3726.245117	7713.041504
3725.501953	7748.838867
3724.759766	7784.636230
3724.016602	7769.928711
3723.273438	7627.373535
3722.530273	7747.254883
3721.787109	7793.101563
3721.043945	7986.901367
3720.299805	7736.806152
3719.556641	7870.039551
3718.812500	7855.333496
3718.068359	8005.308594
3717.325195	7741.929199
3716.581055	7720.530273
3715.835938	7658.829102
3715.091797	7603.864258
3714.347656	7696.671387
3713.602539	7913.676758
3712.858398	7821.770508
3712.113281	7927.923340
3711.368164	7866.246582
3710.623047	7603.267090
3709.877930	7706.048828
3709.132813	7624.311035
3708.387695	7877.974609
3707.641602	7903.538086
3706.896484	7868.745117
3706.150391	7766.919922
3705.404297	7862.872070
3704.658203	7844.856445
3703.912109	8007.775879
3703.166016	8106.992676
3702.419922	7918.124023
3701.672852	7973.786621
3700.926758	7905.541504
3700.179688	7840.665527
3699.432617	7939.828613
3698.685547	7831.459473
3697.938477	7726.471191
3697.191406	7792.147461
3696.444336	8068.547852
3695.696289	7876.611328
3694.949219	7882.037109
3694.201172	7807.215820
3693.454102	7846.081543
3692.706055	8021.976074
3691.958008	7953.852051
3691.208984	8066.185547
3690.460938	7911.212402
3689.712891	7843.138184
3688.963867	8125.765625
3688.215820	7980.874512
3687.466797	7839.368652
3686.717773	7894.862305
3685.968750	7920.298828
3685.219727	7959.075195
3684.470703	7904.414551
3683.720703	8026.582520
3682.971680	8045.309570
3682.221680	7927.295898
3681.471680	8229.461914
3680.722656	7988.100586
3679.972656	8176.824219
3679.221680	8078.861328
3678.471680	7870.962402
3677.721680	7966.323242
3676.970703	8101.628906
3676.220703	7917.140625
3675.469727	7942.513672
3674.718750	8017.823242
3673.967773	8096.437988
3673.216797	8011.925781
3672.465820	8077.203613
3671.714844	8112.512207
3670.962891	8044.672363
3670.211914	8246.297852
3669.459961	7972.250488
3668.708008	8147.219238
3667.956055	8119.314941
3667.204102	8131.311523
3666.452148	8080.151855
3665.699219	8145.322266
3664.947266	8090.854004
3664.194336	8318.789063
3663.442383	8025.149902
3662.689453	8133.461426
3661.936523	8301.508789
3661.183594	8396.460938
3660.430664	8205.902344
3659.676758	8095.060547
3658.923828	8219.865234
3658.169922	8168.779297
3657.416992	8240.454102
3656.663086	8328.689453
3655.909180	8347.252930
3655.155273	8253.073242
3654.401367	8139.031250
3653.646484	8260.373047
3652.892578	8285.563477
3652.137695	8642.115234
3651.383789	8335.919922
3650.628906	8245.142578
3649.874023	8316.688477
3649.119141	8292.174805
3648.364258	8353.755859
3647.609375	8451.733398
3646.853516	8417.279297
3646.098633	8406.001953
3645.342773	8500.614258
3644.586914	8542.261719
3643.831055	8461.504883
3643.075195	8575.905273
3642.319336	8488.554688
3641.563477	8497.113281
3640.806641	8677.568359
3640.050781	8431.591797
3639.293945	8585.561523
3638.537109	8432.195313
3637.780273	8648.882813
3637.023438	8594.648438
3636.266602	8319.158203
3635.509766	8499.437500
3634.752930	8580.613281
3633.995117	8575.937500
3633.237305	8640.573242
3632.480469	8645.788086
3631.722656	8532.224609
3630.964844	8580.339844
3630.207031	8737.285156
3629.448242	8610.569336
3628.690430	8777.350586
3627.931641	8604.513672
3627.173828	8744.873047
3626.415039	8588.574219
3625.656250	8583.903320
3624.897461	8658.304688
3624.138672	8884.210938
3623.379883	8830.090820
3622.620117	9032.845703
3621.861328	8718.608398
3621.101563	8684.291016
3620.341797	8965.966797
3619.582031	8671.636719
3618.822266	8913.738281
3618.062500	8820.193359
3617.302734	8739.834961
3616.542969	8817.367188
3615.782227	8789.648438
3615.021484	9041.399414
3614.261719	9062.961914
3613.500977	9100.950195
3612.740234	8971.331055
3611.979492	8979.750000
3611.217773	8975.026367
3610.457031	8875.049805
3609.695313	9011.560547
3608.934570	8882.057617
3608.172852	9048.070313
3607.411133	9066.315430
3606.649414	9071.426758
3605.887695	8945.278320
3605.125977	8848.697266
3604.363281	9057.226563
3603.601563	8934.419922
3602.838867	9110.074219
3602.076172	9403.709961
3601.314453	8835.055664
3600.551758	9207.307617
3599.788086	9081.296875
3599.025391	9119.163086
3598.262695	9039.073242
3597.499023	9057.279297
3596.736328	9046.001953
3595.972656	9152.616211
3595.208984	9141.328125
3594.445313	9169.325195
3593.681641	9164.583984
3592.916992	9087.846680
3592.153320	9115.838867
3591.389648	9019.505859
3590.625000	9047.499023
3589.860352	9183.408203
3589.095703	9113.268555
3588.331055	9167.388672
3587.566406	9244.373047
3586.801758	9370.357422
3586.036133	9159.715820
3585.271484	9200.723633
3584.505859	9029.376953
3583.741211	9279.431641
3582.975586	9206.099609
3582.209961	9152.380859
3581.443359	9049.708984
3580.677734	9371.412109
3579.912109	9187.146484
3579.145508	9136.727539
3578.379883	9223.354492
3577.613281	9228.400391
3576.846680	9119.291016
3576.080078	9225.444336
3575.313477	9406.554688
3574.545898	9088.829102
3573.779297	9119.967773
3573.012695	9151.095703
3572.245117	9003.000977
3571.477539	9418.569336
3570.709961	9355.170898
3569.942383	9119.178711
3569.174805	9055.847656
3568.407227	9360.442383
3567.638672	9124.562500
3566.871094	9220.743164
3566.102539	9287.605469
3565.333984	9419.519531
3564.565430	9180.527344
3563.796875	9104.245117
3563.028320	9177.585938
3562.259766	9289.922852
3561.490234	8999.084961
3560.721680	9137.418945
3559.952148	9044.953125
3559.182617	9274.222656
3558.413086	9295.479492
3557.643555	9287.493164
3556.874023	9006.678711
3556.104492	9203.331055
3555.333984	9221.337891
3554.564453	8986.118164
3553.793945	9059.333984
3553.023438	9158.490234
3552.252930	8949.351563
3551.482422	9239.909180
3550.711914	9027.579102
3549.941406	9048.835938
3549.169922	9027.929688
3548.399414	9013.514648
3547.627930	9203.333984
3546.856445	9043.039063
3546.084961	9064.275391
3545.313477	9111.425781
3544.541992	9061.371094
3543.770508	9144.137695
3542.998047	8967.786133
3542.226563	9037.587891
3541.454102	9045.852539
3540.681641	9024.980469
3539.909180	9130.341797
3539.136719	9047.977539
3538.364258	9117.708984
3537.591797	9045.078125
3536.818359	8920.718750
3536.045898	9155.369141
3535.272461	9050.431641
3534.499023	8974.625000
3533.725586	9138.040039
3532.952148	9139.807617
3532.178711	9038.170898
3531.404297	9039.953125
3530.630859	8902.831055
3529.856445	9043.516602
3529.082031	9109.882813
3528.308594	9040.619141
3527.534180	9103.736328
3526.759766	9005.444336
3525.984375	8878.139648
3525.209961	8825.089844
3524.434570	8894.652344
3523.660156	8841.616211
3522.884766	9191.743164
3522.109375	9106.429688
3521.333984	8963.108398
3520.558594	9093.840820
3519.783203	8882.881836
3519.006836	8823.452148
3518.231445	9147.467773
3517.455078	8959.151367
3516.678711	8996.369141
3515.902344	9081.881836
3515.125977	8838.925781
3514.349609	8847.167969
3513.573242	8913.348633
3512.796875	8905.483398
3512.019531	9019.903320
3511.242188	8992.718750
3510.465820	8904.420898
3509.688477	9063.814453
3508.911133	8943.374023
3508.132813	8822.972656
3507.355469	8808.699219
3506.578125	8923.003906
3505.799805	8924.788086
3505.021484	8759.479492
3504.244141	9085.781250
3503.465820	8987.957031
3502.687500	8986.516602
3501.908203	8972.231445
3501.129883	9086.380859
3500.351563	8917.993164
3499.572266	9093.097656
3498.792969	9088.431641
3498.014648	8827.072266
3497.235352	9008.523438
3496.455078	8946.134766
3495.675781	8963.944336
3494.896484	8856.689453
3494.116211	9057.254883
3493.336914	8994.897461
3492.556641	9012.686523
3491.776367	8931.127930
3490.996094	9019.410156
3490.215820	8921.859375
3489.435547	9067.768555
3488.655273	8829.330078
3487.874023	8984.812500
3487.092773	8781.679688
3486.312500	8892.306641
3485.531250	8778.865234
3484.750000	9084.653320
3483.968750	8881.633789
3483.186523	8992.172852
3482.405273	8997.127930
3481.623047	8992.489258
3480.841797	8952.678711
3480.059570	8880.913086
3479.277344	8903.444336
3478.495117	8925.974609
3477.712891	8948.505859
3476.930664	8971.037109
3476.147461	8993.567383
3475.365234	9016.098633
3474.582031	9017.847656
3473.798828	8974.896484
3473.015625	8992.611328
3472.232422	9195.442383
3471.449219	8862.080078
3470.666016	8997.861328
3469.881836	9114.458008
3469.098633	8873.768555
3468.314453	8901.049805
3467.530273	9151.529297
3466.746094	9143.686523
3465.961914	9049.779297
3465.177734	9006.895508
3464.392578	9043.692383
3463.608398	8991.264648
3462.823242	9082.207031
3462.039063	8994.752930
3461.253906	9050.634766
3460.468750	8762.616211
3459.683594	9146.424805
3458.897461	8852.116211
3458.112305	8802.959961
3457.326172	9059.294922
3456.541016	9003.756836
3455.754883	9120.011719
3454.968750	9023.134766
3454.182617	8977.168945
3453.396484	8864.447266
3452.610352	8840.773438
3451.823242	8950.603516
3451.037109	9015.906250
3450.250000	8801.571289
3449.462891	8968.540039
3448.675781	8779.692383
3447.888672	9191.156250
3447.101563	9069.017578
3446.314453	8867.543945
3445.526367	9142.295898
3444.739258	9042.440430
3443.951172	8961.656250
3443.163086	9131.555664
3442.375000	9041.265625
3441.586914	8903.425781
3440.798828	9162.050781
3440.009766	9087.652344
3439.221680	9114.729492
3438.432617	8926.248047
3437.644531	9013.558594
3436.855469	9043.801758
3436.066406	8991.659180
3435.277344	9101.091797
3434.487305	9159.811523
3433.698242	8936.667969
3432.908203	9039.722656
3432.119141	8924.306641
3431.329102	8979.850586
3430.539063	8949.928711
3429.749023	8768.131836
3428.958984	9124.229492
3428.168945	8977.257813
3427.377930	9001.121094
3426.587891	8936.433594
3425.796875	9017.193359
3425.005859	9097.952148
3424.214844	9055.404297
3423.423828	8889.623047
3422.632813	8998.787109
3421.840820	8968.912109
3421.049805	8787.429688
3420.257813	8738.648438
3419.466797	8948.811523
3418.674805	8877.919922
3417.882813	8939.628906
3417.090820	9080.222656
3416.297852	8952.541992
3415.505859	8903.780273
3414.713867	8889.734375
3413.920898	8869.384766
3413.127930	8886.883789
3412.334961	9055.727539
3411.541992	9060.581055
3410.749023	8955.109375
3409.956055	8852.823242
3409.162109	9157.059570
3408.369141	8966.556641
3407.575195	8829.666016
3406.781250	8951.083984
3405.987305	8949.648438
3405.193359	8891.540039
3404.399414	8773.636719
3403.605469	8904.426758
3402.810547	8940.763672
3402.016602	8766.270508
3401.221680	8730.258789
3400.426758	8864.117188
3399.631836	8982.208008
3398.836914	8722.916992
3398.041992	9032.776367
3397.247070	8874.152344
3396.451172	8731.293945
3395.655273	9125.850586
3394.860352	8662.512695
3394.064453	8683.114258
3393.268555	8750.824219
3392.472656	8818.511719
3391.675781	8879.898438
3390.879883	8909.869141
3390.083008	8726.379883
3389.287109	8655.934570
3388.490234	8908.722656
3387.693359	8910.431641
3386.896484	8852.538086
3386.099609	8904.438477
3385.301758	8840.291016
3384.504883	8848.280273
3383.707031	8843.726563
3382.909180	8892.459961
3382.112305	8887.900391
3381.314453	8952.278320
3380.515625	8681.409180
3379.717773	8886.758789
3378.919922	8854.014648
3378.121094	8877.646484
3377.323242	8807.341797
3376.524414	8887.321289
3375.725586	8957.884766
3374.926758	8956.448242
3374.127930	8914.335938
3373.328125	8734.585938
3372.529297	9083.513672
3371.729492	8863.137695
3370.930664	8796.050781
3370.130859	9013.490234
3369.331055	8699.452148
3368.531250	8991.847656
3367.731445	8781.036133
3366.930664	8807.747070
3366.130859	9037.504883
3365.330078	8911.119141
3364.529297	8653.611328
3363.729492	8873.915039
3362.928711	8888.101563
3362.126953	8939.740234
3361.326172	8903.976563
3360.525391	8908.790039
3359.723633	8791.923828
3358.922852	9108.695313
3358.121094	8814.055664
3357.319336	8952.971680
3356.517578	8748.871094
3355.715820	8644.593750
3354.913086	8767.883789
3354.111328	8838.155273
3353.308594	8864.781250
3352.506836	8801.050781
3351.704102	8918.006836
3350.901367	8863.630859
3350.098633	8737.653320
3349.294922	8985.325195
3348.492188	8865.593750
3347.688477	8727.224609
3346.885742	8965.443359
3346.082031	8892.442383
3345.278320	8934.569336
3344.474609	8718.517578
3343.670898	8878.834961
3342.867188	8669.080078
3342.062500	9018.998047
3341.258789	8939.840820
3340.454102	8764.363281
3339.649414	8961.833008
3338.844727	8873.401367
3338.040039	9098.748047
3337.235352	8985.474609
3336.429688	8897.081055
3335.625000	8852.185547
3334.819336	8773.154297
3334.014648	8895.905273
3333.208984	9062.064453
3332.403320	8874.433594
3331.596680	8851.292969
3330.791016	8846.771484
3329.985352	8643.757813
3329.178711	8648.573242
3328.373047	8951.031250
3327.566406	8903.095703
3326.759766	8734.296875
3325.953125	8968.417969
3325.145508	8997.963867
3324.338867	8878.796875
3323.532227	8840.203125
3322.724609	8990.537109
3321.916992	9063.411133
3321.109375	8907.157227
3320.301758	8930.493164
3319.494141	8814.544922
3318.686523	8946.194336
3317.878906	8635.359375
3317.070313	8859.799805
3316.261719	8796.518555
3315.454102	8974.473633
3314.645508	8719.488281
3313.836914	8844.841797
3313.027344	8827.967773
3312.218750	8891.452148
3311.410156	9069.248047
3310.600586	8629.079102
3309.791016	8961.311523
3308.981445	8783.826172
3308.171875	8973.875977
3307.362305	8774.833008
3306.552734	8751.815430
3305.743164	8932.519531
3304.932617	8924.914063
3304.122070	8840.171875
3303.312500	8894.284180
3302.501953	8837.334961
3301.691406	8900.683594
3300.879883	8754.326172
3300.069336	8802.250977
3299.258789	8967.299805
3298.447266	8833.330078
3297.635742	8841.157227
3296.824219	8827.415039
3296.012695	8893.772461
3295.201172	9046.351563
3294.389648	8712.298828
3293.578125	8821.750977
3292.765625	8943.481445
3291.953125	8815.841797
3291.141602	8731.330078
3290.329102	8733.006836
3289.516602	8879.285156
3288.703125	8840.946289
3287.890625	8879.511719
3287.078125	8745.853516
3286.264648	8701.404297
3285.451172	8558.594727
3284.637695	8892.255859
3283.824219	8786.339844
3283.010742	8815.657227
3282.197266	8955.565430
3281.383789	8825.115234
3280.569336	8980.333008
3279.754883	8720.948242
3278.940430	8839.289063
3278.126953	8647.544922
3277.311523	8854.868164
3276.497070	8785.933594
3275.682617	8858.162109
3274.867188	8921.165039
3274.052734	8922.800781
3273.237305	8878.432617
3272.421875	8785.018555
3271.606445	8774.411133
3270.791016	8647.324219
3269.975586	8630.612305
3269.159180	8889.697266
3268.343750	8658.480469
3267.527344	8748.992188
3266.710938	8695.518555
3265.894531	8764.558594
3265.078125	8919.308594
3264.261719	8829.095703
3263.445313	8735.851563
3262.627930	8755.872070
3261.811523	8806.486328
3260.994141	8792.834961
3260.176758	8910.722656
3259.359375	8921.526367
3258.541992	8785.542969
3257.724609	8741.328125
3256.906250	8834.692383
3256.088867	8958.590820
3255.270508	8743.232422
3254.452148	8857.938477
3253.633789	8688.490234
3252.815430	8735.967773
3251.997070	8844.510742
3251.177734	8919.430664
3250.359375	8795.875977
3249.540039	8644.887695
3248.720703	8857.146484
3247.902344	8877.084961
3247.083008	8961.090820
3246.262695	8907.791992
3245.443359	8824.008789
3244.624023	8831.741211
3243.803711	8793.733398
3242.983398	8798.419922
3242.163086	8766.525391
3241.342773	8798.642578
3240.522461	8797.229492
3239.702148	8987.759766
3238.881836	8636.002930
3238.060547	8869.136719
3237.240234	8791.582031
3236.418945	9079.420898
3235.597656	8800.936523
3234.776367	8866.486328
3233.955078	8986.793945
3233.132813	9000.564453
3232.311523	8792.243164
3231.489258	8669.159180
3230.666992	8932.362305
3229.845703	8927.887695
3229.022461	8996.381836
3228.200195	8849.024414
3227.377930	8960.060547
3226.555664	9004.205078
3225.732422	9011.874023
3224.909180	8955.745117
3224.086914	8987.718750
3223.263672	8913.388672
3222.440430	8911.958008
3221.616211	8949.994141
3220.792969	8884.812500
3219.968750	8959.259766
3219.145508	8881.958984
3218.321289	8710.628906
3217.497070	8927.642578
3216.672852	8795.789063
3215.848633	8897.483398
3215.024414	8735.355469
3214.199219	8788.520508
3213.375000	9111.435547
3212.549805	9055.420898
3211.724609	9072.147461
3210.899414	8991.920898
3210.074219	8954.126953
3209.249023	9179.837891
3208.422852	8939.138672
3207.597656	8704.572266
3206.771484	9057.355469
3205.945313	9007.473633
3205.119141	8993.921875
3204.292969	9013.657227
3203.466797	8918.426758
3202.640625	9016.811523
3201.813477	9118.189453
3200.987305	9201.390625
3200.160156	9057.817383
3199.333008	9077.522461
3198.505859	9073.041992
3197.678711	9261.960938
3196.850586	9073.149414
3196.023438	9041.483398
3195.195313	8819.541992
3194.368164	9074.817383
3193.540039	9082.417969
3192.711914	9053.789063
3191.883789	9001.020508
3191.055664	9286.282227
3190.226563	9182.196289
3189.398438	8951.428711
3188.569336	9034.453125
3187.740234	9186.819336
3186.911133	9001.395508
3186.082031	9195.928711
3185.252930	8908.066406
3184.423828	8966.917969
3183.593750	8953.422852
3182.763672	9060.457031
3181.934570	9022.849609
3181.104492	9114.776367
3180.274414	9137.406250
3179.444336	9048.613281
3178.613281	9065.223633
3177.783203	9033.665039
3176.952148	9059.301758
3176.122070	9018.725586
3175.291016	9032.321289
3174.459961	9015.828125
3173.628906	9161.761719
3172.796875	9118.187500
3171.965820	9011.483398
3171.133789	9061.143555
3170.302734	9273.104492
3169.470703	9271.614258
3168.638672	9264.114258
3167.806641	9121.418945
3166.974609	9083.905273
3166.141602	9079.442383
3165.309570	9111.016602
3164.476563	9274.689453
3163.644531	9012.024414
3162.811523	9085.614258
3161.978516	9294.227539
3161.144531	9169.710938
3160.311523	9096.235352
3159.478516	9121.770508
3158.644531	9276.257813
3157.810547	9127.834961
3156.977539	9132.364258
3156.143555	9322.747070
3155.308594	9102.454102
3154.474609	9214.866211
3153.640625	9144.472656
3152.805664	9086.083984
3151.970703	9219.410156
3151.136719	9062.200195
3150.301758	9165.543945
3149.466797	9026.355469
3148.630859	9090.757813
3147.795898	9020.461914
3146.959961	9165.637695
3146.125000	9212.035156
3145.289063	9028.078125
3144.453125	9235.992188
3143.617188	9150.775391
3142.781250	9044.655273
3141.945313	9102.992188
3141.108398	9268.913086
3140.271484	9141.905273
3139.435547	9140.435547
3138.598633	9031.414063
3137.761719	9101.652344
3136.924805	9067.336914
3136.086914	9122.615234
3135.250000	9183.847656
3134.412109	9197.296875
3133.575195	9007.783203
3132.737305	9071.988281
3131.899414	8936.261719
3131.061523	9236.133789
3130.222656	9174.993164
3129.384766	9197.376953
3128.545898	9392.697266
3127.708008	9075.166992
3126.869141	9103.516602
3126.030273	9143.778320
3125.191406	8993.313477
3124.352539	9307.685547
3123.512695	9088.726563
3122.673828	8741.764648
3121.833984	8987.531250
3120.994141	8997.996094
3120.154297	8984.641602
3119.314453	8947.478516
3118.474609	9094.842773
3117.634766	9200.501953
3116.793945	9145.470703
3115.954102	9245.136719
3115.113281	9154.425781
3114.272461	9105.375000
3113.431641	9050.393555
3112.590820	9158.928711
3111.750000	8991.010742
3110.908203	9230.277344
3110.067383	9080.229492
3109.225586	9304.550781
3108.383789	9181.270508
3107.541992	9108.518555
3106.700195	9112.992188
3105.858398	9164.966797
3105.015625	9006.166992
3104.173828	9081.884766
3103.331055	9282.211914
3102.488281	9156.105469
3101.645508	9012.241211
3100.802734	9120.534180
3099.959961	9021.205078
3099.116211	9135.391602
3098.273438	9119.099609
3097.429688	9052.421875
3096.585938	9101.348633
3095.743164	9239.153320
3094.898438	9113.234375
3094.054688	9171.012695
3093.210938	9048.106445
3092.366211	9307.242188
3091.522461	9116.254883
3090.677734	9218.399414
3089.833008	9249.474609
3088.988281	9129.613281
3088.143555	9240.582031
3087.297852	9070.466797
3086.453125	8915.195313
3085.607422	9159.229492
3084.762695	9086.789063
3083.916992	9043.935547
3083.071289	9284.875000
3082.225586	9259.737305
3081.378906	9317.348633
3080.533203	9150.392578
3079.686523	9166.645508
3078.839844	9165.170898
3077.994141	9402.903320
3077.147461	9061.830078
3076.299805	9246.362305
3075.453125	9168.129883
3074.606445	9240.436523
3073.758789	9247.801758
3072.912109	9281.717773
3072.064453	9253.675781
3071.216797	9084.073242
3070.369141	9153.384766
3069.520508	9190.242188
3068.672852	9206.451172
3067.824219	9184.336914
3066.976563	9477.559570
3066.127930	9134.237305
3065.279297	9076.792969
3064.430664	9249.121094
3063.582031	9044.420898
3062.732422	9057.688477
3061.883789	9135.723633
3061.034180	9034.167969
3060.184570	9424.161133
3059.334961	9163.683594
3058.485352	9029.807617
3057.635742	9048.946289
3056.786133	8962.192383
3055.935547	9157.786133
3055.084961	9059.280273
3054.235352	9231.276367
3053.384766	9079.879883
3052.534180	9125.442383
3051.683594	9044.634766
3050.832031	9366.359375
3049.981445	9123.974609
3049.129883	9081.386719
3048.278320	9212.072266
3047.426758	9187.100586
3046.575195	9159.201172
3045.723633	9239.911133
3044.872070	9217.880859
3044.019531	9178.252930
3043.167969	9349.867188
3042.315430	9104.899414
3041.462891	9115.165039
3040.610352	9148.885742
3039.757813	8986.161133
3038.905273	9154.735352
3038.051758	9203.086914
3037.199219	9104.900391
3036.345703	9220.633789
3035.492188	9169.348633
3034.638672	9147.369141
3033.785156	9204.467773
3032.931641	9129.783203
3032.077148	9274.694336
3031.223633	9317.108398
3030.369141	9084.401367
3029.514648	9226.323242
3028.660156	9195.580078
3027.805664	8939.601563
3026.951172	9142.897461
3026.095703	9275.944336
3025.241211	9113.639648
3024.385742	9182.333008
3023.530273	9031.786133
3022.674805	9378.102539
3021.819336	9332.762695
3020.963867	9100.461914
3020.107422	9081.470703
3019.251953	9097.531250
3018.395508	9253.750977
3017.539063	9123.797852
3016.682617	9163.196289
3015.826172	9208.419922
3014.969727	9352.847656
3014.113281	9144.181641
3013.255859	9358.586914
3012.398438	9176.238281
3011.541992	9206.840820
3010.684570	9196.610352
3009.827148	9250.521484
3008.968750	9106.201172
3008.111328	9291.258789
3007.252930	9149.891602
3006.395508	9165.899414
3005.537109	9120.727539
3004.678711	9264.886719
3003.820313	9376.966797
3002.961914	9063.911133
3002.102539	9181.809570
3001.244141	9343.329102
3000.384766	9152.660156
2999.525391	9328.680664
2998.666016	9222.443359
2997.806641	9130.785156
2996.947266	9216.564453
2996.087891	9095.856445
2995.227539	9347.336914
2994.367188	9119.088867
2993.507813	9242.598633
2992.647461	9337.007813
2991.787109	9216.376953
2990.925781	9130.644531
2990.065430	9082.700195
2989.205078	9139.320313
2988.343750	9126.232422
2987.482422	9380.244141
2986.621094	9332.289063
2985.759766	9156.649414
2984.898438	9216.112305
2984.037109	9234.936523
2983.174805	9262.458008
2982.312500	9321.874023
2981.451172	9346.470703
2980.588867	9313.071289
2979.726563	9175.317383
2978.864258	9136.158203
2978.000977	9349.142578
2977.138672	9081.057617
2976.275391	9308.467773
2975.412109	9422.833984
2974.548828	9204.101563
2973.685547	9023.083008
2972.822266	9227.192383
2971.958984	9353.076172
2971.094727	9209.747070
2970.231445	9260.352539
2969.367188	9519.265625
2968.502930	9193.723633
2967.638672	9186.457031
2966.774414	9315.116211
2965.909180	9469.757813
2965.044922	9265.857422
2964.179688	9290.378906
2963.314453	9358.245117
2962.450195	9348.067383
2961.583984	9288.776367
2960.718750	9376.830078
2959.853516	9164.475586
2958.987305	9362.256836
2958.122070	9256.803711
2957.255859	9350.578125
2956.389648	9412.572266
2955.523438	9324.476563
2954.657227	9305.660156
2953.791016	9263.770508
2952.923828	9106.511719
2952.056641	9240.595703
2951.190430	9270.825195
2950.323242	9448.086914
2949.456055	9215.948242
2948.587891	9055.940430
2947.720703	9380.119141
2946.853516	9516.909180
2945.985352	9423.188477
2945.117188	9127.872070
2944.249023	9391.350586
2943.380859	9484.858398
2942.512695	9391.202148
2941.644531	9499.071289
2940.775391	9192.466797
2939.907227	9432.701172
2939.038086	9336.235352
2938.168945	9544.725586
2937.299805	9482.787109
2936.430664	9530.145508
2935.560547	9502.731445
2934.691406	9509.823242
2933.821289	9436.431641
2932.951172	9365.936523
2932.081055	9513.843750
2931.210938	9268.109375
2930.340820	9370.024414
2929.470703	9578.169922
2928.599609	9433.047852
2927.729492	9552.112305
2926.858398	9378.333984
2925.987305	9554.771484
2925.116211	9470.009766
2924.244141	9342.235352
2923.373047	9487.036133
2922.501953	9505.584961
2921.629883	9529.862305
2920.757813	9668.827148
2919.885742	9478.050781
2919.013672	9542.450195
2918.141602	9626.891602
2917.269531	9507.851563
2916.396484	9423.230469
2915.523438	9519.107422
2914.651367	9434.511719
2913.778320	9607.674805
2912.904297	9697.748047
2912.031250	9401.318359
2911.158203	9459.910156
2910.284180	9758.877930
2909.411133	9594.205078
2908.537109	9518.273438
2907.663086	9676.922852
2906.789063	9546.662109
2905.915039	9502.228516
2905.040039	9535.004883
2904.166016	9504.879883
2903.291016	9669.119141
2902.416016	9616.121094
2901.541016	9494.566406
2900.666016	9575.879883
2899.791016	9525.778320
2898.915039	9455.700195
2898.040039	9576.956055
2897.164063	9469.779297
2896.288086	9576.720703
2895.412109	9772.101563
2894.536133	9513.706055
2893.660156	9429.430664
2892.783203	9579.098633
2891.907227	9594.665039
2891.030273	9518.972656
2890.153320	9537.395508
2889.276367	9612.827148
2888.399414	9545.718750
2887.522461	9552.727539
2886.644531	9582.529297
2885.767578	9612.321289
2884.889648	9662.041992
2884.011719	9555.106445
2883.133789	9607.667969
2882.255859	9563.410156
2881.377930	9388.221680
2880.499023	9551.785156
2879.621094	9444.951172
2878.742188	9602.761719
2877.863281	9581.297852
2876.984375	9434.689453
2876.105469	9316.567383
2875.226563	9676.178711
2874.346680	9472.765625
2873.466797	9405.859375
2872.587891	9688.545898
2871.708008	9502.278320
2870.828125	9500.744141
2869.948242	9487.847656
2869.067383	9477.794922
2868.187500	9632.451172
2867.306641	9372.520508
2866.425781	9498.754883
2865.544922	9562.503906
2864.664063	9515.553711
2863.783203	9431.730469
2862.902344	9606.101563
2862.020508	9638.589844
2861.139648	9475.375977
2860.257813	9476.681641
2859.375977	9543.195313
2858.494141	9448.109375
2857.612305	9494.765625
2856.729492	9561.243164
2855.847656	9454.866211
2854.964844	9558.156250
2854.082031	9508.460938
2853.199219	9351.166992
2852.316406	9525.210938
2851.433594	9390.613281
2850.549805	9550.440430
2849.666992	9761.158203
2848.783203	9465.294922
2847.899414	9712.738281
2847.015625	9368.888672
2846.131836	9565.357422
2845.248047	9481.803711
2844.363281	9624.469727
2843.479492	9441.991211
2842.594727	9556.351563
2841.709961	9676.327148
2840.825195	9558.916016
2839.940430	9393.515625
2839.055664	9521.932617
2838.169922	9421.546875
2837.285156	9425.671875
2836.399414	9384.624023
2835.513672	9719.025391
2834.627930	9703.342773
2833.742188	9464.733398
2832.856445	9466.026367
2831.969727	9458.854492
2831.083984	9581.430664
2830.197266	9354.275391
2829.310547	9679.842773
2828.423828	9458.381836
2827.537109	9552.690430
2826.649414	9545.510742
2825.762695	9631.320313
2824.875000	9550.877930
2823.987305	9490.179688
2823.099609	9511.177734
2822.211914	9453.321289
2821.324219	9575.677734
2820.436523	9700.809570
2819.547852	9654.207031
2818.659180	9435.955078
2817.771484	9724.244141
2816.882813	9733.925781
2815.993164	9673.283203
2815.104492	9576.099609
2814.215820	9619.542969
2813.326172	9665.782227
2812.437500	9664.220703
2811.547852	9659.847656
2810.658203	9694.818359
2809.768555	9797.207031
2808.877930	9728.203125
2807.988281	9673.265625
2807.097656	9938.488281
2806.207031	9653.291016
2805.317383	9696.648438
2804.426758	9610.874023
2803.535156	9679.482422
2802.644531	9863.113281
2801.753906	9589.380859
2800.862305	9697.229492
2799.970703	9605.913086
2799.079102	9677.268555
2798.187500	9737.386719
2797.295898	9850.747070
2796.404297	9706.209961
2795.511719	9875.585938
2794.619141	9787.129883
2793.727539	9841.577148
2792.834961	9898.806641
2791.942383	9619.950195
2791.048828	9884.405273
2790.156250	9969.596680
2789.262695	9816.827148
2788.370117	9820.837891
2787.476563	9844.434570
2786.583008	9985.533203
2785.689453	9804.884766
2784.794922	9764.141602
2783.901367	9782.138672
2783.006836	9816.905273
2782.113281	10016.599609
2781.218750	9919.945313
2780.324219	9884.804688
2779.429688	9886.000000
2778.534180	9836.907227
2777.639648	9776.656250
2776.744141	9909.132813
2775.848633	9804.210938
2774.954102	9808.208984
2774.058594	10024.361328
2773.162109	9877.603516
2772.266602	9887.168945
2771.370117	9829.765625
2770.474609	9967.662109
2769.578125	10072.041992
2768.681641	9850.095703
2767.785156	9926.576172
2766.888672	9749.332031
2765.991211	9979.114258
2765.094727	9843.723633
2764.197266	9978.672852
2763.299805	9974.271484
2762.402344	9942.015625
2761.504883	10001.681641
2760.607422	9816.269531
2759.708984	9848.093750
2758.811523	9838.148438
2757.913086	9984.077148
2757.014648	9890.624023
2756.116211	9894.588867
2755.217773	9923.589844
2754.319336	10038.811523
2753.419922	10187.370117
2752.520508	10027.220703
2751.622070	9789.277344
2750.722656	9829.389648
2749.823242	9986.222656
2748.922852	9840.103516
2748.023438	10058.008789
2747.124023	9920.258789
2746.223633	9907.542969
2745.323242	9980.920898
2744.422852	9979.305664
2743.522461	9822.223633
2742.622070	10117.639648
2741.720703	9799.617188
2740.820313	9817.455078
2739.918945	9860.255859
2739.017578	9944.653320
2738.116211	10042.889648
2737.214844	9872.107422
2736.313477	9909.325195
2735.411133	10085.140625
2734.509766	10039.160156
2733.607422	10112.359375
2732.705078	9972.180664
2731.802734	9973.336914
2730.900391	10143.458008
2729.997070	9898.101563
2729.094727	9702.666992
2728.191406	9961.342773
2727.288086	10017.860352
2726.384766	9769.915039
2725.481445	9989.711914
2724.578125	9921.691406
2723.673828	9922.851563
2722.770508	9984.860352
2721.866211	9883.687500
2720.961914	9918.032227
2720.057617	10057.417969
2719.153320	9945.225586
2718.249023	9965.723633
2717.343750	10121.612305
2716.439453	9926.581055
2715.534180	10035.465820
2714.628906	9962.032227
2713.723633	9822.347656
2712.818359	9980.892578
2711.912109	9893.700195
2711.006836	10074.262695
2710.100586	10020.198242
2709.194336	9872.338867
2708.289063	9936.949219
2707.381836	9960.164063
2706.475586	9831.690430
2705.569336	10069.991211
2704.662109	9789.908203
2703.754883	9854.478516
2702.848633	10018.245117
2701.941406	9878.841797
2701.033203	9891.017578
2700.125977	9839.830078
2699.218750	9807.939453
2698.310547	9869.688477
2697.402344	9903.882813
2696.494141	10064.701172
2695.585938	10085.090820
2694.677734	10031.167969
2693.769531	9946.995117
2692.860352	10110.452148
2691.951172	10045.547852
2691.042969	9914.658203
2690.133789	9943.299805
2689.224609	9848.209961
2688.314453	9791.635742
2687.405273	9996.184570
2686.495117	9950.595703
2685.585938	9987.450195
2684.675781	9821.002930
2683.765625	10061.120117
2682.854492	9916.685547
2681.944336	9961.756836
2681.034180	9921.707031
2680.123047	10002.446289
2679.211914	9934.958008
2678.300781	9944.324219
2677.389648	10110.070313
2676.478516	10050.826172
2675.567383	9942.231445
2674.655273	9765.117188
2673.743164	10084.324219
2672.831055	10211.533203
2671.918945	10124.909180
2671.006836	10142.451172
2670.094727	10094.227539
2669.182617	10048.757813
2668.269531	10014.258789
2667.356445	10020.851563
2666.443359	10052.085938
2665.530273	10107.950195
2664.617188	10092.624023
2663.704102	10025.302734
2662.790039	10124.925781
2661.875977	9956.386719
2660.962891	10053.253906
2660.048828	9939.483398
2659.134766	10011.708008
2658.219727	10092.112305
2657.305664	10164.288086
2656.390625	10105.239258
2655.476563	10059.874023
2654.561523	10044.580078
2653.646484	10253.318359
2652.730469	9959.375000
2651.815430	10124.360352
2650.900391	10144.563477
2649.984375	10334.037109
2649.068359	10015.702148
2648.152344	10090.500000
2647.236328	10034.284180
2646.320313	10111.783203
2645.404297	10033.757813
2644.487305	10157.600586
2643.570313	10172.315430
2642.653320	10124.311523
2641.736328	10239.899414
2640.819336	9897.508789
2639.902344	9958.586914
2638.984375	10270.340820
2638.067383	10023.468750
2637.149414	10128.082031
2636.231445	10142.780273
2635.313477	10100.287109
2634.395508	10027.857422
2633.476563	10102.454102
2632.558594	10206.967773
2631.639648	10099.176758
2630.720703	10168.283203
2629.801758	10125.825195
2628.882813	10173.144531
2627.963867	10011.034180
2627.044922	10183.439453
2626.125000	10089.348633
2625.205078	10093.148438
2624.285156	10134.996094
2623.365234	10244.766602
2622.445313	10123.555664
2621.525391	10007.817383
2620.604492	10036.070313
2619.683594	10121.343750
2618.763672	10119.701172
2617.842773	10286.375977
2616.920898	10051.271484
2616.000000	10090.349609
2615.079102	10286.795898
2614.157227	10133.195313
2613.235352	10120.700195
2612.314453	10132.618164
2611.391602	10136.397461
2610.469727	10262.181641
2609.547852	10330.998047
2608.625000	10150.434570
2607.703125	10205.695313
2606.780273	10157.977539
2605.857422	10099.437500
2604.934570	10119.466797
2604.011719	10467.181641
2603.087891	10395.080078
2602.165039	10182.221680
2601.241211	10329.447266
2600.317383	10379.192383
2599.393555	10320.680664
2598.469727	10291.949219
2597.544922	10401.188477
2596.621094	10356.224609
2595.696289	10227.443359
2594.771484	10263.635742
2593.846680	10210.605469
2592.921875	10246.788086
2591.997070	10112.702148
2591.072266	10251.566406
2590.146484	10152.643555
2589.220703	10086.166992
2588.294922	10530.149414
2587.369141	10180.101563
2586.443359	10326.939453
2585.517578	10263.175781
2584.590820	10194.034180
2583.665039	10354.291016
2582.738281	10371.496094
2581.811523	10207.951172
2580.884766	10182.018555
2579.957031	10458.132813
2579.030273	10343.187500
2578.102539	10414.296875
2577.175781	10347.914063
2576.248047	10332.757813
2575.320313	10317.606445
2574.391602	10315.929688
2573.463867	10214.585938
2572.536133	10584.599609
2571.607422	10391.687500
2570.678711	10276.917969
2569.750000	10234.869141
2568.821289	10386.623047
2567.892578	10371.480469
2566.962891	10310.600586
2566.034180	10389.631836
2565.104492	10277.662109
2564.174805	10456.178711
2563.245117	10381.878906
2562.315430	10425.895508
2561.384766	10545.163086
2560.455078	10417.131836
2559.524414	10372.444336
2558.593750	10397.625977
2557.663086	10519.504883
2556.732422	10512.423828
2555.801758	10405.983398
2554.870117	10449.937500
2553.939453	10343.541016
2553.007813	10438.488281
2552.076172	10240.882813
2551.144531	10279.466797
2550.212891	10379.742188
2549.280273	10386.102539
2548.348633	10464.871094
2547.416016	10570.429688
2546.483398	10453.425781
2545.550781	10368.626953
2544.618164	10624.239258
2543.685547	10346.498047
2542.751953	10331.418945
2541.819336	10281.519531
2540.885742	10311.989258
2539.952148	10454.924805
2539.018555	10463.935547
2538.084961	10539.870117
2537.150391	10495.329102
2536.216797	10501.651367
2535.282227	10489.240234
2534.347656	10747.047852
2533.413086	10480.479492
2532.478516	10559.010742
2531.543945	10527.877930
2530.608398	10568.944336
2529.673828	10682.173828
2528.738281	10319.611328
2527.802734	10459.567383
2526.867188	10484.584961
2525.930664	10546.995117
2524.995117	10547.950195
2524.058594	10634.365234
2523.123047	10653.997070
2522.186523	10521.446289
2521.250000	10714.593750
2520.312500	10624.778320
2519.375977	10583.023438
2518.439453	10543.949219
2517.501953	10590.250977
2516.564453	10649.872070
2515.626953	10538.804688
2514.689453	10667.737305
2513.751953	10410.081055
2512.813477	10467.026367
2511.875977	10694.509766
2510.937500	10751.389648
2509.999023	10453.925781
2509.060547	10705.272461
2508.122070	10594.337891
2507.182617	10635.218750
2506.244141	10465.758789
2505.304688	10551.899414
2504.365234	10568.813477
2503.425781	10551.126953
2502.486328	10597.300781
2501.546875	10592.917969
2500.606445	10588.535156
2499.666016	10584.153320
2498.726563	10579.770508
2497.786133	10575.387695
2496.845703	10549.744141
2495.904297	10773.922852
2494.963867	10447.994141
2494.022461	10448.950195
2493.081055	10635.847656
2492.140625	10596.933594
2491.199219	10555.376953
2490.256836	10468.698242
2489.315430	10692.632813
2488.373047	10404.245117
2487.431641	10381.321289
2486.489258	10517.601563
2485.546875	10672.407227
2484.604492	10800.637695
2483.661133	10560.201172
2482.718750	10436.509766
2481.775391	10660.156250
2480.833008	10653.118164
2479.889648	10312.151367
2478.945313	10612.551758
2478.001953	10549.887695
2477.058594	10858.098633
2476.114258	10464.347656
2475.169922	10610.936523
2474.226563	10466.234375
2473.282227	10710.722656
2472.336914	10460.178711
2471.392578	10585.500977
2470.447266	10536.150391
2469.502930	10542.370117
2468.557617	10688.778320
2467.612305	10628.854492
2466.666992	10534.575195
2465.721680	10598.954102
2464.775391	10650.094727
2463.829102	10497.712891
2462.883789	10498.645508
2461.937500	10512.787109
2460.991211	10495.224609
2460.043945	10651.987305
2459.097656	10668.737305
2458.150391	10577.227539
2457.204102	10496.306641
2456.256836	10460.283203
2455.309570	10543.028320
2454.362305	10641.578125
2453.414063	10444.618164
2452.466797	10624.921875
2451.518555	10322.534180
2450.570313	10421.054688
2449.622070	10495.814453
2448.673828	10575.821289
2447.725586	10328.985352
2446.776367	10685.687500
2445.828125	10386.218750
2444.878906	10547.854492
2443.929688	10409.171875
2442.980469	10404.841797
2442.030273	10537.431641
2441.081055	10572.570313
2440.130859	10515.571289
2439.181641	10553.333008
2438.231445	10535.825195
2437.281250	10505.167969
2436.331055	10640.239258
2435.379883	10580.644531
2434.429688	10676.214844
2433.478516	10387.893555
2432.527344	10635.931641
2431.576172	10494.896484
2430.625000	10390.697266
2429.673828	10536.141602
2428.721680	10395.190430
2427.770508	10398.749023
2426.818359	10428.567383
2425.866211	10382.229492
2424.914063	10427.791992
2423.960938	10405.092773
2423.008789	10390.273438
2422.055664	10349.218750
2421.103516	10473.463867
2420.150391	10427.162109
2419.197266	10433.330078
2418.243164	10515.542969
2417.290039	10314.563477
2416.335938	10331.231445
2415.382813	10211.598633
2414.428711	10280.690430
2413.474609	10375.959961
2412.520508	10492.157227
2411.565430	10343.762695
2410.611328	10431.118164
2409.656250	10324.677734
2408.701172	10438.187500
2407.746094	10405.073242
2406.791016	10217.554688
2405.835938	10218.504883
2404.879883	10198.523438
2403.923828	10238.713867
2402.968750	10268.429688
2402.013672	10366.125977
2401.056641	10210.170898
2400.099609	10388.885742
2399.144531	10512.652344
2398.187500	10424.696289
2397.230469	10334.155273
2396.273438	10358.594727
2395.316406	10158.385742
2394.359375	10266.416992
2393.402344	10079.344727
2392.443359	10289.174805
2391.486328	10324.041016
2390.529297	10217.958008
2389.570313	10380.690430
2388.613281	10287.677734
2387.654297	10257.302734
2386.695313	10206.072266
2385.736328	10329.582031
2384.777344	10171.452148
2383.818359	10354.886719
2382.859375	10058.656250
2381.900391	10312.414063
2380.941406	10117.909180
2379.982422	10139.705078
2379.021484	10200.565430
2378.062500	10204.109375
2377.101563	10173.799805
2376.142578	10219.002930
2375.181641	10134.033203
2374.220703	10181.830078
2373.259766	10120.315430
2372.298828	9972.958008
2371.337891	10325.125977
2370.376953	9995.711914
2369.416016	10235.934570
2368.455078	10216.061523
2367.492188	10094.805664
2366.531250	10186.732422
2365.568359	10036.931641
2364.607422	10243.169922
2363.644531	10212.917969
2362.681641	10083.966797
2361.718750	10227.762695
2360.757813	10142.996094
2359.794922	10229.615234
2358.830078	9934.604492
2357.867188	10317.116211
2356.904297	10087.063477
2355.941406	10010.170898
2354.976563	10135.653320
2354.013672	10279.250000
2353.048828	9914.497070
2352.085938	10244.776367
2351.121094	9965.701172
2350.156250	10096.270508
2349.191406	10151.638672
2348.226563	10196.622070
2347.261719	10127.594727
2346.296875	9973.105469
2345.332031	10129.464844
2344.367188	10042.354492
2343.400391	9931.968750
2342.435547	9888.926758
2341.468750	10008.960938
2340.503906	9950.391602
2339.537109	9922.890625
2338.570313	10068.729492
2337.603516	10136.922852
2336.636719	9915.440430
2335.669922	9743.159180
2334.703125	10028.539063
2333.736328	10042.410156
2332.769531	10107.964844
2331.800781	10201.923828
2330.833984	10368.193359
2329.865234	10521.492188
2328.898438	10473.282227
2327.929688	10166.848633
2326.962891	10157.440430
2325.994141	10070.588867
2325.025391	10148.957031
2324.056641	10041.489258
2323.087891	9905.672852
2322.119141	9955.650391
2321.148438	10028.826172
2320.179688	9686.757813
2319.210938	9899.196289
2318.240234	9830.544922
2317.271484	9937.203125
2316.300781	9969.083008
2315.330078	9926.222656
2314.359375	9795.775391
2313.390625	9776.140625
2312.419922	9764.239258
2311.449219	9935.181641
2310.476563	9779.069336
2309.505859	9780.043945
2308.535156	9721.817383
2307.564453	9941.550781
2306.591797	9883.316406
2305.621094	9783.937500
2304.648438	9851.788086
2303.675781	9891.326172
2302.703125	9642.851563
2301.732422	9844.383789
2300.759766	9971.301758
2299.787109	9954.250000
2298.814453	9826.704102
2297.839844	9894.467773
2296.867188	9993.036133
2295.894531	9778.216797
2294.919922	9702.143555
2293.947266	9972.725586
2292.972656	9894.077148
2292.000000	9869.357422
2291.025391	9708.625977
2290.050781	9748.092773
2289.076172	9774.718750
2288.101563	9906.505859
2287.126953	9830.507813
2286.152344	9800.691406
2285.175781	10024.708008
2284.201172	9833.372070
2283.226563	9811.258789
2282.250000	9807.089844
2281.275391	9859.291016
2280.298828	9906.350586
2279.322266	9671.646484
2278.345703	10079.811523
2277.371094	9942.454102
2276.394531	9751.379883
2275.417969	9880.327148
2274.439453	9929.894531
2273.462891	9905.239258
2272.486328	9801.281250
2271.507813	9925.017578
2270.531250	10002.677734
2269.552734	9903.868164
2268.576172	9792.306641
2267.597656	10028.440430
2266.619141	9970.569336
2265.640625	10094.155273
2264.662109	9847.215820
2263.683594	9917.132813
2262.705078	9884.858398
2261.726563	9750.441406
2260.748047	9840.766602
2259.767578	9992.333008
2258.789063	9957.513672
2257.808594	9708.325195
2256.830078	9882.803711
2255.849609	9832.709961
2254.869141	9797.938477
2253.888672	9918.755859
2252.908203	9743.727539
2251.927734	10058.285156
2250.947266	9834.856445
2249.966797	9682.866211
2248.986328	9767.924805
2248.003906	9824.927734
2247.023438	9968.527344
2246.041016	9862.461914
2245.060547	9748.791016
2244.078125	9815.943359
2243.095703	10038.372070
2242.115234	9894.181641
2241.132813	9772.943359
2240.150391	9934.198242
2239.166016	10052.147461
2238.183594	9844.453125
2237.201172	9883.534180
2236.218750	9825.969727
2235.234375	9796.390625
2234.251953	9838.000977
2233.267578	9935.515625
2232.283203	9949.134766
2231.300781	9817.919922
2230.316406	9747.717773
2229.332031	9906.142578
2228.347656	9968.008789
2227.363281	9664.209961
2226.378906	9967.280273
2225.392578	9988.491211
2224.408203	9682.299805
2223.423828	9850.727539
2222.437500	9818.666992
2221.451172	9781.542969
2220.466797	9648.051758
2219.480469	9859.483398
2218.494141	10015.065430
2217.507813	9846.110352
2216.521484	9839.426758
2215.535156	9855.552734
2214.548828	9833.666016
2213.562500	9738.318359
2212.574219	9868.435547
2211.587891	9795.905273
2210.599609	9984.208984
2209.613281	10147.133789
2208.625000	9786.024414
2207.636719	9645.219727
2206.650391	9785.344727
2205.662109	9831.810547
2204.673828	9708.775391
2203.685547	10038.511719
2202.695313	9700.532227
2201.707031	9964.422852
2200.718750	10013.348633
2199.728516	9728.617188
2198.740234	9777.564453
2197.750000	9796.174805
2196.761719	9857.725586
2195.771484	9782.856445
2194.781250	9882.271484
2193.791016	10047.305664
2192.800781	9969.916992
2191.810547	9849.640625
2190.820313	9797.547852
2189.830078	9970.056641
2188.837891	9882.637695
2187.847656	10012.191406
2186.857422	10000.458984
2185.865234	9895.425781
2184.873047	9908.929688
2183.882813	9778.735352
2182.890625	9963.649414
2181.898438	9871.290039
2180.906250	10008.252930
2179.914063	9908.357422
2178.921875	9944.514648
2177.927734	9867.328125
2176.935547	10089.814453
2175.943359	9874.159180
2174.949219	9776.883789
2173.955078	9928.803711
2172.962891	10025.313477
2171.968750	10151.982422
2170.974609	10024.537109
2169.980469	9985.164063
2168.986328	9769.771484
2167.992188	10090.000977
2166.998047	10010.413086
2166.003906	10136.958008
2165.007813	9866.392578
2164.013672	10063.273438
2163.019531	9983.741211
2162.023438	10019.779297
2161.027344	10106.034180
2160.033203	10024.021484
2159.037109	10065.055664
2158.041016	10058.381836
2157.044922	9913.671875
2156.048828	10135.377930
2155.052734	10063.461914
2154.054688	10091.911133
2153.058594	10223.185547
2152.062500	9842.838867
2151.064453	10074.402344
2150.066406	10107.843750
2149.070313	10003.416992
2148.072266	10127.077148
2147.074219	10015.164063
2146.076172	10143.791992
2145.078125	10029.407227
2144.080078	9842.430664
2143.082031	10304.058594
2142.083984	10144.637695
2141.083984	10105.422852
2140.085938	10213.884766
2139.085938	10097.096680
2138.087891	10007.868164
2137.087891	10298.905273
2136.087891	10004.579102
2135.089844	10195.491211
2134.089844	10081.300781
2133.089844	10122.142578
2132.087891	9908.021484
2131.087891	10096.323242
2130.087891	10104.658203
2129.087891	10172.949219
2128.085938	10018.907227
2127.085938	10079.696289
2126.083984	10290.287109
2125.082031	10088.865234
2124.082031	10179.566406
2123.080078	10272.733398
2122.078125	10161.247070
2121.076172	10346.700195
2120.074219	10142.938477
2119.070313	10088.893555
2118.068359	10181.997070
2117.066406	10202.762695
2116.062500	10111.339844
2115.060547	10266.706055
2114.056641	10190.253906
2113.054688	10273.295898
2112.050781	10134.584961
2111.046875	10342.152344
2110.042969	10325.508789
2109.039063	10117.134766
2108.035156	10279.788086
2107.031250	10210.887695
2106.025391	10418.270508
2105.021484	10321.996094
2104.015625	10243.169922
2103.011719	10154.417969
2102.005859	10219.902344
2101.000000	10056.579102
2099.996094	10161.838867
2098.990234	10473.399414
2097.984375	10076.471680
2096.978516	10141.913086
2095.972656	10112.912109
2094.964844	10180.809570
2093.958984	10129.456055
2092.953125	10373.657227
2091.945313	10352.084961
2090.939453	10310.658203
2089.931641	10326.337891
2088.923828	10262.590820
2087.916016	10337.828125
2086.908203	10286.504883
2085.900391	10267.447266
2084.892578	10183.909180
2083.884766	10030.962891
2082.876953	10212.789063
2081.869141	10255.730469
2080.859375	10209.427734
2079.851563	10269.702148
2078.841797	9985.541992
2077.833984	10080.516602
2076.824219	10519.760742
2075.814453	10196.073242
2074.804688	10295.916992
2073.794922	10205.094727
2072.785156	10094.499023
2071.775391	10013.638672
2070.763672	10192.630859
2069.753906	10255.280273
2068.744141	10357.487305
2067.732422	10133.183594
2066.720703	10198.283203
2065.710938	10268.306641
2064.699219	10187.507813
2063.687500	10344.018555
2062.675781	10488.120117
2061.664063	10142.941406
2060.652344	10195.621094
2059.640625	10142.070313
2058.628906	10357.728516
2057.615234	10309.107422
2056.603516	10280.251953
2055.589844	10127.983398
2054.578125	10348.437500
2053.564453	10144.387695
2052.550781	10303.084961
2051.537109	10168.180664
2050.523438	10203.500977
2049.509766	10374.439453
2048.496094	10439.300781
2047.482422	10122.037109
2046.466797	10391.495117
2045.453125	10485.892578
2044.439453	10368.358398
2043.423828	10245.935547
2042.408203	10305.826172
2041.394531	10382.935547
2040.378906	10344.289063
2039.363281	10367.203125
2038.347656	10146.418945
2037.332031	10267.801758
2036.316406	10418.673828
2035.298828	10377.591797
2034.283203	10243.045898
2033.265625	10219.222656
2032.250000	10374.919922
2031.232422	10370.750977
2030.216797	10204.335938
2029.199219	10202.653320
2028.181641	10255.036133
2027.164063	10307.400391
2026.146484	10305.701172
2025.128906	10097.675781
2024.111328	10272.832031
2023.091797	10187.653320
2022.074219	10640.156250
2021.056641	10363.482422
2020.037109	10563.020508
2019.017578	10230.011719
2018.000000	10397.610352
2016.980469	10263.432617
2015.960938	10480.022461
2014.941406	10436.606445
2013.921875	10407.915039
2012.902344	10239.502930
2011.882813	10083.401367
2010.861328	10157.706055
2009.841797	10293.241211
2008.820313	10225.399414
2007.800781	10429.459961
2006.779297	10251.413086
2005.757813	10276.656250
2004.738281	10311.682617
2003.716797	10368.728516
2002.695313	10141.860352
2001.671875	10105.929688
2000.650391	10109.155273
1999.628906	10249.363281
1998.607422	10281.912109
1997.583984	10055.244141
1996.562500	10134.267578
1995.539063	10249.932617
1994.515625	10145.587891
1993.494141	10126.807617
1992.470703	10122.692383
1991.447266	10172.323242
1990.423828	10219.494141
1989.400391	10215.365234
1988.375000	10081.827148
1987.351563	10089.927734
1986.328125	10078.499023
1985.302734	9986.536133
1984.279297	9823.840820
1983.253906	10141.819336
1982.228516	10008.422852
1981.203125	9933.603516
1980.177734	10049.011719
1979.152344	10013.218750
1978.126953	9728.793945
1977.101563	10131.776367
1976.076172	9925.405273
1975.050781	10160.104492
1974.023438	10202.276367
1972.998047	9954.588867
1971.970703	9955.379883
1970.943359	10036.521484
1969.917969	9932.616211
1968.890625	9928.541016
1967.863281	9829.554688
1966.835938	9854.697266
1965.808594	9726.560547
1964.779297	9970.631836
1963.751953	10005.465820
1962.724609	9938.158203
1961.695313	9963.260742
1960.667969	9934.875000
1959.638672	9955.107422
1958.609375	9861.121094
1957.580078	9925.091797
1956.550781	9950.173828
1955.521484	9822.230469
1954.492188	9910.458984
1953.462891	10025.367188
1952.433594	9678.986328
1951.404297	10005.063477
1950.373047	9928.178711
1949.343750	9987.198242
1948.312500	9835.133789
1947.281250	9680.693359
1946.250000	10013.775391
1945.220703	9752.664063
1944.189453	10114.715820
1943.158203	9911.849609
1942.125000	9898.092773
1941.093750	9753.486328
1940.062500	9868.169922
1939.031250	9956.167969
1937.998047	9814.044922
1936.964844	9851.167969
1935.933594	10069.871094
1934.900391	9898.748047
1933.867188	9938.258789
1932.833984	10156.837891
1931.800781	9915.615234
1930.767578	10071.225586
1929.734375	9926.849609
1928.701172	9888.931641
1927.666016	9797.829102
1926.632813	9975.113281
1925.597656	10041.145508
1924.564453	9785.718750
1923.529297	9977.414063
1922.494141	9905.699219
1921.458984	9884.735352
1920.423828	9924.159180
1919.388672	10125.363281
1918.353516	9937.777344
1917.318359	10119.599609
1916.283203	10028.621094
1915.246094	10067.987305
1914.210938	9895.010742
1913.173828	10199.751953
1912.138672	10125.703125
1911.101563	9950.390625
1910.064453	10045.193359
1909.027344	10152.018555
1907.990234	9984.018555
1906.953125	10032.977539
1905.916016	10130.112305
1904.876953	10239.260742
1903.839844	10032.814453
1902.802734	10076.915039
1901.763672	10330.499023
1900.724609	10114.509766
1899.687500	10110.427734
1898.648438	10106.347656
1897.609375	10051.733398
1896.570313	10213.680664
1895.531250	10310.621094
1894.492188	10154.978516
1893.451172	10206.204102
1892.412109	10327.141602
1891.373047	10046.561523
1890.332031	10056.916016
1889.291016	10112.929688
1888.251953	10094.434570
1887.210938	10193.666992
1886.169922	10290.463867
1885.128906	10108.634766
1884.087891	10147.782227
1883.046875	10030.859375
1882.005859	10029.198242
1880.962891	10106.740234
1879.921875	10097.867188
1878.880859	10218.558594
1877.837891	10092.124023
1876.794922	10140.820313
1875.753906	10079.188477
1874.710938	10262.141602
1873.667969	10159.754883
1872.625000	10146.087891
1871.582031	10091.683594
1870.537109	9883.946289
1869.494141	9920.640625
1868.451172	9986.065430
1867.406250	10053.863281
1866.363281	9932.471680
1865.318359	9990.679688
1864.273438	9965.086914
1863.230469	10025.662109
1862.185547	9952.212891
1861.140625	9938.600586
1860.095703	9958.482422
1859.048828	9808.543945
1858.003906	9979.095703
1856.958984	9915.277344
1855.912109	10042.723633
1854.867188	9933.501953
1853.820313	10027.446289
1852.773438	10028.173828
1851.728516	9947.674805
1850.681641	10010.517578
1849.634766	10039.904297
1848.587891	10052.566406
1847.541016	9797.836914
1846.492188	10054.007813
1845.445313	9906.758789
1844.398438	9897.957031
1843.349609	10049.007813
1842.302734	9789.717773
1841.253906	9983.665039
1840.205078	9886.625000
1839.156250	9949.359375
1838.107422	9904.800781
1837.058594	9912.691406
1836.009766	9870.536133
1834.960938	9802.185547
1833.912109	9829.146484
1832.861328	9920.408203
1831.812500	9916.380859
1830.761719	9821.875000
1829.710938	9779.774414
1828.662109	9730.546875
1827.611328	9669.435547
1826.560547	9834.395508
1825.509766	9704.292969
1824.458984	9816.860352
1823.408203	9893.715820
1822.355469	9835.003906
1821.304688	9678.833984
1820.251953	9888.791992
1819.201172	9937.061523
1818.148438	9562.330078
1817.095703	9712.802734
1816.044922	9815.714844
1814.992188	9973.219727
1813.939453	9800.583008
1812.886719	9706.356445
1811.832031	9849.557617
1810.779297	9871.658203
1809.726563	9824.929688
1808.671875	10039.220703
1807.619141	9892.838867
1806.564453	9907.800781
1805.509766	9880.068359
1804.457031	9876.057617
1803.402344	9900.497070
1802.347656	9706.849609
1801.292969	9849.809570
1800.238281	9758.127930
1799.181641	9884.446289
1798.126953	9738.305664
1797.070313	9933.269531
1796.015625	9770.592773
1794.958984	9735.823242
1793.904297	9838.366211
1792.847656	9689.986328
1791.791016	9929.757813
1790.734375	9913.912109
1789.677734	9772.689453
1788.621094	10125.861328
1787.562500	9776.538086
1786.505859	9713.436523
1785.449219	9841.849609
1784.390625	9901.671875
1783.333984	9952.020508
1782.275391	9685.717773
1781.216797	9991.240234
1780.158203	9873.834961
1779.099609	9709.232422
1778.041016	9969.731445
1776.982422	9911.411133
1775.923828	9893.240234
1774.865234	9792.467773
1773.804688	9838.037109
1772.746094	9966.169922
1771.685547	9785.228516
1770.625000	9745.864258
1769.566406	9925.828125
1768.505859	9865.232422
1767.445313	9960.249023
1766.384766	9897.309570
1765.322266	9907.448242
1764.261719	9948.213867
1763.201172	9939.493164
1762.140625	9966.106445
1761.078125	9983.291016
1760.015625	9941.600586
1758.955078	9975.262695
1757.892578	9961.834961
1756.830078	10040.199219
1755.767578	9982.053711
1754.705078	10067.446289
1753.642578	10006.962891
1752.580078	9988.834961
1751.515625	9970.712891
1750.453125	9884.412109
1749.390625	9929.784180
1748.326172	9925.782227
1747.261719	10013.432617
1746.199219	9859.041016
1745.134766	9887.941406
1744.070313	9883.948242
1743.005859	9830.637695
1741.941406	9908.836914
1740.875000	9815.628906
1739.810547	9950.138672
1738.746094	10054.093750
1737.679688	10066.500000
1736.615234	10020.249023
1735.548828	9964.630859
1734.482422	10096.656250
1733.416016	10001.178711
1732.349609	10013.582031
1731.283203	10051.766602
1730.216797	10068.844727
1729.150391	10181.994141
1728.083984	9950.686523
1727.015625	10108.328125
1725.949219	10137.093750
1724.880859	9936.352539
1723.812500	10232.060547
1722.746094	10073.507813
1721.677734	10151.413086
1720.609375	9801.023438
1719.541016	10042.739258
1718.472656	10118.270508
1717.404297	10107.229492
1716.333984	9962.885742
1715.265625	10141.277344
1714.195313	10015.679688
1713.126953	10016.349609
1712.056641	10080.122070
1710.986328	9998.993164
1709.916016	10144.519531
1708.845703	9822.800781
1707.775391	10134.134766
1706.705078	10032.033203
1705.634766	10116.750977
1704.564453	9918.974609
1703.492188	10013.017578
1702.421875	9901.668945
1701.349609	10124.012695
1700.279297	10182.980469
1699.207031	10027.340820
1698.134766	10184.252930
1697.062500	10054.312500
1695.990234	10344.051758
1694.917969	9927.423828
1693.845703	9960.727539
1692.771484	10206.064453
1691.699219	10050.599609
1690.625000	10060.572266
1689.552734	9923.814453
1688.478516	10131.734375
1687.404297	10118.405273
1686.330078	10144.653320
1685.255859	10063.830078
1684.181641	10208.756836
1683.107422	10109.334961
1682.033203	10121.608398
1680.958984	10124.573242
1679.882813	10043.818359
1678.808594	10074.696289
1677.732422	10096.263672
1676.656250	10134.094727
1675.582031	10155.644531
1674.505859	10144.657227
1673.429688	9922.264648
1672.353516	10048.364258
1671.277344	10042.043945
1670.199219	10084.488281
1669.123047	10101.379883
1668.046875	10178.617188
1666.968750	9986.610352
1665.890625	9977.983398
1664.814453	10243.127930
1663.736328	9997.852539
1662.658203	9734.104492
1661.580078	9999.156250
1660.501953	9971.985352
1659.423828	10146.500000
1658.345703	10003.424805
1657.265625	9960.043945
1656.187500	10129.838867
1655.107422	9820.041992
1654.029297	9994.436523
1652.949219	10052.980469
1651.869141	10032.779297
1650.789063	10042.680664
1649.708984	10006.285156
1648.628906	9921.301758
1647.548828	9787.754883
1646.468750	9957.321289
1645.386719	9775.236328
1644.306641	9937.809570
1643.224609	9783.536133
1642.144531	9784.215820
1641.062500	9918.965820
1639.980469	9822.551758
1638.898438	9880.993164
1637.816406	9706.062500
1636.734375	9674.412109
1635.652344	9896.833008
1634.570313	9703.511719
1633.486328	9824.262695
1632.404297	9815.697266
1631.320313	9724.042969
1630.236328	9727.034180
1629.154297	9651.576172
1628.070313	9677.648438
1626.986328	9825.958984
1625.902344	9582.169922
1624.818359	9557.511719
1623.734375	9555.916016
1622.648438	9787.126953
1621.564453	9720.962891
1620.478516	9592.605469
1619.394531	9773.009766
1618.308594	9573.277344
1617.222656	9769.745117
1616.136719	9678.307617
1615.050781	9690.504883
1613.964844	9479.409180
1612.878906	9277.589844
1611.792969	9717.866211
1610.707031	9672.527344
1609.619141	9772.129883
1608.533203	9673.896484
1607.445313	9688.377930
1606.357422	9592.489258
1605.271484	9632.266602
1604.183594	9515.732422
1603.095703	9718.673828
1602.007813	9611.354492
1600.919922	9575.288086
1599.830078	9656.378906
1598.742188	9751.220703
1597.652344	9687.593750
1596.564453	9635.466797
1595.474609	9810.603516
1594.386719	9838.799805
1593.296875	9704.065430
1592.207031	9583.141602
1591.117188	9615.948242
1590.027344	9774.884766
1588.937500	9493.491211
1587.845703	9535.465820
1586.755859	9820.415039
1585.664063	9617.080078
1584.574219	9714.010742
1583.482422	9728.424805
1582.390625	9793.231445
1581.300781	9803.045898
1580.208984	9677.744141
1579.117188	9699.022461
1578.025391	9658.482422
1576.931641	9883.468750
1575.839844	9659.829102
1574.748047	9905.332031
1573.654297	9892.236328
1572.560547	9899.731445
1571.468750	9781.439453
1570.375000	9738.644531
1569.281250	10004.502930
1568.187500	9755.958984
1567.093750	9884.597656
1566.000000	9784.685547
1564.906250	9995.525391
1563.810547	9790.549805
1562.716797	10040.143555
1561.621094	9858.063477
1560.527344	9952.306641
1559.431641	10096.739258
1558.335938	9985.494141
1557.240234	10291.895508
1556.144531	10315.271484
1555.048828	10044.356445
1553.953125	10090.574219
1552.857422	10196.068359
1551.759766	10037.034180
1550.664063	9944.165039
1549.566406	10229.698242
1548.470703	10143.664063
1547.373047	10096.394531
1546.275391	10067.365234
1545.177734	10070.235352
1544.080078	9936.458008
1542.982422	10028.154297
1541.884766	9867.107422
1540.785156	10149.992188
1539.687500	10023.117188
1538.587891	9889.458008
1537.490234	9933.305664
1536.390625	9968.038086
1535.291016	10039.149414
1534.193359	9982.891602
1533.093750	9910.737305
1531.992188	9986.367188
1530.892578	10009.696289
1529.792969	9976.205078
1528.693359	9801.854492
1527.591797	9947.874023
1526.492188	9941.665039
1525.390625	9869.599609
1524.289063	9974.663086
1523.189453	9786.835938
1522.087891	10023.527344
1520.986328	9756.323242
1519.882813	9972.518555
1518.781250	9798.427734
1517.679688	10082.591797
1516.578125	10060.490234
1515.474609	9974.905273
1514.371094	9850.807617
1513.269531	9799.287109
1512.166016	9836.173828
1511.062500	9904.771484
1509.958984	9982.409180
1508.855469	9772.332031
1507.751953	9981.327148
1506.648438	9852.842773
1505.542969	9719.872070
1504.439453	9888.022461
1503.333984	9834.307617
1502.230469	9733.087891
1501.125000	9898.888672
1500.019531	9815.789063
1498.914063	9870.688477
1497.808594	9561.474609
1496.703125	9767.890625
1495.597656	9639.653320
1494.492188	9744.272461
1493.384766	9823.996094
1492.279297	9698.072266
1491.171875	9716.778320
1490.066406	9660.937500
1488.958984	9638.991211
1487.851563	9714.147461
1486.744141	9895.389648
1485.636719	9661.228516
1484.529297	9555.790039
1483.421875	9694.091797
1482.312500	9753.381836
1481.205078	9666.025391
1480.095703	9438.863281
1478.988281	9482.380859
1477.878906	9933.973633
1476.769531	9758.727539
1475.660156	9639.887695
1474.550781	9712.635742
1473.441406	9620.880859
1472.332031	9472.836914
1471.222656	9653.689453
1470.111328	9775.929688
1469.001953	9598.662109
1467.890625	9592.548828
1466.781250	9662.965820
1465.669922	9661.343750
1464.558594	9574.217773
1463.447266	9617.605469
1462.335938	9858.920898
1461.224609	9659.355469
1460.113281	9675.722656
1459.000000	9766.275391
1457.888672	9627.516602
1456.775391	9652.870117
1455.664063	9678.213867
1454.550781	9667.601563
1453.437500	9751.338867
1452.324219	9760.931641
1451.210938	9631.293945
1450.097656	9667.844727
1448.984375	9720.096680
1447.871094	9792.531250
1446.755859	9595.652344
1445.642578	9773.536133
1444.527344	9648.511719
1443.412109	9604.274414
1442.298828	9909.892578
1441.183594	9818.540039
1440.068359	9895.353516
1438.953125	9819.723633
1437.837891	9844.966797
1436.720703	9733.519531
1435.605469	9752.045898
1434.490234	9887.042969
1433.373047	9679.342773
1432.255859	9635.171875
1431.140625	9779.074219
1430.023438	9817.722656
1428.906250	9795.929688
1427.789063	9715.964844
1426.671875	9772.501953
1425.554688	9603.089844
1424.435547	9769.216797
1423.318359	9608.806641
1422.199219	9627.313477
1421.082031	9757.583984
1419.962891	9773.824219
1418.843750	9745.364258
1417.724609	9687.869141
1416.605469	9724.216797
1415.486328	9773.953125
1414.367188	9589.190430
1413.248047	9587.577148
1412.126953	9804.741211
1411.007813	9800.860352
1409.886719	9562.656250
1408.767578	9692.693359
1407.646484	9566.132813
1406.525391	9586.829102
1405.404297	9538.382813
1404.283203	9670.565430
1403.162109	9664.479492
1402.041016	9707.434570
1400.917969	9734.773438
1399.796875	9737.592773
1398.673828	9764.916992
1397.552734	9489.287109
1396.429688	9710.406250
1395.306641	9684.278320
1394.183594	9582.459961
1393.060547	9881.362305
1391.937500	9639.328125
1390.814453	9428.529297
1389.691406	9582.685547
1388.566406	9505.439453
1387.443359	9514.959961
1386.318359	9484.449219
1385.195313	9574.012695
1384.070313	9627.976563
1382.945313	9372.972656
1381.820313	9609.179688
1380.695313	9565.345703
1379.570313	9326.030273
1378.443359	9448.845703
1377.318359	9516.098633
1376.193359	9678.807617
1375.066406	9512.894531
1373.939453	9622.276367
1372.814453	9396.506836
1371.687500	9428.208008
1370.560547	9541.985352
1369.433594	9522.632813
1368.306641	9569.820313
1367.177734	9716.776367
1366.050781	9624.240234
1364.923828	9451.934570
1363.794922	9738.462891
1362.666016	9544.036133
1361.539063	9562.368164
1360.410156	9784.491211
1359.281250	9605.658203
1358.152344	9710.333008
1357.023438	9730.836914
1355.892578	9541.033203
1354.763672	9676.652344
1353.634766	9655.104492
1352.503906	9688.878906
1351.375000	9811.129883
1350.244141	9875.831055
1349.113281	9741.479492
1347.982422	9629.283203
1346.851563	9859.785156
1345.720703	9796.233398
1344.589844	9606.735352
1343.458984	9759.787109
1342.326172	9694.074219
1341.195313	9798.464844
1340.062500	9721.725586
1338.931641	9812.826172
1337.798828	9806.756836
1336.666016	9935.337891
1335.533203	9827.726563
1334.400391	9854.755859
1333.267578	9983.262695
1332.132813	9913.197266
1331.000000	9907.114258
1329.867188	9876.776367
1328.732422	9791.330078
1327.597656	9778.657227
1326.464844	9867.372070
1325.330078	9746.710938
1324.195313	9813.368164
1323.060547	9802.901367
1321.925781	9779.222656
1320.789063	9914.106445
1319.654297	9800.142578
1318.517578	9959.192383
1317.382813	9722.000977
1316.246094	9977.838867
1315.111328	9773.727539
1313.974609	9609.284180
1312.837891	9873.808594
1311.701172	9830.358398
1310.564453	9916.651367
1309.425781	9684.141602
1308.289063	9625.357422
1307.152344	9828.119141
1306.013672	9556.188477
1304.875000	9734.725586
1303.738281	9785.800781
1302.599609	9711.673828
1301.460938	9973.536133
1300.322266	9809.386719
1299.183594	9783.584961
1298.044922	9744.623047
1296.904297	9716.644531
1295.765625	9752.302734
1294.625000	9728.719727
1293.486328	9742.429688
1292.345703	9738.590820
1291.205078	9664.593750
1290.064453	9840.525391
1288.923828	9545.166016
1287.783203	9685.995117
1286.642578	9544.132813
1285.501953	9560.045898
1284.359375	9617.569336
1283.218750	9694.781250
1282.076172	9520.169922
1280.935547	9634.587891
1279.792969	9652.659180
1278.650391	9528.475586
1277.507813	9655.961914
1276.365234	9586.511719
1275.222656	9587.080078
1274.078125	9817.277344
1272.935547	9846.231445
1271.792969	9604.083008
1270.648438	9689.893555
1269.503906	9762.562500
1268.359375	9715.025391
1267.216797	9527.679688
1266.072266	9633.104492
1264.927734	9679.524414
1263.781250	9601.460938
1262.636719	9610.753906
1261.492188	9432.314453
1260.345703	9528.933594
1259.201172	9597.151367
1258.054688	9617.346680
1256.908203	9709.522461
1255.761719	9406.894531
1254.615234	9547.048828
1253.468750	9556.335938
1252.322266	9886.072266
1251.175781	9666.442383
1250.029297	9671.345703
1248.880859	9844.017578
1247.732422	10007.916992
1246.585938	9803.660156
1245.437500	9799.824219
1244.289063	9641.395508
1243.140625	9696.367188
1241.992188	9853.621094
1240.843750	9682.205078
1239.695313	9789.362305
1238.544922	9905.184570
1237.396484	10020.967773
1236.246094	9890.958984
1235.097656	9974.087891
1233.947266	9735.428711
1232.796875	9651.180664
1231.646484	9840.799805
1230.496094	9693.546875
1229.345703	9848.332031
1228.195313	9744.571289
1227.042969	9973.137695
1225.892578	9895.448242
1224.740234	9971.933594
1223.589844	9963.733398
1222.437500	9873.060547
1221.285156	9997.250000
1220.132813	10017.253906
1218.980469	10002.542969
1217.828125	9985.666992
1216.675781	10005.661133
1215.521484	10056.003906
1214.369141	10132.341797
1213.214844	10180.477539
1212.062500	9981.549805
1210.908203	10025.360352
1209.753906	10118.981445
1208.599609	10008.968750
1207.445313	10080.904297
1206.291016	10079.197266
1205.134766	10075.325195
1203.980469	10045.479492
1202.826172	10119.522461
1201.669922	9962.016602
1200.513672	10271.860352
1199.359375	10168.457031
1198.203125	10177.547852
1197.046875	10134.739258
1195.890625	10143.832031
1194.734375	10269.645508
1193.576172	10300.324219
1192.419922	10028.472656
1191.263672	10087.266602
1190.105469	10092.038086
1188.947266	10146.480469
1187.791016	10172.833008
1186.632813	10091.225586
1185.474609	10178.019531
1184.316406	10245.359375
1183.156250	10213.411133
1181.998047	10269.933594
1180.839844	10127.976563
1179.679688	10139.200195
1178.521484	10152.576172
1177.361328	10355.682617
1176.201172	10302.189453
1175.042969	10119.393555
1173.882813	10412.911133
1172.720703	10484.402344
1171.560547	10297.358398
1170.400391	10209.456055
1169.240234	10472.608398
1168.078125	10294.273438
1166.917969	10385.097656
1165.755859	10344.591797
1164.593750	10465.504883
1163.431641	10349.689453
1162.269531	10560.916016
1161.107422	10371.990234
1159.945313	10419.694336
1158.783203	10402.875000
1157.619141	10545.152344
1156.457031	10524.016602
1155.292969	10434.116211
1154.130859	10797.638672
1152.966797	10821.587891
1151.802734	10802.566406
1150.638672	10751.336914
1149.474609	10554.105469
1148.310547	10792.773438
1147.144531	10893.978516
1145.980469	10982.271484
1144.814453	11184.264648
1143.650391	11019.307617
1142.484375	11066.775391
1141.318359	10936.209961
1140.154297	10872.166016
1138.988281	11196.214844
1137.820313	11018.532227
1136.654297	11125.970703
1135.488281	11299.803711
1134.320313	11242.177734
1133.154297	11304.535156
1131.986328	11381.864258
1130.820313	11452.742188
1129.652344	11579.265625
1128.484375	11463.837891
1127.316406	11656.667969
1126.148438	11472.784180
1124.980469	11642.009766
1123.810547	11791.923828
1122.642578	11759.975586
1121.472656	11685.265625
1120.304688	11768.809570
1119.134766	12096.041016
1117.964844	12006.348633
1116.794922	11991.485352
1115.625000	11963.806641
1114.455078	12087.822266
1113.285156	12126.353516
1112.113281	12137.106445
1110.943359	12252.486328
1109.771484	12246.134766
1108.601563	12389.206055
1107.429688	12493.811523
1106.257813	12653.862305
1105.085938	12547.168945
1103.914063	12651.693359
1102.742188	12664.472656
1101.570313	12754.013672
1100.396484	12879.768555
1099.224609	12800.837891
1098.050781	12979.825195
1096.878906	13114.000000
1095.705078	13045.721680
1094.531250	13331.086914
1093.357422	13218.065430
1092.183594	13367.013672
1091.009766	13209.311523
1089.835938	13422.073242
1088.660156	13385.736328
1087.486328	13749.488281
1086.310547	13502.461914
1085.134766	13706.518555
1083.960938	13497.869141
1082.785156	13604.030273
1081.609375	13780.322266
1080.433594	13826.874023
1079.257813	14083.837891
1078.080078	14147.321289
1076.904297	14263.904297
1075.726563	14193.494141
1074.550781	14201.700195
1073.373047	14454.130859
1072.195313	14430.437500
1071.017578	14400.382813
1069.839844	14794.867188
1068.662109	14650.155273
1067.484375	14660.393555
1066.306641	14804.286133
1065.126953	14946.007813
1063.949219	14758.950195
1062.769531	14987.570313
1061.589844	14987.138672
1060.410156	15005.785156
1059.230469	15134.632813
1058.050781	15269.792969
1056.871094	15394.314453
1055.691406	15431.940430
1054.511719	15691.939453
1053.330078	15585.504883
1052.150391	15678.125977
1050.968750	15849.040039
1049.787109	16132.069336
1048.605469	15898.661133
1047.423828	16054.637695
1046.242188	16242.291992
1045.060547	16184.533203
1043.878906	16073.925781
1042.695313	16525.773438
1041.513672	16467.994141
1040.330078	16596.232422
1039.148438	16946.322266
1037.964844	16738.482422
1036.781250	16741.966797
1035.597656	16789.806641
1034.414063	16966.451172
1033.230469	17094.470703
1032.044922	16819.224609
1030.861328	17394.703125
1029.675781	17013.978516
1028.492188	17192.541016
1027.306641	17333.068359
1026.121094	17524.171875
1024.935547	17643.503906
1023.750000	17564.585938
1022.564453	17650.136719
1021.378906	17482.712891
1020.191406	18004.503906
1019.005859	17980.363281
1017.818359	18143.734375
1016.632813	17923.677734
1015.445313	17937.468750
1014.257813	18012.322266
1013.070313	18070.304688
1011.882813	18294.564453
1010.695313	18291.443359
1009.507813	18208.361328
1008.318359	18278.892578
1007.130859	18170.595703
1005.941406	18440.912109
1004.751953	18284.259766
1003.564453	18342.111328
1002.375000	18332.675781
1001.185547	18270.699219
999.996094	18391.564453
998.804688	18258.162109
997.615234	18666.781250
996.425781	18335.943359
995.234375	18542.812500
994.042969	18346.484375
992.853516	18349.650391
991.662109	18413.683594
990.470703	18555.339844
989.279297	18357.041016
988.087891	18676.972656
986.894531	18405.308594
985.703125	18462.982422
984.511719	18413.703125
983.318359	18433.619141
982.125000	18581.386719
980.933594	18175.843750
979.740234	18434.656250
978.546875	18263.910156
977.353516	18390.658203
976.158203	18295.369141
974.964844	18407.410156
973.771484	18224.222656
972.576172	18505.781250
971.382813	18280.781250
970.187500	18233.716797
968.992188	18284.998047
967.796875	18099.892578
966.601563	18216.009766
965.406250	18133.437500
964.210938	18151.246094
963.013672	18223.396484
961.818359	17950.677734
960.621094	18177.468750
959.425781	18272.556641
958.228516	18045.921875
957.031250	18015.687500
955.833984	18290.335938
954.636719	18143.150391
953.439453	18033.589844
952.242188	18101.468750
951.042969	17822.923828
949.845703	18201.687500
948.646484	17998.316406
947.447266	17882.613281
946.250000	18025.529297
945.050781	17976.578125
943.851563	18027.705078
942.650391	17843.291016
941.451172	17858.996094
940.251953	17926.783203
939.050781	18023.710938
937.851563	18085.195313
936.650391	17925.917969
935.449219	17797.923828
934.250000	17840.679688
933.048828	17914.640625
931.847656	18061.410156
930.644531	17985.498047
929.443359	17986.582031
928.242188	17933.585938
927.039063	17695.519531
925.837891	17704.968750
924.634766	17693.623047
923.431641	18004.457031
922.228516	17774.853516
921.025391	17537.015625
919.822266	17523.626953
918.619141	17840.507813
917.414063	17764.765625
916.210938	17541.625000
915.005859	17650.730469
913.802734	17703.753906
912.597656	17675.820313
911.392578	17544.144531
910.187500	17551.513672
908.982422	17550.583984
907.777344	17452.177734
906.572266	17216.949219
905.365234	17338.394531
904.160156	17335.425781
902.953125	17330.384766
901.746094	17136.779297
900.541016	17102.767578
899.333984	17060.480469
898.126953	17074.128906
896.919922	17071.203125
895.710938	16970.972656
894.503906	16831.443359
893.296875	16886.511719
892.087891	16836.023438
890.878906	16651.070313
889.671875	16757.855469
888.462891	16705.345703
887.253906	16644.582031
886.044922	16846.417969
884.833984	16570.662109
883.625000	16516.152344
882.416016	16302.539063
881.205078	16336.936523
879.996094	16247.374023
878.785156	16281.766602
877.574219	16400.816406
876.363281	16259.668945
875.152344	16211.465820
873.941406	15944.494141
872.730469	15782.858398
871.517578	15792.533203
870.306641	16002.309570
869.093750	15789.181641
867.880859	15637.993164
866.669922	15655.930664
865.457031	15603.769531
864.244141	15417.648438
863.031250	15621.087891
861.816406	15507.143555
860.603516	15325.253906
859.390625	15462.689453
858.175781	15387.958008
856.962891	15241.184570
855.748047	15316.801758
854.533203	15135.097656
853.318359	15284.792969
852.103516	15076.406250
850.888672	15071.762695
849.671875	14902.564453
848.457031	15064.535156
847.242188	15220.281250
846.025391	14892.838867
844.808594	14935.505859
843.591797	14939.108398
842.376953	14979.696289
841.158203	15061.358398
839.941406	14818.441406
838.724609	15066.458008
837.507813	14688.096680
836.289063	15009.959961
835.072266	14802.112305
833.853516	14699.005859
832.634766	14774.458984
831.416016	14749.354492
830.197266	14646.308594
828.978516	14656.099609
827.759766	14540.799805
826.541016	14749.479492
825.320313	14861.740234
824.101563	15092.835938
822.880859	14846.390625
821.660156	14964.722656
820.441406	14681.509766
819.220703	14826.454102
818.000000	14787.047852
816.777344	14780.413086
815.556641	14872.040039
814.335938	14957.494141
813.113281	14654.107422
811.892578	14915.527344
810.669922	14759.539063
809.447266	14624.057617
808.224609	15075.528320
807.001953	14827.583008
805.779297	14843.433594
804.556641	15026.879883
803.332031	15036.558594
802.109375	15031.931641
800.884766	14870.004883
799.662109	15051.275391
798.437500	14971.085938
797.212891	15003.223633
795.988281	15006.768555
794.763672	14955.202148
793.539063	14928.142578
792.312500	15356.101563
791.087891	15220.858398
789.861328	14904.125977
788.636719	15083.066406
787.410156	15261.944336
786.183594	15134.961914
784.957031	14842.919922
783.730469	15229.616211
782.503906	15180.132813
781.277344	15089.919922
780.048828	15109.730469
778.822266	15314.859375
777.593750	15133.040039
776.365234	15006.250000
775.136719	14926.319336
773.908203	15015.333008
772.679688	15226.403320
771.451172	15034.580078
770.222656	15200.823242
768.994141	15133.127930
767.763672	14998.353516
766.535156	15229.573242
765.304688	15168.003906
764.074219	15435.696289
762.843750	15286.735352
761.613281	15139.857422
760.382813	15206.315430
759.152344	15396.638672
757.919922	15180.774414
756.689453	15013.710938
755.457031	15396.807617
754.226563	15448.955078
752.994141	15375.273438
751.761719	15405.087891
750.529297	15390.264648
749.296875	15154.375977
748.064453	15393.075195
746.830078	15441.111328
745.597656	15339.124023
744.363281	15443.900391
743.130859	15536.481445
741.896484	15525.701172
740.662109	15304.250000
739.427734	15346.171875
738.193359	15444.779297
736.958984	15357.083008
735.722656	15540.673828
734.488281	15558.236328
733.251953	15699.232422
732.017578	15597.387695
730.781250	15465.232422
729.544922	15685.050781
728.308594	15593.370117
727.072266	15738.280273
725.835938	15830.579102
724.599609	15702.538086
723.361328	15576.560547
722.125000	15802.190430
720.886719	15502.506836
719.648438	15665.457031
718.412109	15503.220703
717.173828	15530.834961
715.935547	15744.162109
714.695313	15592.086914
713.457031	15674.156250
712.218750	15826.816406
710.978516	15947.145508
709.740234	15873.800781
708.500000	15854.929688
707.259766	15961.076172
706.019531	15996.625977
704.779297	15907.196289
703.539063	15535.659180
702.298828	15865.440430
701.056641	15911.053711
699.816406	15843.853516
698.574219	15861.258789
697.333984	15957.185547
696.091797	15815.523438
694.849609	15945.640625
693.607422	16182.375000
692.365234	15998.490234
691.121094	16001.765625
689.878906	16115.666992
688.636719	16163.163086
687.392578	15997.503906
686.148438	16087.220703
684.904297	16192.987305
683.662109	16320.823242
682.417969	16342.118164
681.171875	16301.125977
679.927734	16306.345703
678.683594	16323.614258
677.437500	16290.676758
676.193359	16444.458984
674.947266	16367.349609
673.701172	16637.466797
672.455078	16558.343750
671.208984	16541.439453
669.962891	16167.493164
668.716797	16437.455078
667.470703	16512.818359
666.222656	16600.185547
664.976563	16543.195313
663.728516	16512.281250
662.480469	16405.230469
661.232422	16278.180664
659.984375	16357.496094
658.736328	16340.650391
657.488281	16469.988281
656.240234	16250.916992
654.990234	16366.211914
653.742188	16065.175781
652.492188	16420.587891
651.242188	16249.690430
649.992188	16078.852539
648.742188	15998.073242
647.492188	16177.277344
646.242188	15850.591797
644.992188	16029.757813
643.740234	15991.011719
642.490234	15834.379883
641.238281	16267.192383
639.986328	16126.545898
638.734375	16049.859375
637.482422	15839.407227
636.230469	15822.692383
634.978516	16103.417969
633.726563	15853.145508
632.472656	16039.978516
631.220703	15797.784180
629.966797	15775.103516
628.712891	16095.480469
627.458984	16166.480469
626.205078	16095.894531
624.951172	16228.665039
623.697266	16156.098633
622.443359	16099.499023
621.187500	16040.925781
619.933594	16307.080078
618.677734	16332.142578
617.421875	16205.850586
616.167969	16115.441406
614.912109	16317.693359
613.654297	16352.686523
612.398438	16222.496094
611.142578	16217.698242
609.884766	16503.341797
608.628906	16558.166016
607.371094	16724.332031
606.113281	16745.296875
604.857422	16847.757813
603.599609	16882.605469
602.339844	17006.867188
601.082031	16936.367188
599.824219	17249.296875
598.564453	17019.882813
597.306641	17142.044922
596.046875	17262.179688
594.787109	17380.285156
593.529297	17379.259766
592.269531	17467.537109
591.007813	17627.212891
589.748047	17536.871094
588.488281	17581.437500
587.226563	17683.496094
585.966797	17809.314453
584.705078	17837.947266
583.443359	17674.306641
582.183594	17916.982422
580.921875	17872.267578
579.658203	18063.314453
578.396484	18184.970703
577.134766	18106.564453
575.871094	18348.951172
574.609375	18181.457031
573.345703	18401.970703
572.082031	18432.423828
570.818359	18274.894531
569.554688	18416.142578
568.291016	18468.333984
567.027344	18514.572266
565.763672	18367.021484
564.498047	18446.869141
563.234375	18378.441406
561.968750	18499.759766
560.703125	18235.730469
559.437500	18386.664063
558.171875	18608.650391
556.906250	18605.423828
555.640625	18754.236328
554.375000	18549.615234
553.107422	18467.443359
551.839844	18633.962891
550.574219	18605.080078
549.306641	18684.710938
548.039063	18713.029297
546.771484	18500.734375
545.503906	18548.791016
544.236328	18433.199219
542.966797	18670.478516
541.699219	18734.244141
540.429688	18764.492188
539.160156	18717.892578
537.892578	18862.375000
536.623047	18707.457031
535.353516	18983.818359
534.082031	18651.746094
532.812500	18737.085938
531.542969	18838.138672
530.271484	18803.384766
529.001953	18935.869141
527.730469	19058.470703
526.458984	19063.029297
525.187500	19047.919922
523.916016	19164.539063
522.644531	19261.458984
521.373047	19321.003906
520.099609	19174.207031
518.828125	19357.515625
517.554688	19580.046875
516.281250	19468.628906
515.007813	19726.408203
513.734375	19532.544922
512.460938	19637.111328
511.187500	19604.261719
509.914063	19763.722656
508.638672	19817.183594
507.365234	19807.855469
506.089844	19739.693359
504.814453	20014.708984
503.541016	19862.228516
502.265625	20060.677734
500.988281	20233.578125
499.712891	19963.568359
498.437500	19950.302734
497.160156	20001.681641
495.884766	20201.888672
494.607422	20251.248047
493.330078	20286.882813
492.052734	20332.292969
490.775391	20234.816406
489.498047	20442.630859
488.220703	20352.992188
486.943359	20290.769531
485.664063	20054.503906
484.386719	20013.863281
483.107422	20329.064453
481.828125	20010.812500
480.548828	19960.425781
479.269531	20017.531250
477.990234	20178.162109
476.710938	20045.728516
475.429688	20153.566406
474.150391	19986.031250
472.869141	20013.792969
471.589844	19953.701172
470.308594	19794.093750
469.027344	19853.093750
467.746094	19777.451172
466.464844	19893.000000
465.181641	19715.958984
463.900391	19798.328125
462.617188	19931.357422
461.335938	19869.408203
460.052734	19883.492188
458.769531	19653.988281
457.486328	19625.238281
456.203125	19781.554688
454.919922	19908.601563
453.634766	19696.777344
452.351563	19757.595703
451.066406	19707.437500
449.783203	19918.095703
448.498047	19836.791016
447.212891	19977.308594
445.927734	19800.703125
444.642578	20065.652344
443.357422	19601.292969
442.070313	19953.673828
440.785156	20097.935547
439.498047	20061.392578
438.212891	20203.640625
436.925781	20054.404297
435.638672	20202.427734
434.351563	20350.400391
433.064453	20407.052734
431.775391	20347.193359
430.488281	20566.882813
429.199219	20629.289063
427.912109	20445.226563
426.623047	20610.457031
425.333984	20864.863281
424.044922	21031.902344
422.755859	21067.019531
421.466797	20952.833984
420.177734	20898.781250
418.886719	20840.871094
417.597656	20947.691406
416.306641	21093.224609
415.015625	21298.757813
413.724609	21329.906250
412.433594	21122.859375
411.142578	21303.105469
409.851563	21152.271484
408.560547	21365.353516
407.267578	21270.675781
405.976563	21253.423828
404.683594	21330.962891
403.390625	21331.109375
402.097656	21371.865234
400.804688	21354.603516
399.511719	21103.443359
398.218750	21381.941406
396.923828	21424.587891
395.630859	20939.765625
394.335938	21231.666016
393.042969	21195.126953
391.748047	21096.806641
390.453125	21004.312500
389.158203	20948.525391
387.861328	20863.808594
386.566406	21141.904297
385.271484	20783.208984
383.974609	20822.019531
382.677734	21028.613281
381.382813	20774.253906
380.085938	20849.677734
378.789063	20697.605469
377.492188	20539.802734
376.193359	20671.107422
374.896484	20652.083984
373.599609	20690.857422
372.300781	20394.490234
371.001953	20612.380859
369.705078	20645.363281
368.406250	20738.005859
367.107422	20543.841797
365.806641	20559.496094
364.507813	20577.070313
363.208984	20648.498047
361.908203	20685.279297
360.609375	20639.359375
359.308594	20689.587891
358.007813	20587.935547
356.707031	20609.322266
355.406250	20534.621094
354.105469	20494.527344
352.802734	20502.470703
351.501953	20652.539063
350.199219	20608.603516
348.898438	20464.843750
347.595703	20603.318359
346.292969	20469.205078
344.990234	20425.328125
343.687500	20368.037109
342.382813	20565.894531
341.080078	20464.484375
339.777344	20324.755859
338.472656	20572.363281
337.167969	20294.644531
335.863281	20256.595703
334.558594	20323.955078
333.253906	20213.109375
331.949219	20318.761719
330.644531	20232.851563
329.337891	20449.529297
328.033203	20551.255859
326.726563	20394.519531
325.419922	20352.671875
324.113281	20165.408203
322.806641	20131.267578
321.500000	20523.718750
320.193359	20485.701172
318.886719	20753.656250
317.578125	20648.693359
316.271484	20522.738281
314.962891	20408.292969
313.654297	20584.347656
312.345703	20513.873047
311.037109	20657.371094
309.728516	20430.296875
308.419922	20604.310547
307.109375	20415.505859
305.800781	20740.263672
304.490234	20791.980469
303.179688	20694.837891
301.869141	20861.017578
300.558594	20775.337891
299.248047	20975.773438
297.937500	20504.910156
296.625000	20934.109375
295.314453	20709.320313
294.001953	20698.068359
292.691406	20846.888672
291.378906	21008.992188
290.066406	20809.107422
288.753906	20616.910156
287.441406	20620.914063
286.126953	20442.142578
284.814453	20708.867188
283.500000	20709.044922
282.187500	20399.048828
280.873047	20633.294922
279.558594	20506.033203
278.244141	20717.353516
276.929688	20436.093750
275.615234	20348.859375
274.298828	20590.507813
272.984375	20508.974609
271.667969	20488.277344
270.351563	20414.388672
269.037109	20522.884766
267.720703	20471.804688
266.404297	20747.353516
265.085938	20377.292969
263.769531	20409.785156
262.453125	20510.589844
261.134766	20446.271484
259.816406	20539.445313
258.500000	20067.306641
257.181641	20414.652344
255.863281	20534.326172
254.544922	20348.718750
253.224609	20565.035156
251.906250	20366.216797
250.585938	20595.716797
249.267578	20434.853516
247.947266	20508.931641
246.626953	20442.833984
245.306641	20687.304688
243.986328	20585.226563
242.666016	20619.472656
241.345703	20604.498047
240.023438	20733.337891
238.703125	20742.941406
237.380859	20720.384766
236.058594	20735.660156
234.736328	20737.693359
233.414063	21049.779297
232.091797	20836.265625
230.769531	20777.800781
229.445313	20961.220703
228.123047	21027.443359
226.798828	21078.529297
225.476563	20774.541016
224.152344	20840.757813
222.828125	21024.001953
221.503906	21143.003906
220.177734	20922.253906
218.853516	21241.246094
217.527344	20913.017578
216.203125	21058.359375
214.876953	21060.318359
213.550781	21316.832031
212.224609	20988.818359
210.898438	21000.208984
209.572266	20938.095703
208.246094	21120.960938
206.917969	21188.839844
205.591797	21309.435547
204.263672	21209.642578
202.935547	21403.625000
201.609375	21539.177734
200.281250	21672.798828
198.951172	21509.021484
197.623047	21452.554688
196.294922	21791.179688
194.964844	21710.228516
193.636719	22050.570313
192.306641	22120.025391
190.976563	22142.455078
189.646484	22162.996094
188.316406	22345.152344
186.986328	22382.560547
185.654297	22397.410156
184.324219	22799.189453
182.992188	22652.451172
181.662109	22751.738281
180.330078	22961.751953
178.998047	23042.177734
177.666016	23150.724609
176.333984	23049.082031
175.000000	22795.515625
173.667969	23264.177734
172.333984	23102.554688
171.001953	23227.865234
169.667969	23429.994141
168.333984	23135.343750
167.000000	23076.923828
165.666016	23312.697266
164.332031	23497.804688
162.996094	23197.726563
161.662109	23493.277344
160.326172	23395.523438
158.992188	23432.587891
157.656250	23784.091797
156.320313	23487.964844
154.984375	23796.298828
153.646484	23949.250000
152.310547	23894.531250
150.974609	23862.271484
149.636719	24347.945313
148.298828	24212.796875
146.960938	24361.796875
145.625000	24323.869141
144.285156	24497.085938
142.947266	24399.363281
141.609375	24847.068359
140.271484	25135.878906
138.931641	25275.218750
137.591797	25276.365234
136.253906	25331.638672
134.914063	25569.771484
133.574219	25623.105469
132.232422	25915.201172
130.892578	25996.429688
129.552734	25859.445313
128.210938	26142.017578
126.871094	25773.898438
125.529297	26313.593750
124.187500	26312.681641
122.845703	26414.244141
121.503906	26458.021484
120.162109	26278.279297
118.818359	26353.718750
117.476563	26328.591797
116.132813	26277.410156
114.789063	26661.767578
113.447266	26478.421875
112.103516	26510.960938
110.759766	26389.091797
109.414063	26990.761719
108.070313	27237.041016
106.726563	27393.990234
105.380859	27162.369141
104.035156	27157.578125
102.689453	27017.132813
101.345703	27240.890625
99.998047	27687.480469
98.652344	27756.884766
97.306641	27755.699219
95.960938	28133.263672
94.613281	28098.597656
93.265625	28414.718750
91.919922	28515.474609
90.572266	28603.205078
89.224609	28395.962891
87.875000	28326.037109
86.527344	28803.160156
85.179688	28931.562500
83.830078	29032.113281
82.482422	28732.304688
81.132813	28310.304688
79.783203	28670.283203
78.433594	28522.587891
77.083984	28887.957031
75.734375	28886.556641
74.382813	28890.712891
73.033203	28452.462891
71.681641	28188.335938
70.330078	27985.363281
68.978516	27788.013672
67.626953	27525.988281
66.275391	27169.736328
64.923828	27013.310547
63.572266	26601.810547
62.218750	26674.744141
60.867188	26681.117188
59.513672	26085.113281
58.160156	25217.742188
56.806641	23944.308594
55.453125	23371.259766
54.099609	22536.216797
52.744141	22017.156250
51.390625	21356.152344
