#Wave		#Intensity
4002.106445	1714.572021
4001.408203	1893.546143
4000.709961	1767.980103
4000.010742	1803.479248
3999.312500	1821.078125
3998.613281	1745.664673
3997.914063	1731.077637
3997.215820	1752.255737
3996.516602	1798.455078
3995.816406	1844.639526
3995.117188	1826.471558
3994.417969	1797.588135
3993.717773	1750.848145
3993.018555	1889.897583
3992.318359	1753.857544
3991.618164	1814.290161
3990.917969	1767.577393
3990.217773	1792.285278
3989.517578	1767.009277
3988.817383	1756.017944
3988.117188	1787.852905
3987.416016	1819.677612
3986.715820	1737.334473
3986.014648	1872.595581
3985.313477	1865.162231
3984.612305	1950.439331
3983.911133	1743.348389
3983.209961	1732.374634
3982.507813	1778.428101
3981.806641	1842.283813
3981.105469	1870.490479
3980.403320	1912.937134
3979.701172	1862.766113
3978.999023	1684.410767
3978.296875	1769.593384
3977.594727	1861.868408
3976.892578	1697.836670
3976.190430	1779.417114
3975.487305	1910.786987
3974.785156	1775.287720
3974.082031	1735.874268
3973.378906	1771.160889
3972.675781	1777.988281
3971.972656	1891.475586
3971.269531	1763.197754
3970.566406	1819.782715
3969.862305	1894.117920
3969.159180	1741.029419
3968.455078	1776.275269
3967.751953	1829.269653
3967.047852	1750.844849
3966.343750	1857.088745
3965.639648	1881.642334
3964.935547	1902.638306
3964.230469	1753.269287
3963.526367	1710.405029
3962.821289	1724.322144
3962.117188	1809.183228
3961.412109	1759.236816
3960.707031	1769.593140
3960.001953	1889.863037
3959.296875	1744.208740
3958.591797	1864.443970
3957.885742	1676.312500
3957.180664	1789.433105
3956.474609	1774.974243
3955.769531	1767.604614
3955.063477	1792.112793
3954.357422	1646.637573
3953.651367	1816.321289
3952.945313	1876.209961
3952.238281	1918.382080
3951.532227	1719.896606
3950.825195	1786.848389
3950.119141	1829.014404
3949.412109	1885.315430
3948.705078	1888.549316
3947.998047	1785.700806
3947.291016	1856.123535
3946.583984	1778.057617
3945.876953	1869.664917
3945.168945	1756.283936
3944.461914	1798.400391
3943.753906	1808.709473
3943.045898	1826.079468
3942.337891	1712.778198
3941.629883	1811.369385
3940.921875	1856.973267
3940.213867	1796.668457
3939.504883	1831.672363
3938.796875	1796.091553
3938.087891	1781.690796
3937.379883	1742.601807
3936.670898	1869.292847
3935.961914	1854.887207
3935.252930	1861.640991
3934.543945	1716.806152
3933.833984	1776.450439
3933.125000	1765.592773
3932.415039	1849.875000
3931.706055	1831.963013
3930.996094	1761.220093
3930.286133	1767.981079
3929.576172	1809.953003
3928.866211	1830.786865
3928.156250	1809.371948
3927.445313	1756.287231
3926.735352	1805.271973
3926.024414	1783.871216
3925.314453	1815.246216
3924.603516	1839.576294
3923.892578	1733.777222
3923.181641	1789.758545
3922.470703	1796.502563
3921.758789	1750.517944
3921.047852	1943.536133
3920.335938	1785.095703
3919.625000	1819.943115
3918.913086	1826.676636
3918.201172	1854.481689
3917.489258	1752.344360
3916.777344	1787.174561
3916.065430	1846.567627
3915.352539	1800.640991
3914.640625	1789.823608
3913.927734	1779.009644
3913.215820	1761.182373
3912.502930	1764.407471
3911.790039	1823.746826
3911.077148	1781.374390
3910.364258	1770.570190
3909.650391	1766.780518
3908.937500	1780.516846
3908.224609	1804.761719
3907.510742	1730.891724
3906.796875	1734.117188
3906.083008	1887.957886
3905.369141	1782.590576
3904.655273	1782.304443
3903.941406	1824.030640
3903.227539	1739.727051
3902.512695	1942.441650
3901.798828	1784.659912
3901.083984	1829.857544
3900.369141	1829.563965
3899.654297	1752.322021
3898.939453	1731.058350
3898.224609	1807.704102
3897.509766	1786.438232
3896.793945	1719.738892
3896.079102	1855.761841
3895.363281	1897.395386
3894.648438	1799.266724
3893.932617	1809.457520
3893.216797	1760.270752
3892.500977	1777.448486
3891.784180	1826.043945
3891.068359	1822.260010
3890.352539	1870.832642
3889.635742	1821.675293
3888.918945	1870.232300
3888.203125	1824.579346
3887.486328	1827.774780
3886.769531	1740.292480
3886.051758	1844.623291
3885.334961	1750.193359
3884.618164	1851.003052
3883.900391	1882.073975
3883.183594	1846.924438
3882.465820	1700.291504
3881.748047	1696.535034
3881.030273	1853.001709
3880.312500	1842.256836
3879.594727	1803.659668
3878.875977	1862.554199
3878.158203	1834.408569
3877.439453	1757.547852
3876.721680	1882.536255
3876.002930	1805.692383
3875.284180	1840.188843
3874.565430	1819.025269
3873.846680	1856.985962
3873.127930	1808.010864
3872.408203	1814.673584
3871.689453	1800.479126
3870.969727	1852.319336
3870.250000	1869.395752
3869.530273	1876.044189
3868.810547	1889.637695
3868.090820	1757.358887
3867.371094	1843.889160
3866.651367	1822.761719
3865.930664	1867.597168
3865.210938	1738.877441
3864.490234	1808.003662
3863.769531	1717.501465
3863.048828	1751.917358
3862.328125	1723.887695
3861.607422	1869.268433
3860.886719	1737.204590
3860.165039	1771.595093
3859.444336	1809.440918
3858.722656	1812.616455
3858.000977	1836.582397
3857.279297	1902.117065
3856.557617	1853.313965
3855.835938	1742.182129
3855.114258	1818.089233
3854.392578	1807.410156
3853.669922	1751.729614
3852.948242	1855.289551
3852.225586	1782.314941
3851.502930	1854.694336
3850.780273	1788.662720
3850.057617	1788.375854
3849.334961	1788.088989
3848.612305	1794.718262
3847.888672	1880.867310
3847.166016	1852.910278
3846.442383	1745.465698
3845.718750	1765.920654
3844.995117	1769.092651
3844.271484	1906.997192
3843.547852	1816.883423
3842.824219	1719.891235
3842.100586	1757.598877
3841.375977	1878.154175
3840.651367	1719.063965
3839.927734	1836.135254
3839.203125	1825.488281
3838.478516	1832.096069
3837.753906	1755.908325
3837.029297	1762.525146
3836.303711	1831.214722
3835.579102	1882.641968
3834.853516	1906.472656
3834.128906	1851.015625
3833.403320	1892.075684
3832.677734	1895.218018
3831.952148	1798.445801
3831.226563	1842.939087
3830.500000	1766.871338
3829.774414	1876.784424
3829.047852	1769.747803
3828.322266	1755.693848
3827.595703	1858.671875
3826.869141	1820.518066
3826.142578	1827.107788
3825.416016	1802.732544
3824.689453	1829.961670
3823.961914	1846.864380
3823.235352	1760.601440
3822.507813	1863.462769
3821.781250	1825.350708
3821.053711	1825.057983
3820.326172	1769.781860
3819.598633	1862.267822
3818.871094	1858.533936
3818.142578	1751.756592
3817.415039	1851.069458
3816.686523	1940.049194
3815.958984	1809.277832
3815.230469	1706.009277
3814.501953	1849.882446
3813.773438	1808.407715
3813.044922	1907.615723
3812.316406	1869.575317
3811.586914	1814.397705
3810.858398	1772.955078
3810.128906	1834.388550
3809.399414	1765.530151
3808.669922	1936.630249
3807.940430	1819.797852
3807.210938	1881.184326
3806.481445	1760.972168
3805.751953	1856.602905
3805.021484	1835.755737
3804.291992	1886.826904
3803.561523	1814.624268
3802.831055	1780.100586
3802.100586	1817.465088
3801.370117	1899.305908
3800.639648	2022.179810
3799.909180	1796.064697
3799.177734	1795.776733
3798.447266	1891.248291
3797.715820	1812.298096
3796.984375	1842.777588
3796.252930	1873.247192
3795.521484	1838.768921
3794.790039	1787.215576
3794.058594	1783.512451
3793.327148	1820.804077
3792.594727	1871.746094
3791.862305	1840.710571
3791.130859	1898.462036
3790.398438	1792.325195
3789.666016	1754.490356
3788.933594	1938.503418
3788.201172	1839.235718
3787.467773	1883.293823
3786.735352	1825.001221
3786.001953	1940.671387
3785.268555	1913.079346
3784.536133	1895.724854
3783.802734	1827.240356
3783.069336	1840.581299
3782.334961	1795.983154
3781.601563	1874.065186
3780.868164	1853.323730
3780.133789	1771.275513
3779.399414	1798.237549
3778.666016	1879.674316
3777.931641	1862.349731
3777.197266	1763.331787
3776.462891	1827.717041
3775.727539	1820.617920
3774.993164	1946.217896
3774.257813	1843.847900
3773.523438	1833.348145
3772.788086	1890.868652
3772.052734	1938.169800
3771.317383	1784.870239
3770.582031	1866.165161
3769.846680	1818.284668
3769.110352	1848.576294
3768.375000	1787.123657
3767.638672	1902.336182
3766.903320	1830.705200
3766.166992	1925.498047
3765.430664	1813.141357
3764.694336	1856.983887
3763.958008	1853.291870
3763.220703	1873.357422
3762.484375	1822.158813
3761.747070	1855.793579
3761.010742	1821.574829
3760.273438	1790.758545
3759.536133	1898.984985
3758.798828	1800.356079
3758.061523	1833.967163
3757.323242	1847.230835
3756.585938	1806.268311
3755.847656	1880.522095
3755.110352	1826.016113
3754.372070	1839.272461
3753.633789	1910.098267
3752.895508	1913.178345
3752.157227	1882.401245
3751.418945	1817.783203
3750.679688	1915.643188
3749.941406	1891.648193
3749.202148	1843.976807
3748.462891	1870.744507
3747.723633	1917.797729
3746.984375	1927.635864
3746.245117	1849.557617
3745.505859	1771.504272
3744.766602	1930.089478
3744.026367	1923.020752
3743.287109	1855.130493
3742.546875	1902.133057
3741.806641	1888.316162
3741.066406	1817.086426
3740.326172	1901.218750
3739.585938	1958.312866
3738.845703	1846.595703
3738.104492	1819.297119
3737.364258	1913.499390
3736.623047	1872.701904
3735.881836	1869.028076
3735.140625	1946.311157
3734.399414	1925.763550
3733.658203	1962.547852
3732.916992	1881.316528
3732.174805	1867.531006
3731.433594	1850.379517
3730.691406	1971.399902
3729.949219	1964.345215
3729.207031	1886.547241
3728.464844	1849.193726
3727.722656	1899.413696
3726.980469	1885.640381
3726.237305	1929.104980
3725.495117	1905.232910
3724.751953	1864.540527
3724.008789	1975.288574
3723.266602	1897.588135
3722.523438	1957.835693
3721.779297	1933.977905
3721.036133	1960.571167
3720.292969	1929.995728
3719.548828	1939.771973
3718.805664	1915.932129
3718.061523	1918.985840
3717.317383	1925.398804
3716.573242	1928.449951
3715.829102	1911.345215
3715.084961	1951.342163
3714.339844	1977.893921
3713.595703	1980.934448
3712.850586	1943.690308
3712.106445	1950.091675
3711.361328	1963.202881
3710.616211	1895.781006
3709.871094	1969.283325
3709.125977	1861.630615
3708.379883	1965.298584
3707.634766	1907.979004
3706.888672	1911.026001
3706.143555	1904.015503
3705.397461	1840.029907
3704.651367	1946.969238
3703.905273	1963.409912
3703.159180	1999.945190
3702.412109	2059.915039
3701.666016	1939.023804
3700.918945	1988.938843
3700.172852	2038.837891
3699.425781	1974.912354
3698.678711	1904.313599
3697.931641	2064.627930
3697.184570	2020.802979
3696.436523	1997.062988
3695.689453	2013.466187
3694.942383	1936.229492
3694.194336	2006.133911
3693.446289	1959.010132
3692.698242	1945.326416
3691.950195	2038.589233
3691.202148	2014.872681
3690.454102	2131.480713
3689.705078	1947.420288
3688.957031	1993.865601
3688.208008	2067.010010
3687.459961	2070.017578
3686.710938	2079.700684
3685.961914	2166.146729
3685.212891	2095.719971
3684.462891	1968.593384
3683.713867	2028.327148
3682.963867	2028.002075
3682.214844	2101.047119
3681.464844	2137.389648
3680.714844	2030.361450
3679.964844	2016.702515
3679.214844	2016.379395
3678.464844	2162.678711
3677.713867	2099.028076
3676.963867	2025.404175
3676.212891	2008.426025
3675.462891	2084.698730
3674.711914	2074.375732
3673.960938	2127.309326
3673.209961	2150.268555
3672.458984	2133.283691
3671.707031	2189.509766
3670.956055	2142.581299
3670.204102	2065.729492
3669.452148	2038.791138
3668.701172	2131.575439
3667.949219	2164.482422
3667.197266	2084.351807
3666.444336	2004.246948
3665.692383	2176.735352
3664.940430	2046.800293
3664.187500	2079.694336
3663.434570	2159.081055
3662.681641	2188.625244
3661.929688	2184.954102
3661.175781	2234.405029
3660.422852	2273.881348
3659.669922	2286.793213
3658.916992	2160.324951
3658.163086	2232.973389
3657.409180	2388.533936
3656.655273	2099.583008
3655.902344	2221.951416
3655.147461	2244.805908
3654.393555	2254.392334
3653.639648	2290.493408
3652.885742	2266.926758
3652.130859	2167.152832
3651.375977	2375.534668
3650.622070	2302.276367
3649.867188	2255.538086
3649.112305	2271.734619
3648.356445	2268.059570
3647.601563	2198.175781
3646.846680	2323.602539
3646.090820	2303.373535
3645.334961	2352.638428
3644.580078	2355.569824
3643.824219	2322.113770
3643.068359	2325.049072
3642.312500	2430.494141
3641.555664	2413.573486
3640.799805	2433.021240
3640.042969	2366.527344
3639.287109	2309.968750
3638.530273	2392.202148
3637.773438	2428.158691
3637.016602	2536.771729
3636.259766	2331.606689
3635.501953	2291.608643
3634.745117	2334.161133
3633.988281	2346.990967
3633.230469	2488.534180
3632.472656	2369.338623
3631.714844	2477.838623
3630.957031	2447.751953
3630.199219	2411.078369
3629.441406	2509.625977
3628.682617	2294.901367
3627.924805	2367.062012
3627.166016	2488.642822
3626.407227	2468.469971
3625.649414	2484.550293
3624.890625	2497.330811
3624.130859	2483.754395
3623.372070	2516.292236
3622.613281	2486.251465
3621.853516	2551.703613
3621.094727	2478.871094
3620.334961	2448.850830
3619.575195	2445.167480
3618.815430	2411.871582
3618.055664	2421.354980
3617.294922	2496.622314
3616.535156	2561.998779
3615.775391	2482.669189
3615.014648	2534.875732
3614.253906	2623.225586
3613.493164	2606.371582
3612.732422	2569.805908
3611.971680	2589.108154
3611.210938	2503.279785
3610.449219	2588.278809
3609.688477	2630.557373
3608.926758	2557.897461
3608.166016	2495.109863
3607.404297	2596.468018
3606.642578	2589.488281
3605.879883	2661.265381
3605.118164	2595.220459
3604.356445	2581.683105
3603.593750	2564.870117
3602.832031	2666.119141
3602.069336	2577.163574
3601.306641	2625.925293
3600.543945	2632.060303
3599.781250	2746.342773
3599.018555	2736.072510
3598.254883	2660.281250
3597.492188	2728.644531
3596.728516	2620.127197
3595.964844	2652.453857
3595.201172	2586.546631
3594.437500	2615.594482
3593.673828	2592.264160
3592.910156	2680.207275
3592.146484	2722.313965
3591.381836	2698.977539
3590.617188	2446.680908
3589.853516	2796.226074
3589.088867	2609.392822
3588.324219	2576.281006
3587.559570	2670.665283
3586.793945	2650.627441
3586.029297	2676.345459
3585.263672	2643.243652
3584.499023	2639.553467
3583.733398	2609.734375
3582.967773	2511.344482
3582.202148	2726.445557
3581.436523	2598.686279
3580.670898	2634.175537
3579.904297	2669.653564
3579.138672	2783.434814
3578.372070	2678.585938
3577.605469	2834.736084
3576.838867	2625.543213
3576.072266	2589.251221
3575.305664	2592.096924
3574.539063	2643.841309
3573.771484	2662.974609
3573.004883	2646.253174
3572.237305	2766.390381
3571.469727	2619.342285
3570.703125	2570.062256
3569.935547	2677.126221
3569.166992	2565.982422
3568.399414	2702.314941
3567.631836	2630.265869
3566.863281	2678.666016
3566.094727	2593.626709
3565.327148	2632.255615
3564.558594	2654.606445
3563.790039	2592.380371
3563.021484	2630.990723
3562.251953	2614.311035
3561.483398	2581.381104
3560.713867	2616.724121
3559.945313	2512.302734
3559.175781	2583.390381
3558.406250	2670.700195
3557.636719	2602.053711
3556.867188	2562.660889
3556.096680	2649.931885
3555.327148	2652.754395
3554.556641	2486.761719
3553.787109	2586.986328
3553.016602	2638.498047
3552.246094	2524.505127
3551.475586	2442.991943
3550.705078	2507.477051
3549.933594	2610.861084
3549.163086	2587.743408
3548.391602	2525.725586
3547.621094	2560.980225
3546.849609	2447.126953
3546.078125	2608.770264
3545.306641	2543.548584
3544.535156	2646.810547
3543.762695	2549.211914
3542.991211	2597.383057
3542.218750	2548.395264
3541.446289	2538.274170
3540.674805	2576.712402
3539.902344	2479.202881
3539.129883	2647.079590
3538.356445	2594.887207
3537.583984	2558.886475
3536.811523	2623.166260
3536.038086	2438.409912
3535.264648	2425.085449
3534.491211	2492.588379
3533.717773	2511.583496
3532.944336	2562.891357
3532.170898	2468.770996
3531.397461	2497.453125
3530.623047	2593.963135
3529.849609	2522.491455
3529.075195	2641.571533
3528.300781	2369.930176
3527.526367	2472.855225
3526.751953	2449.864746
3525.977539	2497.880615
3525.202148	2603.962158
3524.427734	2539.020996
3523.652344	2461.197754
3522.876953	2480.154297
3522.101563	2441.061279
3521.326172	2489.032227
3520.550781	2569.223877
3519.775391	2552.696533
3519.000000	2478.168213
3518.223633	2468.104980
3517.447266	2519.254395
3516.671875	2483.419189
3515.895508	2431.492920
3515.119141	2511.603516
3514.342773	2446.811279
3513.565430	2575.178223
3512.789063	2529.707275
3512.011719	2529.302002
3511.235352	2561.070801
3510.458008	2473.803955
3509.680664	2447.676514
3508.903320	2399.046143
3508.125977	2430.815430
3507.347656	2530.086182
3506.570313	2378.607178
3505.791992	2403.936523
3505.014648	2490.310547
3504.236328	2409.591797
3503.458008	2518.423096
3502.679688	2482.690186
3501.901367	2427.701172
3501.122070	2472.262451
3500.343750	2439.764160
3499.564453	2516.406006
3498.786133	2499.956787
3498.006836	2502.764893
3497.227539	2476.698730
3496.448242	2521.208740
3495.668945	2427.798096
3494.888672	2453.062012
3494.109375	2420.607910
3493.329102	2445.864746
3492.548828	2326.885010
3491.769531	2419.444580
3490.989258	2428.668945
3490.208008	2415.465576
3489.427734	2392.657471
3488.647461	2424.299072
3487.866211	2459.132568
3487.085938	2349.888184
3486.304688	2579.981445
3485.523438	2438.747803
3484.742188	2447.957031
3483.960938	2325.986328
3483.179688	2418.382324
3482.397461	2395.605957
3481.616211	2411.211426
3480.833984	2378.851318
3480.051758	2410.438721
3479.269531	2339.732666
3478.487305	2457.604004
3477.705078	2517.921387
3476.922852	2348.192383
3476.139648	2497.948730
3475.357422	2462.416504
3474.574219	2423.702637
3473.791016	2362.651611
3473.007813	2371.849609
3472.224609	2594.892090
3471.441406	2428.531982
3470.658203	2367.518799
3469.874023	2355.982666
3469.090820	2344.446777
3468.306641	2332.910645
3467.522461	2321.374512
3466.738281	2309.838623
3465.954102	2298.302490
3465.169922	2336.179932
3464.385742	2425.031494
3463.600586	2329.059082
3462.815430	2382.841309
3462.031250	2493.938232
3461.246094	2362.969971
3460.460938	2474.034424
3459.675781	2330.376953
3458.890625	2368.200195
3458.104492	2383.733643
3457.319336	2389.715576
3456.533203	2402.058838
3455.747070	2385.768799
3454.960938	2356.761719
3454.174805	2353.204102
3453.388672	2524.519531
3452.602539	2425.566406
3451.815430	2425.177734
3451.029297	2351.695801
3450.242188	2386.270996
3449.455078	2424.011963
3448.667969	2379.153320
3447.880859	2394.651611
3447.093750	2457.776367
3446.306641	2428.808105
3445.518555	2456.988525
3444.731445	2339.160645
3443.943359	2373.692871
3443.155273	2293.990479
3442.367188	2265.071533
3441.579102	2359.864502
3440.791016	2419.741943
3440.002930	2390.816406
3439.213867	2288.982422
3438.425781	2412.239014
3437.636719	2370.651123
3436.847656	2478.010742
3436.058594	2423.752441
3435.269531	2258.638672
3434.480469	2410.306396
3433.690430	2381.418945
3432.901367	2263.885254
3432.111328	2415.479004
3431.321289	2237.837402
3430.531250	2436.858154
3429.741211	2325.718994
3428.951172	2385.457275
3428.161133	2299.667725
3427.370117	2280.322754
3426.580078	2295.768311
3425.789063	2308.047119
3424.998047	2418.319336
3424.207031	2351.557129
3423.416016	2389.102295
3422.625000	2413.996826
3421.833984	2394.654785
3421.041992	2403.747070
3420.250977	2337.040283
3419.458984	2349.296387
3418.666992	2304.719727
3417.875000	2326.446777
3417.083008	2294.512451
3416.291016	2316.234131
3415.498047	2265.380859
3414.706055	2375.429443
3413.913086	2425.514404
3413.120117	2327.363770
3412.327148	2298.612793
3411.534180	2348.685791
3410.741211	2313.636230
3409.948242	2288.052734
3409.155273	2183.700195
3408.361328	2340.878906
3407.567383	2390.904785
3406.774414	2299.184082
3405.980469	2270.474121
3405.186523	2263.812988
3404.391602	2307.522705
3403.597656	2307.152832
3402.803711	2322.518311
3402.008789	2237.189209
3401.213867	2208.516357
3400.418945	2264.781738
3399.624023	2239.258545
3398.829102	2270.344727
3398.034180	2282.556885
3397.239258	2216.177246
3396.443359	2278.682129
3395.648438	2356.879395
3394.852539	2243.389404
3394.056641	2258.737305
3393.260742	2289.785156
3392.464844	2374.211426
3391.667969	2395.810547
3390.872070	2207.057373
3390.075195	2244.371338
3389.279297	2281.673340
3388.482422	2249.927734
3387.685547	2262.116943
3386.888672	2233.521484
3386.091797	2201.798828
3385.293945	2192.037842
3384.497070	2266.937500
3383.699219	2307.328369
3382.902344	2300.689453
3382.104492	2174.962646
3381.306641	2165.213623
3380.508789	2315.247803
3379.709961	2205.240967
3378.912109	2254.998535
3378.113281	2210.796875
3377.315430	2229.228027
3376.516602	2282.087891
3375.717773	2209.733643
3374.918945	2196.861572
3374.120117	2205.895996
3373.321289	2211.799316
3372.521484	2252.107666
3371.722656	2273.638428
3370.922852	2295.162354
3370.123047	2276.035889
3369.323242	2219.404297
3368.523438	2194.044922
3367.723633	2196.818115
3366.922852	2308.944824
3366.123047	2280.459473
3365.322266	2177.020996
3364.522461	2164.180176
3363.721680	2195.057373
3362.920898	2219.680664
3362.120117	2238.053223
3361.318359	2265.782471
3360.517578	2199.890625
3359.715820	2252.576172
3358.915039	2277.170410
3358.113281	2208.189209
3357.311523	2214.071777
3356.509766	2288.546631
3355.708008	2278.827393
3354.905273	2262.877441
3354.103516	2253.165283
3353.300781	2196.717529
3352.499023	2155.864990
3351.696289	2143.059570
3350.893555	2223.690674
3350.090820	2316.751465
3349.287109	2257.224854
3348.484375	2241.298340
3347.681641	2219.152100
3346.877930	2169.005371
3346.074219	2209.105957
3345.270508	2305.190186
3344.466797	2158.630859
3343.663086	2239.142578
3342.859375	2201.470459
3342.054688	2225.988770
3341.250977	2250.499023
3340.446289	2240.814209
3339.641602	2268.421875
3338.836914	2146.887695
3338.032227	2165.181885
3337.227539	2164.834717
3336.421875	2145.854980
3335.617188	2198.294678
3334.811523	2266.239746
3334.006836	2200.693359
3333.201172	2237.581787
3332.395508	2116.208008
3331.589844	2109.663818
3330.783203	2220.995605
3329.977539	2186.523193
3329.170898	2235.787842
3328.365234	2300.538818
3327.558594	2210.270996
3326.751953	2293.601807
3325.945313	2268.442383
3325.138672	2168.927490
3324.331055	2239.832764
3323.524414	2127.964600
3322.716797	2211.241455
3321.909180	2204.693848
3321.101563	2151.708496
3320.293945	2210.177490
3319.486328	2098.403320
3318.678711	2178.523682
3317.871094	2230.772217
3317.062500	2149.983154
3316.253906	2134.173340
3315.446289	2223.513672
3314.637695	2133.488525
3313.829102	2232.074951
3313.019531	2216.261719
3312.210938	2117.009521
3311.402344	2212.460693
3310.592773	2137.957031
3309.783203	2196.305664
3308.973633	2050.791748
3308.164063	2143.104248
3307.354492	2192.161133
3306.544922	2204.157715
3305.735352	2179.111572
3304.924805	2237.397217
3304.114258	2150.642334
3303.304688	2267.530273
3302.494141	2156.121582
3301.683594	2171.196045
3300.872070	2210.934326
3300.061523	2266.075439
3299.250977	2234.885742
3298.439453	2142.063965
3297.627930	2228.005371
3296.816406	2227.647949
3296.004883	2137.952393
3295.193359	2165.330566
3294.381836	2140.346191
3293.570313	2087.657227
3292.757813	2235.097412
3291.945313	2090.065430
3291.133789	2215.914063
3290.321289	2058.623291
3289.508789	2218.279785
3288.695313	2211.771484
3287.882813	2076.086426
3287.070313	2171.084229
3286.256836	2124.615479
3285.443359	2050.493652
3284.629883	2197.702637
3283.816406	2255.741211
3283.002930	2209.288330
3282.189453	2141.344727
3281.375000	2251.583740
3280.561523	2079.232666
3279.747070	2128.031006
3278.932617	2189.094727
3278.119141	2151.906250
3277.303711	2160.768799
3276.489258	2203.384766
3275.674805	2126.323975
3274.859375	2214.948975
3274.044922	2094.968506
3273.229492	2128.367432
3272.414063	2241.479492
3271.598633	2081.696777
3270.783203	2182.518799
3269.967773	2139.260742
3269.151367	2160.367920
3268.335938	2147.765625
3267.519531	2080.026855
3266.703125	2125.636230
3265.886719	2103.858398
3265.070313	2183.129883
3264.253906	2149.104004
3263.437500	2139.576416
3262.620117	2111.689209
3261.803711	2178.668701
3260.986328	2111.011475
3260.168945	2165.733643
3259.351563	2143.976807
3258.534180	2131.400879
3257.715820	2158.575928
3256.898438	2176.571533
3256.080078	2105.922852
3255.262695	2175.872803
3254.444336	2089.969238
3253.625977	2098.798828
3252.807617	2077.080322
3251.989258	2174.476074
3251.169922	2125.270264
3250.351563	2106.610596
3249.532227	2133.745605
3248.712891	2209.705078
3247.893555	2181.886230
3247.074219	2102.207275
3246.254883	2123.224121
3245.435547	2138.133789
3244.616211	2006.656494
3243.795898	2164.889648
3242.975586	2124.909668
3242.155273	2106.279541
3241.334961	2209.562256
3240.514648	2148.263916
3239.694336	2154.012451
3238.874023	2153.666504
3238.052734	2202.052246
3237.231445	2143.839600
3236.411133	2094.779541
3235.589844	2176.637939
3234.768555	2145.850830
3233.946289	2063.337891
3233.125000	2190.803711
3232.303711	2032.252563
3231.481445	2056.260742
3230.659180	2235.368408
3229.836914	2128.580322
3229.014648	2094.794922
3228.192383	2112.697754
3227.370117	1966.468872
3226.547852	2075.552734
3225.724609	2154.217529
3224.901367	2223.743408
3224.078125	2056.328613
3223.255859	2195.697021
3222.431641	2098.178467
3221.608398	2106.949463
3220.785156	2158.213867
3219.960938	2115.377686
3219.137695	2145.382813
3218.313477	2202.684326
3217.489258	2062.789063
3216.665039	2129.184326
3215.840820	2022.703613
3215.015625	2192.173828
3214.191406	2113.000977
3213.366211	2103.568359
3212.541992	2154.750732
3211.716797	2105.923096
3210.891602	2114.673584
3210.066406	2184.004150
3209.241211	2135.195068
3208.415039	2116.683105
3207.589844	2149.647705
3206.763672	2097.840088
3205.937500	2067.236328
3205.111328	2106.245117
3204.285156	2099.855225
3203.458984	2138.846191
3202.632813	2259.492920
3201.805664	1965.775879
3200.978516	2098.506592
3200.152344	2110.262695
3199.325195	2176.425781
3198.498047	2157.942139
3197.670898	2145.508301
3196.842773	2142.142334
3196.015625	2075.339111
3195.187500	2084.066895
3194.360352	2165.269531
3193.532227	2131.708008
3192.704102	2128.346680
3191.875977	2185.355225
3191.046875	2154.824707
3190.218750	2199.740723
3189.389648	2199.387207
3188.561523	2117.588379
3187.732422	2120.264160
3186.903320	2150.078857
3186.074219	2110.537842
3185.245117	2218.723389
3184.415039	2185.211914
3183.585938	2088.425781
3182.755859	2097.129639
3181.926758	2078.716797
3181.096680	2135.613770
3180.266602	2111.177246
3179.435547	2201.173584
3178.605469	2104.477539
3177.775391	2031.894409
3176.944336	2218.171143
3176.113281	2205.777832
3175.283203	2136.221924
3174.452148	2217.102295
3173.620117	2237.800781
3172.789063	2132.185059
3171.958008	2164.917725
3171.125977	2245.741211
3170.294922	2059.016846
3169.462891	2094.750488
3168.630859	2160.521729
3167.798828	2133.135010
3166.966797	2123.780273
3166.133789	2174.497803
3165.301758	2183.157227
3164.468750	2083.724365
3163.635742	2149.433594
3162.802734	2185.106445
3161.969727	2073.717041
3161.136719	2145.397217
3160.303711	2154.052490
3159.469727	2096.714111
3158.636719	2213.342529
3157.802734	2090.043213
3156.968750	2134.679443
3156.134766	2104.359863
3155.300781	2199.931396
3154.466797	2157.624023
3153.631836	2163.269775
3152.797852	2100.011719
3151.962891	2111.655273
3151.127930	2195.169434
3150.292969	2167.868164
3149.458008	2152.550537
3148.623047	2194.111328
3147.788086	2127.916016
3146.952148	2175.451904
3146.117188	2225.964355
3145.281250	2117.915771
3144.445313	2147.484619
3143.609375	2114.244629
3142.773438	2101.945068
3141.936523	2137.480957
3141.100586	2104.258301
3140.263672	2223.460938
3139.426758	2115.534180
3138.590820	2145.069580
3137.753906	2135.763672
3136.916016	2135.420410
3136.079102	2147.021484
3135.242188	2033.222046
3134.404297	2110.509521
3133.566406	2098.231445
3132.729492	2151.609863
3131.891602	2055.784912
3131.052734	2121.085693
3130.214844	2129.692871
3129.376953	2045.846680
3128.538086	2060.426758
3127.700195	2077.983398
3126.861328	2161.113037
3126.022461	2226.333740
3125.183594	2047.182617
3124.343750	2109.421143
3123.504883	2097.166260
3122.666016	2075.979980
3121.826172	2251.346436
3120.986328	2161.659668
3120.146484	2149.404053
3119.306641	2193.706543
3118.466797	2089.191895
3117.626953	2035.295532
3116.786133	2139.096680
3115.946289	2245.839111
3115.105469	2156.253906
3114.264648	2117.249512
3113.423828	2155.560547
3112.583008	2146.295654
3111.741211	2137.033936
3110.900391	2104.000977
3110.058594	2127.432861
3109.217773	2162.740234
3108.375977	2043.579712
3107.534180	2153.135254
3106.692383	2132.003418
3105.849609	2116.816162
3105.007813	2193.654541
3104.165039	2249.692383
3103.323242	2065.348389
3102.480469	2112.487793
3101.637695	2103.248779
3100.794922	2105.876465
3099.952148	2093.675537
3099.108398	2108.164307
3098.265625	2158.223145
3097.421875	2122.306641
3096.578125	2006.383423
3095.734375	2047.545044
3094.890625	2038.327637
3094.046875	2058.735352
3093.203125	2055.442383
3092.358398	2158.755859
3091.513672	2075.506836
3090.669922	2202.466064
3089.825195	2051.160400
3088.980469	2086.342773
3088.134766	2133.349121
3087.290039	2076.796387
3086.445313	2043.925293
3085.599609	2229.915771
3084.753906	2199.987305
3083.908203	2107.981934
3083.062500	2101.730713
3082.216797	2083.659424
3081.371094	2112.875000
3080.524414	2106.625977
3079.678711	2067.883545
3078.832031	2141.391846
3077.985352	2111.515625
3077.138672	1990.115601
3076.291992	2134.454102
3075.445313	2119.352051
3074.597656	1986.203979
3073.750977	2098.014648
3072.903320	2091.776367
3072.055664	2203.533936
3071.208008	2008.520996
3070.360352	2046.533447
3069.512695	2229.006348
3068.665039	2013.447510
3067.816406	2051.440674
3066.967773	2092.368652
3066.120117	2106.764648
3065.271484	2159.454346
3064.421875	2111.977783
3063.573242	2152.869385
3062.724609	2087.741211
3061.875000	2158.064941
3061.026367	2066.463623
3060.176758	2124.995117
3059.327148	2009.886597
3058.477539	2027.216675
3057.627930	2156.329102
3056.777344	2061.860107
3055.927734	2026.238159
3055.077148	2078.838623
3054.226563	2005.006836
3053.375977	2016.441772
3052.525391	2033.750977
3051.674805	2109.823975
3050.824219	2121.236328
3049.972656	2129.707520
3049.122070	2164.609375
3048.270508	2061.480713
3047.418945	2108.126709
3046.567383	2210.534668
3045.715820	2081.031738
3044.864258	2071.892578
3044.011719	2159.585693
3043.159180	2071.225586
3042.307617	2023.959839
3041.455078	2105.752686
3040.602539	2079.022705
3039.750000	2055.233154
3038.896484	2025.588379
3038.043945	2092.673340
3037.190430	2165.597656
3036.337891	2130.089355
3035.484375	2053.579346
3034.630859	2062.035889
3033.777344	1976.775879
3032.922852	2102.365234
3032.069336	2151.796143
3031.214844	2119.251221
3030.361328	2177.443604
3029.506836	2022.004395
3028.652344	2080.193359
3027.797852	2135.438477
3026.942383	1895.262085
3026.087891	2055.794189
3025.232422	2046.691772
3024.377930	2043.438843
3023.522461	2040.186890
3022.666992	1943.418091
3021.811523	2059.983643
3020.955078	2021.672607
3020.099609	1977.531738
3019.243164	2213.778076
3018.387695	2026.536377
3017.531250	2046.647339
3016.674805	2052.156006
3015.818359	2089.768311
3014.961914	2051.495117
3014.104492	1998.645630
3013.248047	1980.820190
3012.390625	2094.256104
3011.533203	2079.337158
3010.675781	2128.571777
3009.818359	2122.398193
3008.960938	1996.715210
3008.102539	2107.142578
3007.245117	2086.405273
3006.386719	2059.847656
3005.528320	2053.689941
3004.669922	2070.834473
3003.811523	2073.413086
3002.953125	2140.046631
3002.094727	2034.900269
3001.235352	2034.572510
3000.376953	2121.551514
2999.517578	2057.195068
2998.658203	2033.589478
2997.798828	2073.985352
2996.939453	2044.567749
2996.079102	2047.146362
2995.219727	2087.520264
2994.359375	2061.021484
2993.499023	2086.847900
2992.638672	2066.169678
2991.778320	2091.986572
2990.917969	2129.415527
2990.057617	2044.838989
2989.196289	2154.866699
2988.335938	2122.579102
2987.474609	2122.237305
2986.613281	2049.327148
2985.751953	2040.290161
2984.890625	2008.041626
2984.028320	2091.856689
2983.166992	2097.321289
2982.304688	2091.182617
2981.442383	2087.945801
2980.580078	2052.815918
2979.717773	2058.282959
2978.855469	2118.820313
2977.993164	2121.376953
2977.129883	2028.312378
2976.267578	2013.500000
2975.404297	2111.661865
2974.541016	2064.982422
2973.677734	2006.735352
2972.814453	2139.593750
2971.950195	1980.035522
2971.086914	2179.424561
2970.222656	2181.967285
2969.358398	2022.479248
2968.494141	2114.726807
2967.629883	1992.902832
2966.765625	2105.369385
2965.901367	2052.982666
2965.036133	2096.017578
2964.171875	2092.789063
2963.306641	2017.308594
2962.441406	1956.300537
2961.576172	2042.661133
2960.710938	2120.327637
2959.844727	2105.544434
2958.979492	2108.093018
2958.113281	2099.091064
2957.248047	2098.752930
2956.381836	2199.438477
2955.515625	2190.426270
2954.648438	2091.967041
2953.782227	2106.054932
2952.915039	2099.946289
2952.048828	2189.014160
2951.181641	2061.782471
2950.314453	2032.618652
2949.447266	2084.179199
2948.580078	2138.605225
2947.712891	2060.453125
2946.844727	2149.440918
2945.976563	2082.835449
2945.109375	2062.337158
2944.241211	2010.166626
2943.373047	1978.168823
2942.503906	2006.639526
2941.635742	2046.614990
2940.767578	2040.528931
2939.898438	2120.771973
2939.029297	2180.849365
2938.160156	2122.964844
2937.291016	2065.098877
2936.421875	2171.167480
2935.552734	2061.557617
2934.682617	2130.220215
2933.812500	2095.384766
2932.943359	2123.785645
2932.073242	2077.468750
2931.203125	2013.929077
2930.332031	2099.778564
2929.461914	2073.591797
2928.591797	2153.660645
2927.720703	2001.145874
2926.849609	2046.753052
2925.978516	2046.422974
2925.107422	2117.835449
2924.236328	2134.709229
2923.365234	2142.971191
2922.493164	2159.835449
2921.621094	2073.451660
2920.750000	2064.515137
2919.877930	2190.326660
2919.005859	2207.172119
2918.132813	2117.970215
2917.260742	2120.494141
2916.387695	2108.691895
2915.515625	2059.653320
2914.642578	2002.038208
2913.769531	2130.581055
2912.896484	2127.374023
2912.023438	2175.697754
2911.149414	2120.963135
2910.276367	2177.857666
2909.402344	2080.219727
2908.528320	2091.327637
2907.654297	2242.594238
2906.780273	2133.552979
2905.906250	2221.854004
2905.032227	2158.596191
2904.157227	2201.126953
2903.282227	2089.304199
2902.407227	2251.854980
2901.532227	2040.057251
2900.657227	2048.298340
2899.782227	2136.513184
2898.907227	2084.763184
2898.031250	2141.534424
2897.155273	2129.769287
2896.280273	2195.078125
2895.404297	2057.731934
2894.527344	2043.132324
2893.651367	2071.333496
2892.775391	2033.915161
2891.898438	2153.377441
2891.022461	2027.555298
2890.145508	2018.674438
2889.268555	2041.154785
2888.391602	2112.083252
2887.513672	2123.141846
2886.636719	2165.540039
2885.758789	2093.967285
2884.880859	2079.386963
2884.003906	2096.139404
2883.125977	2201.160645
2882.247070	2092.615723
2881.369141	2023.958618
2880.491211	2103.324951
2879.612305	2065.991211
2878.733398	2128.253418
2877.854492	2130.754639
2876.975586	2096.278564
2876.096680	2095.940186
2875.217773	2084.228027
2874.337891	2012.817627
2873.458984	2111.980225
2872.579102	2003.641724
2871.699219	2009.001343
2870.819336	2062.658447
2869.939453	1979.946045
2869.059570	2027.910034
2868.178711	2095.736572
2867.297852	2052.808838
2866.417969	1941.762939
2865.537109	2052.145996
2864.656250	2034.787231
2863.774414	2042.971069
2862.893555	2068.174316
2862.012695	2099.042236
2861.130859	2024.965088
2860.249023	2081.350586
2859.367188	2027.146362
2858.485352	2066.505127
2857.603516	2054.834229
2856.720703	2108.344727
2855.838867	2048.504150
2854.956055	2011.345825
2854.073242	2087.496338
2853.190430	2053.175781
2852.307617	2050.012695
2851.424805	2061.005859
2850.541992	2108.792969
2849.658203	2009.397583
2848.774414	2113.771240
2847.891602	1963.480957
2847.007813	2045.198120
2846.124023	2025.069580
2845.239258	2072.815918
2844.355469	1948.075806
2843.470703	2021.261597
2842.586914	1975.711304
2841.702148	2065.824951
2840.817383	2025.933350
2839.931641	1977.579224
2839.046875	2087.421387
2838.162109	2053.193848
2837.276367	2027.448364
2836.390625	2041.237305
2835.504883	1967.513916
2834.619141	1998.242188
2833.733398	2037.426270
2832.847656	2034.275635
2831.960938	2033.947021
2831.075195	2036.438965
2830.188477	2084.051514
2829.301758	2134.468262
2828.415039	2077.739746
2827.528320	2023.848267
2826.641602	2068.613525
2825.753906	2082.368408
2824.866211	2008.780518
2823.979492	2078.878662
2823.091797	2010.947876
2822.204102	2050.046875
2821.315430	2052.531250
2820.427734	2001.527832
2819.539063	2054.682373
2818.651367	1983.995972
2817.762695	2076.528320
2816.874023	2107.138672
2815.985352	2095.546875
2815.096680	1999.587891
2814.207031	2024.571899
2813.318359	2032.679077
2812.428711	2032.350464
2811.539063	2043.264160
2810.649414	2017.643188
2809.759766	2053.842285
2808.870117	2033.846069
2807.979492	2013.856201
2807.088867	1977.023193
2806.199219	1999.166138
2805.308594	2043.760864
2804.417969	2049.044189
2803.527344	1958.906494
2802.635742	2034.351929
2801.745117	2025.606323
2800.853516	2047.719727
2799.961914	1991.295776
2799.071289	2066.687012
2798.178711	2099.997559
2797.287109	2049.198975
2796.395508	2121.741211
2795.502930	1967.267578
2794.611328	1997.770752
2793.718750	2171.138916
2792.826172	2058.747070
2791.933594	2108.824463
2791.041016	2018.879883
2790.147461	2189.332520
2789.254883	2037.821411
2788.361328	2090.668213
2787.467773	2101.523438
2786.574219	2042.428711
2785.680664	2142.804688
2784.787109	2094.910156
2783.892578	2114.146729
2782.999023	2035.515869
2782.104492	2093.894043
2781.209961	2129.892090
2780.315430	2009.376343
2779.420898	2095.672363
2778.526367	2047.839355
2777.630859	2125.721191
2776.735352	1966.183594
2775.840820	2041.260986
2774.945313	2057.682617
2774.049805	2012.685547
2773.154297	2076.554443
2772.257813	1986.918945
2771.362305	2061.931885
2770.465820	2047.649902
2769.569336	2016.636719
2768.672852	2033.043335
2767.776367	2099.635254
2766.879883	2037.961548
2765.982422	2048.781738
2765.085938	2109.764404
2764.188477	2103.849854
2763.291016	2072.862305
2762.393555	2089.240967
2761.496094	2074.976807
2760.598633	1993.883301
2759.701172	2038.109619
2758.802734	2140.782471
2757.904297	2054.150635
2757.005859	2012.073853
2756.107422	2070.180908
2755.208984	2039.243286
2754.310547	2011.097290
2753.411133	2010.771851
2752.512695	2104.990234
2751.613281	2062.946045
2750.713867	2043.153564
2749.814453	1962.221680
2748.915039	1992.472046
2748.014648	2025.490967
2747.115234	2094.613281
2746.214844	2077.608887
2745.314453	1999.513794
2744.414063	2068.606445
2743.513672	2018.300049
2742.613281	2034.627930
2741.711914	2112.007080
2740.811523	2100.565918
2739.910156	2022.542480
2739.008789	2094.338135
2738.107422	2141.148682
2737.206055	2052.064209
2736.304688	2093.321045
2735.402344	2120.703857
2734.500977	1951.286133
2733.598633	2083.990967
2732.696289	2130.757324
2731.793945	1964.190430
2730.891602	2038.660278
2729.988281	2007.865967
2729.085938	2029.693115
2728.182617	2040.438843
2727.279297	2048.412842
2726.375977	2142.182129
2725.472656	1970.267090
2724.569336	2025.283813
2723.666016	2105.179443
2722.761719	2060.584473
2721.857422	2110.028564
2720.953125	2059.917236
2720.048828	2153.578125
2719.144531	2117.296143
2718.240234	2064.443848
2717.335938	2158.058350
2716.430664	2038.910522
2715.525391	2016.481934
2714.620117	2043.773926
2713.714844	1985.453369
2712.809570	2079.004639
2711.904297	2042.781128
2710.998047	2061.770752
2710.091797	2025.561768
2709.186523	2000.401123
2708.280273	2027.664307
2707.374023	1961.137207
2706.466797	2027.007568
2705.560547	2103.885986
2704.653320	2045.649536
2703.747070	1990.188232
2702.839844	1918.208618
2701.932617	1989.543457
2701.025391	2093.916992
2700.117188	2010.936646
2699.209961	2098.747314
2698.301758	2018.546509
2697.393555	2081.547119
2696.485352	1962.834106
2695.577148	2020.318115
2694.668945	1962.198120
2693.760742	2143.484863
2692.851563	2027.589722
2691.943359	1974.997925
2691.034180	2109.440186
2690.125000	2007.355591
2689.215820	2001.531616
2688.305664	1921.488892
2687.396484	2116.318604
2686.486328	2030.786987
2685.577148	2011.224854
2684.666992	2060.347168
2683.756836	2087.480225
2682.846680	2010.247192
2681.935547	2042.870972
2681.025391	1984.887573
2680.114258	2050.443604
2679.203125	2077.555908
2678.291992	1912.578247
2677.380859	2085.113037
2676.469727	2043.628296
2675.558594	1903.420288
2674.646484	2023.770142
2673.734375	1990.540649
2672.823242	2020.372803
2671.911133	2061.158936
2670.998047	2006.015503
2670.085938	2082.410645
2669.173828	2087.552246
2668.260742	2013.257446
2667.347656	2051.272705
2666.434570	2012.604736
2665.521484	2009.540649
2664.608398	1957.205200
2663.695313	2025.310547
2662.781250	1953.834229
2661.868164	2016.445801
2660.954102	2007.912109
2660.040039	2026.732544
2659.125977	1999.057007
2658.210938	2072.557373
2657.296875	1976.538330
2656.381836	2022.684937
2655.467773	2000.493652
2654.552734	1994.704224
2653.637695	1958.864380
2652.722656	2103.320801
2651.806641	1933.648804
2650.891602	2091.715820
2649.975586	1990.357056
2649.059570	1916.329346
2648.143555	2085.239502
2647.227539	2005.762329
2646.311523	1923.582520
2645.395508	1996.927612
2644.478516	2056.611084
2643.561523	2089.003174
2642.644531	2028.676636
2641.727539	2058.336670
2640.810547	1984.405273
2639.893555	2027.689575
2638.975586	2024.635742
2638.058594	1964.368164
2637.140625	2073.011963
2636.222656	2004.585205
2635.304688	2047.830811
2634.386719	2047.498657
2633.467773	2063.500244
2632.549805	1992.397217
2631.630859	1959.416992
2630.711914	2067.937988
2629.792969	2026.794434
2628.874023	2091.747559
2627.955078	2077.810059
2627.036133	2074.753662
2626.116211	2044.510620
2625.196289	1957.192505
2624.276367	2052.000732
2623.356445	2048.950439
2622.436523	2024.164795
2621.516602	2018.403198
2620.595703	1988.198364
2619.674805	1968.865967
2618.754883	2025.566406
2617.833984	2122.970215
2616.912109	2060.195557
2615.991211	2016.438477
2615.070313	2056.813232
2614.148438	2004.931885
2613.226563	2020.881958
2612.304688	2009.705322
2611.382813	1965.991699
2610.460938	2057.855957
2609.539063	2038.546021
2608.616211	2040.925415
2607.694336	2024.334473
2606.771484	2032.134277
2605.848633	2012.840942
2604.925781	2112.733643
2604.001953	1933.649780
2603.079102	2028.107178
2602.155273	2035.899902
2601.232422	2054.517578
2600.308594	2048.770996
2599.384766	2094.440186
2598.460938	2064.339111
2597.536133	2031.542480
2596.612305	2077.192139
2595.687500	2041.699707
2594.762695	1962.958008
2593.837891	2084.290527
2592.913086	2046.111084
2591.988281	2059.291260
2591.062500	2061.658936
2590.137695	1974.872681
2589.211914	2085.299805
2588.286133	2122.771240
2587.360352	1992.812622
2586.434570	2014.087769
2585.508789	2000.263550
2584.582031	2097.101807
2583.655273	2007.709473
2582.729492	2045.156616
2581.802734	2020.545532
2580.875977	2012.125732
2579.948242	2025.282715
2579.021484	2054.613525
2578.093750	2000.361694
2577.166016	1994.645752
2576.239258	2045.527222
2575.311523	2004.776123
2574.382813	1972.120483
2573.455078	2084.936279
2572.526367	2079.210938
2571.598633	2046.558960
2570.669922	2038.149292
2569.741211	2005.514526
2568.812500	2083.242920
2567.883789	1934.894409
2566.954102	2117.544434
2566.025391	2087.607910
2565.095703	2049.611816
2564.166016	2035.832153
2563.236328	2091.968262
2562.306641	1919.566406
2561.375977	2040.215820
2560.446289	2195.764648
2559.515625	2001.932495
2558.584961	2071.461914
2557.654297	2084.556641
2556.723633	2043.930176
2555.792969	2000.631348
2554.861328	1984.196289
2553.930664	2024.141846
2552.999023	1964.762573
2552.067383	2098.626465
2551.135742	2117.067871
2550.204102	2030.874512
2549.271484	2062.732666
2548.339844	2006.076904
2547.407227	2110.328613
2546.474609	1981.295288
2545.541992	1948.805786
2544.609375	2050.335693
2543.676758	2108.956787
2542.743164	2052.348389
2541.810547	2003.795044
2540.876953	2040.967285
2539.943359	2091.517334
2539.009766	2091.177246
2538.076172	2133.671387
2537.141602	2028.933350
2536.208008	2025.927246
2535.273438	1993.487915
2534.338867	2070.750000
2533.404297	2065.063232
2532.469727	2029.958740
2531.535156	2045.673096
2530.599609	1962.457275
2529.664063	2074.413086
2528.729492	2100.803467
2527.793945	2022.963867
2526.857422	2110.807861
2525.921875	2030.320313
2524.986328	2115.463379
2524.049805	2026.989258
2523.113281	2005.298096
2522.177734	2098.412598
2521.241211	2047.354614
2520.303711	2089.723389
2519.367188	2134.746826
2518.429688	2051.691650
2517.493164	1982.001099
2516.555664	2019.018555
2515.618164	2074.690674
2514.680664	2146.342285
2513.742188	2068.684082
2512.804688	2084.339844
2511.866211	2014.711670
2510.928711	1982.409424
2509.990234	2003.399658
2509.051758	2003.073608
2508.112305	2095.960693
2507.173828	1978.456665
2506.234375	2058.005615
2505.295898	2060.332520
2504.356445	2089.273682
2503.416992	2003.779785
2502.477539	2035.381226
2501.537109	2024.409180
2500.597656	2050.677246
2499.657227	2015.772217
2498.716797	2148.388916
2497.776367	2097.528564
2496.835938	2017.446167
2495.895508	2054.324219
2494.955078	2099.161621
2494.013672	2024.431274
2493.072266	2138.322754
2492.130859	2084.857178
2491.189453	2095.139648
2490.248047	2041.698486
2489.306641	2131.621582
2488.364258	2078.191650
2487.421875	1934.553101
2486.480469	2149.153564
2485.538086	2021.467163
2484.594727	2079.490967
2483.652344	2036.720825
2482.709961	2039.040649
2481.766602	2012.197510
2480.823242	2033.075317
2479.879883	2067.197510
2478.936523	2032.413330
2477.993164	1994.990845
2477.049805	2095.326416
2476.105469	1957.261719
2475.161133	2110.532471
2474.216797	2049.292480
2473.272461	2117.786865
2472.328125	2106.854736
2471.383789	1990.071289
2470.438477	2029.436279
2469.494141	2034.396729
2468.548828	2034.065308
2467.603516	2139.520020
2466.658203	2080.998535
2465.711914	2001.346069
2464.766602	1987.803345
2463.820313	2050.909668
2462.874023	1910.523315
2461.927734	2063.451904
2460.981445	2036.699341
2460.035156	2023.161499
2459.088867	2057.161865
2458.141602	2075.309082
2457.194336	2032.732422
2456.247070	1992.808960
2455.299805	2032.070068
2454.352539	2015.907227
2453.405273	2073.618896
2452.457031	2044.265747
2451.509766	2049.207275
2450.561523	2011.956665
2449.613281	1958.899414
2448.665039	1955.944092
2447.715820	2108.490967
2446.767578	1950.036255
2445.818359	2023.491577
2444.870117	2073.213867
2443.920898	1975.421875
2442.970703	2030.402710
2442.021484	1980.044067
2441.072266	2071.862549
2440.122070	1908.329834
2439.171875	1994.866577
2438.222656	2039.273804
2437.272461	1999.478027
2436.321289	2122.783936
2435.371094	2004.086182
2434.419922	1985.352295
2433.469727	2011.320435
2432.518555	1897.956299
2431.567383	1960.726563
2430.616211	2110.196777
2429.664063	1973.224609
2428.712891	2049.086914
2427.760742	1988.340820
2426.808594	2045.792480
2425.856445	2011.324097
2424.904297	1992.618896
2423.952148	2034.292358
2423.000000	2057.580811
2422.046875	2025.756714
2421.093750	2022.802856
2420.140625	1951.646973
2419.187500	2003.783813
2418.234375	2061.148193
2417.281250	2013.617798
2416.327148	2091.933594
2415.373047	2044.413574
2414.419922	2021.823120
2413.465820	1999.232788
2412.510742	1976.642334
2411.556641	1954.051880
2410.601563	1931.461548
2409.647461	1908.871094
2408.692383	2060.406738
2407.737305	2041.747192
2406.782227	1965.515381
2405.827148	1973.045044
2404.871094	1938.710693
2403.916016	2011.640015
2402.958984	1979.926025
2402.003906	2081.590332
2401.046875	2042.031250
2400.091797	1973.728516
2399.134766	1996.930542
2398.177734	1978.311157
2397.220703	2035.472900
2396.263672	2042.978271
2395.306641	1961.670410
2394.349609	1969.185303
2393.392578	2002.809814
2392.435547	2018.147705
2391.476563	2009.987305
2390.519531	2048.808350
2389.560547	2019.769287
2388.603516	1954.212280
2387.644531	2008.675415
2386.685547	2023.996948
2385.728516	1929.785156
2384.769531	2007.691895
2383.810547	1957.831787
2382.851563	2022.675781
2381.890625	1923.313232
2380.931641	2053.283691
2379.972656	2024.290527
2379.013672	1891.113281
2378.052734	2044.464966
2377.093750	2023.299316
2376.132813	2020.365356
2375.171875	1983.591553
2374.210938	1993.678589
2373.250000	2032.387329
2372.291016	1951.397705
2371.330078	2062.940918
2370.367188	2033.992920
2369.406250	1932.237793
2368.445313	2015.127563
2367.484375	1942.005737
2366.521484	1991.075562
2365.560547	2037.530396
2364.597656	1925.463623
2363.634766	1984.904053
2362.673828	2010.556152
2361.710938	1924.520386
2360.748047	1903.431885
2359.785156	2012.167480
2358.822266	2009.242798
2357.859375	2006.319092
2356.894531	1959.280029
2355.931641	1935.608154
2354.968750	1927.509277
2354.003906	2017.977417
2353.041016	1952.813354
2352.076172	2025.097046
2351.111328	1998.840942
2350.146484	1933.711670
2349.181641	2060.388184
2348.218750	1964.174927
2347.251953	1906.855591
2346.287109	1940.219360
2345.322266	2077.171875
2344.357422	1913.689697
2343.390625	1978.105591
2342.425781	1871.644775
2341.458984	1987.812256
2340.494141	2028.893433
2339.527344	1958.700684
2338.560547	1935.097290
2337.595703	1986.513184
2336.628906	1957.740479
2335.662109	1941.905884
2334.693359	1972.612549
2333.726563	1923.176758
2332.759766	1889.264038
2331.792969	1971.645386
2330.824219	2004.910522
2329.857422	2198.324707
2328.888672	2151.474854
2327.921875	2112.387451
2326.953125	2001.017944
2325.984375	1959.386230
2325.015625	1946.160278
2324.046875	1863.259888
2323.078125	1950.684448
2322.109375	1888.449219
2321.140625	1999.055786
2320.169922	1947.148804
2319.201172	1939.094727
2318.230469	1972.293701
2317.261719	1951.349243
2316.291016	1865.978638
2315.320313	1968.749390
2314.351563	1898.862549
2313.380859	1924.312622
2312.410156	1857.031372
2311.439453	1941.709717
2310.468750	1797.203857
2309.496094	2020.880005
2308.525391	1860.964722
2307.554688	1976.468994
2306.582031	1952.987793
2305.611328	1932.086792
2304.638672	1888.042236
2303.666016	1975.176147
2302.695313	1920.853149
2301.722656	1938.535889
2300.750000	1984.489258
2299.777344	1896.779053
2298.804688	2050.653320
2297.832031	1962.960815
2296.857422	1839.332397
2295.884766	2013.688110
2294.912109	1928.612671
2293.937500	1933.432373
2292.962891	1935.683228
2291.990234	1896.864502
2291.015625	1958.147217
2290.041016	1960.392700
2289.066406	1957.506348
2288.091797	1916.144043
2287.117188	1879.924683
2286.142578	1930.902588
2285.167969	1884.437134
2284.191406	1863.621216
2283.216797	1927.391724
2282.240234	1878.386719
2281.265625	1929.322998
2280.289063	1911.074829
2279.314453	1961.988892
2278.337891	1925.814697
2277.361328	1938.302002
2276.384766	1930.304443
2275.408203	1976.062378
2274.431641	2026.923828
2273.453125	1990.768433
2272.476563	1916.248657
2271.500000	1964.536743
2270.521484	1992.348389
2269.544922	1933.207642
2268.566406	1930.334351
2267.587891	1919.792969
2266.609375	1842.801758
2265.632813	1937.052612
2264.654297	1954.620850
2263.675781	1964.519287
2262.695313	1892.679321
2261.716797	1861.723755
2260.738281	1948.234009
2259.759766	1932.597046
2258.779297	1945.043335
2257.800781	1916.651245
2256.820313	1893.371948
2255.839844	1933.882568
2254.859375	1910.607788
2253.880859	1897.542603
2252.900391	2004.333496
2251.919922	1947.913452
2250.937500	1883.864136
2249.957031	1878.458008
2248.976563	1977.536743
2247.996094	1938.993408
2247.013672	1938.675781
2246.033203	1846.661743
2245.050781	1846.359253
2244.068359	1884.250977
2243.087891	1886.488037
2242.105469	1914.178955
2241.123047	2030.936768
2240.140625	1931.364014
2239.158203	1933.591675
2238.173828	1976.519043
2237.191406	1950.761475
2236.208984	1899.582886
2235.224609	1909.441650
2234.242188	1860.828491
2233.257813	1906.274048
2232.275391	1961.869873
2231.291016	1953.925659
2230.306641	2012.035767
2229.322266	1861.843994
2228.337891	1871.697266
2227.353516	1901.860840
2226.369141	1855.850952
2225.384766	1934.236084
2224.398438	1913.615356
2223.414063	1943.752075
2222.427734	1968.804688
2221.443359	1915.211060
2220.457031	1914.897095
2219.470703	1879.080933
2218.484375	1901.591919
2217.498047	1908.885132
2216.511719	1987.145508
2215.525391	1966.546021
2214.539063	1877.540771
2213.552734	1935.500610
2212.566406	1935.183105
2211.578125	1927.268188
2210.591797	1932.016357
2209.603516	1941.826294
2208.615234	1921.257446
2207.628906	1928.534912
2206.640625	1897.853027
2205.652344	1874.771240
2204.664063	1907.348999
2203.675781	1967.737549
2202.687500	1901.665649
2201.697266	1929.166016
2200.708984	1913.681763
2199.720703	1976.556885
2198.730469	1875.146606
2197.742188	1836.937866
2196.751953	1912.426147
2195.761719	1871.697876
2194.771484	1899.171265
2193.781250	1825.632324
2192.791016	1890.973999
2191.800781	1870.469727
2190.810547	1862.591309
2189.820313	1900.136963
2188.830078	1879.641113
2187.837891	1896.990723
2186.847656	1841.191528
2185.855469	1989.673462
2184.863281	1921.270508
2183.873047	1910.871338
2182.880859	1875.270386
2181.888672	2028.689331
2180.896484	1927.568481
2179.904297	1904.578491
2178.912109	1813.586548
2177.917969	1835.954956
2176.925781	1948.965576
2175.933594	1910.881104
2174.939453	1850.154175
2173.947266	1937.938599
2172.953125	2020.661255
2171.958984	1892.014771
2170.964844	1889.188477
2169.970703	1833.545044
2168.976563	1896.112427
2167.982422	1986.316772
2166.988281	1935.712280
2165.994141	1947.961914
2165.000000	1904.919556
2164.003906	1861.891357
2163.009766	1952.026978
2162.013672	1959.241943
2161.017578	1966.454468
2160.023438	1910.889038
2159.027344	1915.596313
2158.031250	1857.547119
2157.035156	1907.437744
2156.039063	1977.386963
2155.042969	2004.660767
2154.044922	1926.566406
2153.048828	1938.790527
2152.052734	1928.441162
2151.054688	1923.109741
2150.058594	1972.931885
2149.060547	2037.776489
2148.062500	1907.125610
2147.064453	1984.487915
2146.066406	1833.846558
2145.068359	1903.680908
2144.070313	1958.465576
2143.072266	1935.607544
2142.074219	1925.275024
2141.074219	1960.003418
2140.076172	2007.234253
2139.078125	1909.311768
2138.078125	1964.041260
2137.078125	1953.712280
2136.078125	1898.366089
2135.080078	1965.573730
2134.080078	1990.253906
2133.080078	1937.428711
2132.080078	1942.109253
2131.078125	1881.811890
2130.078125	1976.452271
2129.078125	1896.182861
2128.076172	1968.308960
2127.076172	1900.554321
2126.074219	1930.206299
2125.074219	1849.997070
2124.072266	2011.946655
2123.070313	1876.842651
2122.068359	1998.808228
2121.066406	1831.315796
2120.064453	1893.379028
2119.062500	1888.079346
2118.058594	1997.493896
2117.056641	2012.125488
2116.052734	1932.020752
2115.050781	1986.538574
2114.046875	1918.924805
2113.044922	1980.901733
2112.041016	1913.311157
2111.037109	1900.541992
2110.033203	1969.962646
2109.029297	1889.956665
2108.025391	1996.700806
2107.021484	1911.738159
2106.015625	1898.979492
2105.011719	1836.456543
2104.005859	1878.450684
2103.001953	1922.918579
2101.996094	1952.448608
2100.992188	1959.587646
2099.986328	1936.887939
2098.980469	1889.335815
2097.974609	1906.423950
2096.968750	1950.842896
2095.962891	1885.918701
2094.955078	1994.918945
2093.949219	1902.685547
2092.943359	2053.866699
2091.935547	1954.204590
2090.929688	1906.711792
2089.921875	1884.057373
2088.914063	1873.819702
2087.906250	2007.510864
2086.900391	1952.597046
2085.892578	1890.259277
2084.882813	1929.632080
2083.875000	1949.153198
2082.867188	1839.737427
2081.859375	1953.469604
2080.849609	1906.054321
2079.841797	1895.827759
2078.832031	1942.593872
2077.824219	1947.228760
2076.814453	1932.046265
2075.804688	1879.720215
2074.794922	1923.981689
2073.785156	1866.722412
2072.775391	2000.084106
2071.765625	1927.981323
2070.753906	1900.443970
2069.744141	1863.019043
2068.734375	1922.081665
2067.722656	1906.925171
2066.712891	1857.153076
2065.701172	1963.164673
2064.689453	1925.760010
2063.677734	1994.650024
2062.666016	1969.608643
2061.654297	1991.522095
2060.642578	1934.373413
2059.630859	1859.953003
2058.619141	1889.282471
2057.605469	1911.194458
2056.593750	1891.128906
2055.580078	2014.238892
2054.568359	1922.590210
2053.554688	1863.050659
2052.541016	1867.678101
2051.527344	1936.440918
2050.513672	1926.256226
2049.500000	1957.996826
2048.486328	1957.674194
2047.472656	1957.351563
2046.457031	1917.592651
2045.443359	1848.274414
2044.429688	1811.010498
2043.414063	1980.697266
2042.398438	1936.034180
2041.384766	1913.550415
2040.369141	1955.094727
2039.353516	1898.148071
2038.337891	1956.911865
2037.322266	1934.439209
2036.306641	1899.670410
2035.289063	1857.531982
2034.273438	1852.306030
2033.257813	1864.298218
2032.240234	1898.418091
2031.222656	1966.948364
2030.207031	1856.001465
2029.189453	1951.552612
2028.171875	1953.688232
2027.154297	1855.083618
2026.136719	1948.130737
2025.119141	1918.334473
2024.101563	1913.106445
2023.082031	1937.345459
2022.064453	1922.295776
2021.046875	1948.979736
2020.027344	1879.939941
2019.007813	1835.461060
2017.990234	1879.319824
2016.970703	1825.043579
2015.951172	1935.110107
2014.931641	1961.765137
2013.912109	1809.429810
2012.892578	1934.152710
2011.873047	1973.049561
2010.851563	1933.514648
2009.832031	1818.036987
2008.810547	1888.780762
2007.791016	1932.557861
2006.769531	1861.218872
2005.748047	1811.940430
2004.728516	1907.119873
2003.707031	1909.253052
2002.685547	1820.833130
2001.662109	1986.925537
2000.640625	1869.163330
1999.619141	1903.100830
1998.597656	1922.352783
1997.574219	1897.582153
1996.552734	1838.590576
1995.529297	1894.511353
1994.505859	1940.637085
1993.484375	1854.786499
1992.460938	1852.036987
1991.437500	1841.959717
1990.414063	1836.770630
1989.390625	1848.677979
1988.365234	1877.673340
1987.341797	1838.302490
1986.318359	1845.321777
1985.292969	1835.255127
1984.269531	1915.475342
1983.244141	1856.606445
1982.218750	1778.242676
1981.193359	1904.771240
1980.167969	1962.980347
1979.142578	1857.818726
1978.117188	1784.381470
1977.091797	1781.649536
1976.066406	1832.529785
1975.041016	1822.481201
1974.013672	1858.721313
1972.988281	1841.364746
1971.960938	1940.906494
1970.933594	1835.886841
1969.906250	1876.969482
1968.880859	1771.994873
1967.853516	1830.109985
1966.826172	1856.573486
1965.796875	1802.744019
1964.769531	1855.960205
1963.742188	1858.085693
1962.714844	1809.145752
1961.685547	1823.434326
1960.658203	1793.963013
1959.628906	1771.792603
1958.599609	1871.131592
1957.570313	1778.496094
1956.541016	1848.650146
1955.511719	1855.631226
1954.482422	1835.897095
1953.453125	1816.169434
1952.423828	1915.402344
1951.394531	1750.034058
1950.363281	1817.696045
1949.333984	1851.365723
1948.302734	1821.947388
1947.271484	1780.410522
1946.240234	1789.817261
1945.210938	1871.965454
1944.179688	1781.952271
1943.148438	1735.601318
1942.115234	1815.293945
1941.083984	1877.997681
1940.052734	1882.532837
1939.021484	1807.126587
1937.988281	1835.892090
1936.955078	1857.383179
1935.923828	1815.915283
1934.890625	1837.402466
1933.857422	1824.996582
1932.824219	1812.594727
1931.791016	1843.750122
1930.757813	1792.641602
1929.724609	1835.883911
1928.691406	1847.672363
1927.656250	1806.260498
1926.623047	1854.314209
1925.587891	1730.729248
1924.554688	1788.446777
1923.519531	1797.816650
1922.484375	1889.328003
1921.449219	1838.287476
1920.414063	1816.246460
1919.378906	1835.264526
1918.343750	1868.762939
1917.308594	1779.134888
1916.273438	1834.353882
1915.236328	1858.182739
1914.201172	1857.875244
1913.164063	1838.268433
1912.126953	1801.783936
1911.091797	1714.667236
1910.054688	1769.841797
1909.017578	1800.889648
1907.980469	1870.494141
1906.943359	1802.703735
1905.906250	1792.766968
1904.867188	1794.879517
1903.830078	1927.068359
1902.791016	1868.947021
1901.753906	1856.597412
1900.714844	1894.812378
1899.677734	1853.575684
1898.638672	1788.284180
1897.599609	1855.368530
1896.560547	1843.031250
1895.521484	1871.593872
1894.482422	1818.368530
1893.441406	1875.783936
1892.402344	1829.788818
1891.363281	1855.930542
1890.322266	1860.430542
1889.281250	1802.444336
1888.242188	1823.771606
1887.201172	1821.067139
1886.160156	1837.580078
1885.119141	1798.849121
1884.078125	1942.627441
1883.037109	1882.283936
1881.996094	1757.147461
1880.953125	1804.858032
1879.912109	1775.762939
1878.869141	1861.843018
1877.828125	1825.551392
1876.785156	1880.414185
1875.742188	1853.723755
1874.701172	1805.462891
1873.658203	1865.096191
1872.615234	1824.039917
1871.572266	1878.857300
1870.527344	1811.455078
1869.484375	1844.694946
1868.441406	1830.017456
1867.396484	1841.688843
1866.353516	1812.649414
1865.308594	1812.349121
1864.263672	1737.843384
1863.218750	1802.175171
1862.175781	1873.664551
1861.130859	1892.494263
1860.083984	1846.729980
1859.039063	1798.589111
1857.994141	1805.465088
1856.949219	1824.293457
1855.902344	1759.446167
1854.857422	1828.469116
1853.810547	1744.524414
1852.763672	1720.341675
1851.718750	1775.002686
1850.671875	1767.542725
1849.625000	1764.861572
1848.578125	1793.222412
1847.529297	1900.357300
1846.482422	1885.720337
1845.435547	1811.423340
1844.388672	1794.419678
1843.339844	1727.319702
1842.291016	1841.532715
1841.244141	1772.062134
1840.195313	1807.537476
1839.146484	1823.927246
1838.097656	1899.907104
1837.048828	1716.068115
1836.000000	1780.125366
1834.951172	1770.299561
1833.900391	1762.859253
1832.851563	1776.857910
1831.802734	1874.202759
1830.751953	1726.266357
1829.701172	1797.399902
1828.652344	1780.439819
1827.601563	1753.965942
1826.550781	1739.398071
1825.500000	1762.900269
1824.449219	1767.365234
1823.396484	1724.262695
1822.345703	1788.179932
1821.294922	1780.750732
1820.242188	1825.620239
1819.191406	1770.652954
1818.138672	1772.735474
1817.085938	1717.794922
1816.035156	1822.033325
1814.982422	1729.100586
1813.929688	1802.430664
1812.875000	1809.254517
1811.822266	1759.101196
1810.769531	1761.182739
1809.716797	1775.129517
1808.662109	1734.497681
1807.609375	1784.029663
1806.554688	1800.337524
1805.500000	1712.289673
1804.447266	1797.368652
1803.392578	1676.159180
1802.337891	1746.993164
1801.283203	1677.972656
1800.226563	1767.739746
1799.171875	1802.984741
1798.117188	1790.841187
1797.060547	1773.964722
1796.005859	1823.399170
1794.949219	1789.949219
1793.892578	1749.408447
1792.837891	1798.822266
1791.781250	1838.753662
1790.724609	1694.117065
1789.667969	1781.366211
1788.611328	1778.705078
1787.552734	1882.465576
1786.496094	1771.020752
1785.439453	1709.259399
1784.380859	1758.613770
1783.322266	1770.138306
1782.265625	1767.481323
1781.207031	1701.036255
1780.148438	1773.980469
1779.089844	1863.432861
1778.031250	1811.173096
1776.972656	1716.432861
1775.914063	1853.061768
1774.853516	1800.829590
1773.794922	1793.450928
1772.734375	1731.808228
1771.675781	1750.392578
1770.615234	1731.232666
1769.554688	1846.498413
1768.494141	1716.510132
1767.435547	1824.667725
1766.373047	1822.007324
1765.312500	1703.871094
1764.251953	1703.587891
1763.191406	1717.439941
1762.128906	1827.862671
1761.068359	1771.036377
1760.005859	1700.100586
1758.945313	1735.132813
1757.882813	1810.169922
1756.820313	1758.091187
1755.757813	1720.148560
1754.695313	1795.150635
1753.632813	1736.043091
1752.570313	1756.922241
1751.505859	1897.724854
1750.443359	1826.873535
1749.378906	1737.239502
1748.316406	1739.300903
1747.251953	1776.611938
1746.187500	1820.959351
1745.125000	1830.053345
1744.060547	1717.004517
1742.996094	1754.294189
1741.929688	1779.831055
1740.865234	1746.667603
1739.800781	1788.628052
1738.734375	1790.677368
1737.669922	1734.063477
1736.603516	1715.006104
1735.539063	1740.523682
1734.472656	1775.414063
1733.406250	1822.017456
1732.339844	1817.025146
1731.273438	1706.547363
1730.207031	1767.201416
1729.140625	1727.069824
1728.072266	1857.989746
1727.005859	1771.004395
1725.939453	1770.709717
1724.871094	1761.047729
1723.802734	1723.291748
1722.736328	1776.848877
1721.667969	1739.102661
1720.599609	1794.979492
1719.531250	1717.464966
1718.462891	1665.710449
1717.392578	1852.560425
1716.324219	1754.026611
1715.255859	1784.132690
1714.185547	1800.201050
1713.117188	1704.062378
1712.046875	1792.590210
1710.976563	1743.219849
1709.906250	1738.256836
1708.835938	1889.805908
1707.765625	1798.403320
1706.695313	1774.751831
1705.625000	1702.077148
1704.554688	1711.131348
1703.482422	1799.539673
1702.412109	1838.911865
1701.339844	1822.272827
1700.267578	1812.637817
1699.197266	1763.353760
1698.125000	1770.056396
1697.052734	1765.098145
1695.980469	1788.117188
1694.908203	1773.833740
1693.833984	1789.851929
1692.761719	1742.950806
1691.689453	1742.660400
1690.615234	1737.711304
1689.542969	1807.291260
1688.468750	1739.460938
1687.394531	1862.566040
1686.320313	1818.027100
1685.246094	1850.308105
1684.171875	1735.974609
1683.097656	1726.378662
1682.023438	1742.374878
1680.947266	1711.848022
1679.873047	1832.488281
1678.798828	1753.129272
1677.722656	1736.564087
1676.646484	1794.382813
1675.570313	1738.309082
1674.496094	1798.431763
1673.419922	1756.314941
1672.343750	1704.920898
1671.265625	1778.953247
1670.189453	1783.300659
1669.113281	1771.395264
1668.035156	1789.669800
1666.958984	1812.579834
1665.880859	1789.072998
1664.804688	1798.054932
1663.726563	1762.959839
1662.648438	1880.949951
1661.570313	1773.966431
1660.492188	1803.811279
1659.414063	1754.829590
1658.333984	1807.845215
1657.255859	1795.956787
1656.177734	1828.094971
1655.097656	1818.523560
1654.017578	1771.896118
1652.939453	1829.496094
1651.859375	1766.674194
1650.779297	1805.735229
1649.699219	1786.916626
1648.619141	1784.304199
1647.539063	1753.926025
1646.457031	1753.633423
1645.376953	1716.330933
1644.296875	1783.113647
1643.214844	1741.193970
1642.132813	1747.839233
1641.052734	1715.185547
1639.970703	1749.567017
1638.888672	1751.585815
1637.806641	1762.845581
1636.724609	1834.162231
1635.642578	1813.069336
1634.558594	1782.746338
1633.476563	1706.255981
1632.392578	1826.012451
1631.310547	1717.226807
1630.226563	1746.940430
1629.142578	1783.566040
1628.060547	1737.129395
1626.976563	1732.226318
1625.892578	1641.996216
1624.806641	1701.672607
1623.722656	1756.718140
1622.638672	1763.339844
1621.554688	1691.601685
1620.468750	1656.755493
1619.382813	1744.025635
1618.298828	1732.217041
1617.212891	1773.383423
1616.126953	1727.032959
1615.041016	1692.209595
1613.955078	1714.946411
1612.869141	1756.087891
1611.783203	1691.361816
1610.695313	1704.883911
1609.609375	1732.203979
1608.521484	1745.714722
1607.435547	1690.231812
1606.347656	1729.036621
1605.259766	1737.943237
1604.171875	1739.951294
1603.085938	1797.113037
1601.996094	1750.858521
1600.908203	1663.267334
1599.820313	1699.740479
1598.732422	1747.684326
1597.642578	1655.545044
1596.554688	1671.338989
1595.464844	1721.558594
1594.375000	1748.811279
1593.285156	1720.983154
1592.197266	1608.276733
1591.107422	1809.869141
1590.015625	1752.229248
1588.925781	1708.367188
1587.835938	1769.985229
1586.746094	1664.241455
1585.654297	1666.255249
1584.564453	1714.099731
1583.472656	1690.901245
1582.380859	1690.618408
1581.289063	1683.464478
1580.197266	1738.144043
1579.105469	1751.591309
1578.013672	1726.116333
1576.921875	1773.894531
1575.830078	1702.653931
1574.736328	1727.538574
1573.644531	1715.810913
1572.550781	1683.500732
1571.457031	1804.429321
1570.365234	1742.389282
1569.271484	1753.528809
1568.177734	1792.094727
1567.083984	1725.516724
1565.990234	1798.350342
1564.894531	1809.472900
1563.800781	1740.640991
1562.707031	1808.867432
1561.611328	1676.119385
1560.515625	1808.262207
1559.421875	1771.435181
1558.326172	1777.985840
1557.230469	1821.046631
1556.134766	1886.909180
1555.039063	1836.405884
1553.943359	1824.694214
1552.845703	1787.901001
1551.750000	1828.643555
1550.654297	1807.820068
1549.556641	1814.355469
1548.458984	1784.425293
1547.363281	1761.340698
1546.265625	1831.669922
1545.167969	1751.639771
1544.070313	1771.843384
1542.972656	1780.655029
1541.873047	1844.103638
1540.775391	1704.941162
1539.677734	1791.140259
1538.578125	1779.462646
1537.480469	1847.419067
1536.380859	1726.547119
1535.281250	1812.684570
1534.181641	1744.160889
1533.082031	1777.973145
1531.982422	1827.686646
1530.882813	1734.193237
1529.783203	1695.270508
1528.681641	1790.414795
1527.582031	1826.462402
1526.480469	1721.674805
1525.380859	1750.908813
1524.279297	1732.450928
1523.177734	1777.564575
1522.076172	1797.695068
1520.974609	1758.813477
1519.873047	1772.133057
1518.771484	1733.268677
1517.669922	1789.685669
1516.566406	1730.419922
1515.464844	1693.849365
1514.361328	1668.626709
1513.257813	1752.217773
1512.156250	1731.526611
1511.052734	1756.162476
1509.949219	1719.618042
1508.845703	1737.451782
1507.742188	1687.333252
1506.636719	1707.430908
1505.533203	1727.521729
1504.429688	1734.023315
1503.324219	1745.049438
1502.218750	1767.386597
1501.115234	1706.000122
1500.009766	1687.616333
1498.904297	1581.026855
1497.798828	1723.233765
1496.693359	1675.462036
1495.587891	1729.437988
1494.480469	1654.557251
1493.375000	1706.258545
1492.269531	1715.010620
1491.162109	1746.351563
1490.054688	1685.070923
1488.949219	1709.630981
1487.841797	1596.441650
1486.734375	1709.057495
1485.626953	1760.688477
1484.519531	1683.658081
1483.410156	1694.658325
1482.302734	1750.777832
1481.195313	1725.670532
1480.085938	1718.614868
1478.976563	1720.581543
1477.869141	1666.181396
1476.759766	1672.664551
1475.650391	1665.622192
1474.541016	1692.384766
1473.431641	1705.619629
1472.322266	1725.608154
1471.210938	1687.028076
1470.101563	1639.453125
1468.990234	1745.003906
1467.880859	1690.681274
1466.769531	1645.380249
1465.658203	1685.612793
1464.548828	1579.574829
1463.437500	1676.047974
1462.326172	1642.026245
1461.212891	1720.464722
1460.101563	1735.916016
1458.990234	1663.681519
1457.876953	1676.889282
1456.765625	1732.794312
1455.652344	1824.633789
1454.541016	1694.018311
1453.427734	1711.704468
1452.314453	1679.973633
1451.201172	1738.076538
1450.087891	1636.750610
1448.972656	1627.496460
1447.859375	1699.045288
1446.746094	1723.444702
1445.630859	1687.256104
1444.517578	1711.649170
1443.402344	1810.050903
1442.287109	1715.559204
1441.171875	1668.185181
1440.056641	1712.740967
1438.941406	1681.073242
1437.826172	1662.862305
1436.710938	1770.135376
1435.595703	1700.388672
1434.478516	1711.302490
1433.363281	1746.847778
1432.246094	1737.597534
1431.128906	1649.992432
1430.011719	1654.191895
1428.894531	1723.293213
1427.777344	1637.972290
1426.660156	1740.612305
1425.542969	1675.449219
1424.425781	1670.694458
1423.306641	1724.081543
1422.189453	1672.368652
1421.070313	1779.387207
1419.953125	1682.981567
1418.833984	1705.045166
1417.714844	1691.352783
1416.595703	1677.664917
1415.476563	1686.316895
1414.357422	1761.960693
1413.236328	1679.051514
1412.117188	1651.980225
1410.998047	1725.359497
1409.876953	1673.741211
1408.755859	1646.684326
1407.636719	1715.565430
1406.515625	1737.582153
1405.394531	1719.448608
1404.273438	1614.359863
1403.152344	1654.217529
1402.029297	1609.358643
1400.908203	1689.319458
1399.787109	1695.720093
1398.664063	1711.030029
1397.541016	1617.186035
1396.419922	1648.093994
1395.296875	1650.043457
1394.173828	1616.369751
1393.050781	1702.912964
1391.927734	1682.595459
1390.804688	1620.004395
1389.679688	1637.531006
1388.556641	1635.030884
1387.431641	1614.738281
1386.308594	1585.557251
1385.183594	1638.652222
1384.058594	1593.915649
1382.933594	1731.452271
1381.808594	1606.712769
1380.683594	1628.661499
1379.558594	1646.159546
1378.433594	1565.920532
1377.308594	1641.163696
1376.181641	1569.834106
1375.054688	1616.190674
1373.929688	1684.728149
1372.802734	1697.760254
1371.675781	1617.593140
1370.548828	1675.003052
1369.421875	1583.775757
1368.294922	1672.221069
1367.167969	1574.372681
1366.039063	1629.533813
1364.912109	1640.342651
1363.783203	1624.552246
1362.656250	1599.903320
1361.527344	1646.160522
1360.398438	1654.743896
1359.269531	1545.939331
1358.140625	1649.757568
1357.011719	1673.834351
1355.882813	1684.620728
1354.753906	1764.016479
1353.623047	1650.858887
1352.494141	1581.990845
1351.363281	1692.334351
1350.232422	1641.177002
1349.103516	1649.746338
1347.972656	1671.579102
1346.841797	1600.554565
1345.710938	1651.122559
1344.578125	1637.584473
1343.447266	1723.482544
1342.316406	1665.752319
1341.183594	1669.889160
1340.052734	1707.151733
1338.919922	1662.701904
1337.787109	1660.213867
1336.654297	1717.325195
1335.521484	1606.686279
1334.388672	1683.646973
1333.255859	1689.981689
1332.123047	1568.373901
1330.988281	1680.589844
1329.855469	1605.332031
1328.720703	1704.275269
1327.587891	1657.695801
1326.453125	1725.740601
1325.318359	1637.303955
1324.183594	1694.312744
1323.048828	1669.795044
1321.914063	1667.310791
1320.779297	1691.253174
1319.642578	1651.335815
1318.507813	1717.099487
1317.371094	1710.206665
1316.236328	1696.714111
1315.099609	1714.030273
1313.962891	1671.942383
1312.826172	1702.454102
1311.689453	1649.386353
1310.552734	1638.114014
1309.416016	1675.211060
1308.279297	1602.391968
1307.140625	1670.250244
1306.003906	1678.757568
1304.865234	1711.428589
1303.726563	1629.866089
1302.587891	1724.028076
1301.451172	1710.562012
1300.310547	1714.664185
1299.171875	1648.521606
1298.033203	1604.348755
1296.894531	1610.660889
1295.753906	1647.686768
1294.615234	1621.085083
1293.474609	1647.130371
1292.335938	1677.552612
1291.195313	1580.798828
1290.054688	1637.527466
1288.914063	1711.771118
1287.773438	1566.849731
1286.632813	1667.372314
1285.490234	1588.227051
1284.349609	1603.290771
1283.207031	1686.236816
1282.066406	1714.416138
1280.923828	1611.235107
1279.781250	1654.739136
1278.638672	1610.690796
1277.496094	1616.982788
1276.353516	1634.211182
1275.210938	1581.439209
1274.068359	1618.350342
1272.923828	1611.517090
1271.781250	1602.499878
1270.636719	1558.511963
1269.494141	1566.990601
1268.349609	1616.983276
1267.205078	1660.404907
1266.060547	1607.699219
1264.916016	1640.187622
1263.771484	1626.808472
1262.626953	1668.015625
1261.480469	1672.099365
1260.335938	1724.197388
1259.189453	1697.719971
1258.042969	1627.615723
1256.898438	1636.066162
1255.751953	1640.151611
1254.605469	1746.727905
1253.458984	1569.826904
1252.312500	1650.219482
1251.164063	1645.581299
1250.017578	1697.604004
1248.869141	1714.747681
1247.722656	1644.746582
1246.574219	1670.605591
1245.425781	1711.699951
1244.279297	1613.428955
1243.130859	1621.864014
1241.982422	1715.184814
1240.832031	1566.908813
1239.683594	1697.197388
1238.535156	1777.404663
1237.384766	1674.871582
1236.236328	1687.636841
1235.085938	1665.607178
1233.935547	1697.936035
1232.785156	1660.696167
1231.636719	1684.321533
1230.484375	1668.825928
1229.333984	1755.446777
1228.183594	1705.188721
1227.033203	1772.227417
1225.880859	1674.210815
1224.730469	1684.782959
1223.578125	1736.595703
1222.425781	1786.220459
1221.273438	1796.768066
1220.121094	1770.428223
1218.968750	1776.636230
1217.816406	1761.153076
1216.664063	1721.821167
1215.511719	1777.902222
1214.357422	1760.258667
1213.205078	1712.276978
1212.050781	1746.660156
1210.896484	1705.197021
1209.742188	1876.048950
1208.587891	1782.594360
1207.433594	1836.432617
1206.279297	1773.329712
1205.125000	1794.677979
1203.968750	1818.183594
1202.814453	1889.292114
1201.658203	1791.602417
1200.503906	1771.828247
1199.347656	1832.093140
1198.191406	1875.036133
1197.035156	1874.718506
1195.878906	1835.485962
1194.722656	1874.083252
1193.566406	1858.637207
1192.408203	1873.448120
1191.251953	1821.279297
1190.093750	1877.133423
1188.937500	1859.537354
1187.779297	1889.453491
1186.621094	1809.249878
1185.462891	1970.841431
1184.304688	1862.593506
1183.146484	1931.330933
1181.988281	1864.119629
1180.828125	1956.562378
1179.669922	1951.916992
1178.509766	1863.171631
1177.351563	1921.070068
1176.191406	1944.457153
1175.031250	1931.195435
1173.871094	1930.867920
1172.710938	1883.138794
1171.550781	1981.915283
1170.388672	1929.885742
1169.228516	2058.770020
1168.068359	1980.906982
1166.906250	2017.168579
1165.744141	2006.064331
1164.583984	1973.442993
1163.421875	2031.204224
1162.259766	1953.411499
1161.097656	1996.099609
1159.933594	2034.471802
1158.771484	2047.028076
1157.609375	2149.874756
1156.445313	2072.127686
1155.283203	2076.074219
1154.119141	2004.812256
1152.955078	2129.080078
1151.791016	2068.573486
1150.626953	2081.108398
1149.462891	2039.956177
1148.298828	2073.961426
1147.134766	2138.007080
1145.968750	2156.960205
1144.804688	2040.717407
1143.638672	2109.027100
1142.474609	2213.780762
1141.308594	2241.286865
1140.142578	2165.852051
1138.976563	2219.085449
1137.810547	2274.444336
1136.644531	2237.621826
1135.476563	2106.521973
1134.310547	2258.287842
1133.142578	2206.490967
1131.976563	2253.237305
1130.808594	2197.175781
1129.640625	2316.706055
1128.472656	2279.919434
1127.304688	2253.847412
1126.136719	2373.306885
1124.968750	2392.160889
1123.800781	2346.828857
1122.630859	2397.765137
1121.462891	2271.180908
1120.292969	2345.633057
1119.123047	2417.921875
1117.953125	2464.535889
1116.785156	2387.180420
1115.613281	2444.467529
1114.443359	2439.779297
1113.273438	2330.426514
1112.103516	2415.457764
1110.931641	2400.100098
1109.761719	2502.169922
1108.589844	2418.495605
1107.417969	2526.930420
1106.248047	2541.437988
1105.076172	2519.670898
1103.904297	2510.709961
1102.730469	2533.743652
1101.558594	2561.034424
1100.386719	2588.315674
1099.212891	2545.241699
1098.041016	2613.011719
1096.867188	2623.222168
1095.693359	2601.469971
1094.519531	2609.548584
1093.345703	2587.806152
1092.171875	2591.625000
1090.998047	2727.450439
1089.824219	2726.986572
1088.650391	2683.954102
1087.474609	2685.625488
1086.298828	2746.872314
1085.125000	2625.146240
1083.949219	2777.842773
1082.773438	2811.395996
1081.597656	2762.013916
1080.421875	2808.313721
1079.246094	2882.229736
1078.070313	2851.986816
1076.892578	2885.498535
1075.716797	2899.878906
1074.539063	2822.917969
1073.361328	2890.396973
1072.183594	2913.262207
1071.007813	2927.627441
1069.830078	2990.808594
1068.650391	2909.652588
1067.472656	2985.546631
1066.294922	2957.458252
1065.115234	3071.499512
1063.937500	3000.989014
1062.757813	3089.538330
1061.578125	3103.853027
1060.400391	3128.761719
1059.220703	3115.512695
1058.041016	3085.315674
1056.861328	3122.926514
1055.679688	3158.406006
1054.500000	3128.216797
1053.318359	3220.858154
1052.138672	3097.510254
1050.957031	3236.696289
1049.775391	3274.242188
1048.595703	3229.245361
1047.414063	3315.442627
1046.232422	3251.415039
1045.048828	3250.861084
1043.867188	3317.978027
1042.685547	3404.101074
1041.501953	3308.391602
1040.320313	3322.623291
1039.136719	3374.888916
1037.953125	3346.845947
1036.769531	3344.163086
1035.585938	3396.397949
1034.402344	3469.733154
1033.218750	3382.571777
1032.035156	3447.439697
1030.849609	3524.949707
1029.666016	3530.680176
1028.480469	3416.136719
1027.294922	3506.270264
1026.109375	3486.688721
1024.923828	3564.125488
1023.738281	3593.038086
1022.552734	3495.447021
1021.367188	3534.900635
1020.181641	3509.007813
1018.994141	3580.052734
1017.808594	3600.510254
1016.621094	3534.596680
1015.433594	3614.024902
1014.246094	3619.725586
1013.058594	3690.690430
1011.871094	3607.966064
1010.683594	3636.815674
1009.496094	3613.048340
1008.306641	3612.432129
1007.119141	3616.022949
1005.929688	3577.548340
1004.742188	3656.846191
1003.552734	3656.222412
1002.363281	3714.458008
1001.173828	3633.957275
999.984375	3622.830078
998.794922	3685.243408
997.603516	3669.909668
996.414063	3635.678223
995.222656	3584.658203
994.033203	3665.931641
992.841797	3736.680664
991.650391	3700.361816
990.458984	3640.970947
989.267578	3678.116699
988.076172	3715.249756
986.884766	3567.792725
985.691406	3577.669434
984.500000	3585.445557
983.306641	3593.218994
982.115234	3716.271729
980.921875	3698.871826
979.728516	3626.999268
978.535156	3576.100830
977.341797	3692.788086
976.148438	3673.309082
974.953125	3676.869629
973.759766	3556.910400
972.564453	3560.489258
971.371094	3570.345215
970.175781	3550.903320
968.980469	3686.283203
967.785156	3620.809570
966.589844	3542.809570
965.394531	3554.750488
964.199219	3616.863525
963.003906	3522.181396
961.806641	3588.458252
960.611328	3495.902588
959.414063	3595.588867
958.216797	3647.196777
957.019531	3456.517334
955.822266	3474.719971
954.625000	3622.361084
953.427734	3492.319580
952.230469	3508.419434
951.031250	3524.513916
949.833984	3607.366943
948.634766	3412.749268
947.437500	3372.538086
946.238281	3532.531006
945.039063	3444.358643
943.839844	3416.669922
942.640625	3441.096680
941.439453	3411.333740
940.240234	3527.428711
939.041016	3443.498291
937.839844	3488.731445
936.638672	3448.567871
935.439453	3416.746582
934.238281	3322.483154
933.037109	3507.159424
931.835938	3414.993652
930.634766	3374.876465
929.431641	3528.243652
928.230469	3411.161377
927.027344	3402.259521
925.826172	3474.451660
924.623047	3382.385254
923.419922	3415.063232
922.216797	3422.791748
921.013672	3459.607178
919.810547	3348.908447
918.607422	3360.798096
917.404297	3318.687500
916.199219	3380.412109
914.996094	3415.126709
913.791016	3300.378174
912.585938	3401.505615
911.380859	3342.823486
910.175781	3350.549805
908.970703	3358.273438
907.765625	3357.698486
906.560547	3323.946289
905.353516	3304.718262
904.148438	3244.039307
902.941406	3268.354004
901.736328	3220.134521
900.529297	3200.937012
899.322266	3237.674805
898.115234	3253.689209
896.908203	3226.212402
895.699219	3215.307861
894.492188	3140.236084
893.285156	3152.116211
892.076172	3180.546875
890.867188	3273.105469
889.660156	3241.515625
888.451172	3145.820313
887.242188	3081.176514
886.033203	3159.215332
884.824219	3158.674072
883.613281	3162.266602
882.404297	3103.863037
881.193359	3146.719971
879.984375	3047.023438
878.773438	3060.959229
877.562500	2942.725586
876.351563	3016.551025
875.140625	3071.771729
873.929688	3029.965088
872.718750	2891.180908
871.505859	3051.622803
870.294922	3077.917969
869.082031	2990.761230
867.871094	3041.804688
866.658203	3012.416748
865.445313	3096.423096
864.232422	2906.263428
863.019531	2971.711670
861.806641	2954.718262
860.591797	2873.866943
859.378906	2974.302490
858.164063	2846.108887
856.951172	2927.983154
855.736328	2892.482910
854.521484	2918.745361
853.306641	2864.736572
852.091797	2829.265137
850.876953	2884.326904
849.662109	2869.433350
848.445313	2831.922607
847.230469	2905.461182
846.013672	2859.733154
844.796875	2898.297607
843.582031	2895.745117
842.365234	2932.235107
841.148438	2845.443848
839.929688	2931.228760
838.712891	2926.617920
837.496094	2876.833740
836.277344	2827.066406
835.060547	2908.689697
833.841797	2936.923340
832.623047	2897.431152
831.404297	2868.210449
830.185547	2882.077148
828.966797	2906.193848
827.748047	3022.578857
826.529297	2935.949463
825.308594	3001.041992
824.089844	2924.693604
822.869141	2870.912598
821.650391	2925.738037
820.429688	2958.011230
819.208984	2875.578125
817.988281	2907.848633
816.765625	2995.388672
815.544922	2923.226318
814.324219	2955.471924
813.101563	2963.149658
811.880859	3026.067139
810.658203	2964.177246
809.435547	2967.758545
808.212891	2950.888916
806.990234	3077.148193
805.767578	3058.220947
804.544922	3043.388184
803.320313	3130.738281
802.097656	3028.039551
800.873047	3137.833740
799.650391	3059.678955
798.425781	2999.930664
797.201172	3068.836426
795.976563	2962.153076
794.751953	3077.986816
793.527344	3195.821533
792.300781	3078.968994
791.076172	3039.678711
789.849609	3057.513428
788.625000	3075.341797
787.398438	3017.720947
786.171875	3053.897949
784.945313	3035.028076
783.718750	3046.733643
782.492188	3135.864014
781.265625	3127.175781
780.037109	3061.457275
778.810547	3030.382324
777.582031	3170.358643
776.353516	3131.132324
775.125000	3034.925293
773.898438	3016.086914
772.667969	3092.890137
771.439453	3100.495850
770.210938	3085.723633
768.982422	2934.695557
767.751953	3007.392822
766.523438	2986.544922
765.292969	3067.338867
764.062500	3032.260986
762.832031	3021.579102
761.601563	3069.818604
760.371094	2990.069580
759.140625	3044.390625
757.908203	2885.479980
756.677734	3037.251709
755.445313	3089.506348
754.214844	3133.624512
752.982422	3021.479004
751.750000	3096.026123
750.517578	3069.122559
749.285156	3086.847412
748.052734	3074.149170
746.818359	3146.608154
745.585938	3111.605469
744.351563	3098.908936
743.119141	3128.771484
741.884766	3118.102295
740.650391	3093.256592
739.416016	3080.571533
738.181641	3156.991455
736.947266	3136.200928
735.710938	3141.733643
734.476563	3258.582275
733.240234	3092.084229
732.005859	3109.760986
730.769531	3218.462646
729.533203	3108.689209
728.296875	3170.842529
727.060547	3164.230469
725.824219	3123.254639
724.587891	3132.822266
723.349609	3148.448975
722.113281	3133.762939
720.875000	3177.665527
719.636719	3199.335449
718.400391	3168.492432
717.162109	3081.125488
715.923828	3094.725342
714.683594	3071.989502
713.445313	3107.784668
712.207031	3161.726563
710.966797	3181.354736
709.728516	3092.058105
708.488281	3119.758057
707.248047	3207.937256
706.007813	3154.969238
704.767578	3184.659180
703.527344	3157.911621
702.287109	3068.710693
701.044922	3148.763916
699.804688	3128.078613
698.562500	3113.441895
697.320313	3086.729004
696.080078	3196.920898
694.837891	3178.253906
693.595703	3121.356201
692.353516	3231.484863
691.109375	3170.573730
689.867188	3226.346680
688.625000	3115.179932
687.380859	3191.050537
686.136719	3120.135986
684.892578	3210.049561
683.650391	3199.447021
682.406250	3251.137939
681.160156	3220.441650
679.916016	3215.868408
678.671875	3183.180176
677.425781	3184.638428
676.181641	3262.385986
674.935547	3161.458740
673.689453	3219.114014
672.443359	3206.518555
671.197266	3248.095703
669.951172	3197.387451
668.705078	3244.968506
667.458984	3266.465088
666.210938	3187.711670
664.964844	3275.359375
663.716797	3264.772705
662.468750	3294.265869
661.220703	3219.568604
659.972656	3194.975098
658.724609	3158.373047
657.476563	3155.824951
656.228516	3261.389893
654.978516	3252.819580
653.730469	3180.207275
652.480469	3263.701660
651.230469	3199.115234
649.980469	3188.560547
648.730469	3178.009521
647.480469	3211.454346
646.230469	3240.889160
644.980469	3272.312256
643.728516	3247.763184
642.478516	3185.255127
641.226563	3122.768555
639.974609	3230.098389
638.722656	3321.413086
637.470703	3286.891357
636.218750	3080.678467
634.966797	3183.948242
633.714844	3129.509521
632.460938	3248.699219
631.208984	3224.195313
629.955078	3221.642822
628.701172	3197.151855
627.447266	3212.552002
626.193359	3241.903076
624.939453	3239.348877
623.685547	3344.422852
622.431641	3226.271484
621.175781	3193.834717
619.921875	3247.068115
618.666016	3242.522705
617.410156	3369.409912
616.154297	3289.185547
614.898438	3318.476563
613.642578	3286.056885
612.386719	3365.088135
611.130859	3356.546875
609.873047	3389.784180
608.617188	3488.645752
607.359375	3452.246826
606.101563	3505.332520
604.845703	3439.124023
603.587891	3551.821289
602.328125	3394.213867
601.070313	3614.172119
599.812500	3595.667480
598.552734	3563.265381
597.294922	3679.814697
596.035156	3522.320801
594.775391	3575.310791
593.517578	3669.963867
592.257813	3585.979492
590.996094	3781.789063
589.736328	3731.538818
588.476563	3732.875977
587.214844	3765.942383
585.955078	3832.704346
584.693359	3663.533691
583.431641	3777.859863
582.169922	3860.438721
580.908203	3820.141846
579.646484	3928.437988
578.384766	3898.046631
577.123047	3917.174805
575.859375	3870.955322
574.597656	3996.984131
573.333984	3847.840820
572.070313	3936.228760
570.806641	3955.333008
569.542969	4023.888428
568.279297	3995.499268
567.015625	3955.253906
565.751953	4000.045898
564.486328	3971.675049
563.222656	4006.565186
561.957031	4029.585693
560.691406	3979.489014
559.425781	4038.066162
558.160156	3976.133789
556.894531	4145.284180
555.628906	3996.474609
554.361328	4090.543213
553.095703	4210.238770
551.828125	4124.647461
550.562500	4252.187988
549.294922	4198.184082
548.027344	4124.473633
546.759766	4137.562988
545.492188	4119.099121
544.222656	4167.670898
542.955078	4117.669922
541.687500	4180.020020
540.417969	4208.851074
539.148438	4239.642578
537.878906	4221.178711
536.611328	4287.406250
535.339844	4255.156738
534.070313	4411.916504
532.800781	4407.213867
531.531250	4459.585938
530.259766	4358.458984
528.988281	4461.972168
527.718750	4378.583008
526.447266	4430.922852
525.175781	4430.153809
523.904297	4618.119629
522.632813	4485.619141
521.359375	4596.862793
520.087891	4651.083496
518.814453	4728.860840
517.542969	4616.075195
516.269531	4670.264160
514.996094	4797.087402
513.722656	4796.253906
512.449219	4673.719727
511.175781	4859.353027
509.902344	4887.942383
508.626953	4914.559570
507.353516	4939.206055
506.078125	5048.175781
504.802734	4998.276855
503.527344	5052.303223
502.251953	5208.240723
500.976563	5201.456055
499.701172	5055.548340
498.425781	5232.954102
497.148438	5214.415039
495.873047	5141.044434
494.595703	5243.933105
493.318359	5272.388672
492.041016	5204.917969
490.763672	5164.870117
489.486328	5285.293457
488.208984	5084.816406
486.931641	5095.668945
485.652344	5216.040527
484.375000	5226.866211
483.095703	5239.642578
481.816406	5162.496094
480.537109	5175.279297
479.257813	5209.552246
477.978516	5191.062500
476.699219	5069.049316
475.417969	5171.679199
474.138672	4998.940918
472.857422	5056.642578
471.576172	5053.810547
470.296875	5060.738281
469.015625	5069.614258
467.734375	5035.564941
466.451172	5042.491211
465.169922	5098.173340
463.888672	5025.136230
462.605469	4967.721680
461.322266	4949.313477
460.041016	5088.778320
458.757813	5031.381836
457.474609	4876.590332
456.191406	4772.499512
454.908203	5077.445313
453.623047	4838.992676
452.339844	4781.688965
451.054688	4950.210938
449.771484	4867.605957
448.486328	4884.271484
447.201172	4774.468262
445.916016	4760.020020
444.630859	4918.673340
443.343750	4910.038574
442.058594	4757.533203
440.773438	4902.496582
439.486328	4833.618164
438.199219	4809.457520
436.914063	4740.619141
435.626953	4778.644043
434.339844	4719.545410
433.050781	4761.443848
431.763672	4739.257324
430.476563	4695.725586
429.187500	4764.777832
427.900391	4740.661133
426.611328	4739.834961
425.322266	4808.842773
424.033203	4730.425293
422.744141	4762.566406
421.455078	4755.919434
420.164063	4704.689941
418.875000	4626.344238
417.583984	4668.169434
416.294922	4653.792969
415.003906	4649.107422
413.712891	4621.181641
412.421875	4721.071289
411.130859	4636.995117
409.839844	4630.379395
408.546875	4697.312012
407.255859	4667.466309
405.962891	4585.392090
404.671875	4588.461426
403.378906	4579.924316
402.085938	4704.819336
400.792969	4684.664551
399.500000	4637.453613
398.207031	4572.863770
396.912109	4680.280762
395.619141	4563.540039
394.324219	4641.944824
393.029297	4672.037109
391.734375	4534.116699
390.439453	4394.313965
389.144531	4538.325195
387.849609	4439.101074
386.554688	4502.006348
385.257813	4476.139160
383.962891	4483.073730
382.666016	4524.722656
381.369141	4402.445801
380.074219	4513.502441
378.777344	4458.739258
377.478516	4481.088867
376.181641	4449.474121
374.884766	4491.084473
373.585938	4469.110352
372.289063	4466.403809
370.990234	4371.266113
369.691406	4468.694336
368.392578	4456.363770
367.093750	4447.886719
365.794922	4293.164063
364.496094	4479.041016
363.195313	4493.647461
361.896484	4446.703125
360.595703	4470.924805
359.294922	4573.966309
357.996094	4461.673340
356.695313	4516.630859
355.394531	4465.878906
354.091797	4597.667969
352.791016	4429.740723
351.490234	4450.093750
350.187500	4337.938965
348.884766	4437.018555
347.583984	4635.883301
346.281250	4493.045898
344.978516	4480.746582
343.673828	4508.742676
342.371094	4506.036133
341.068359	4472.643066
339.763672	4445.014648
338.460938	4423.146973
337.156250	4464.546387
335.851563	4320.020508
334.546875	4541.551758
333.242188	4406.642578
331.937500	4507.398438
330.632813	4491.287598
329.326172	4479.012695
328.021484	4466.741211
326.714844	4446.817383
325.408203	4522.596191
324.101563	4475.878906
322.794922	4300.989746
321.488281	4273.456543
320.181641	4381.726074
318.873047	4489.957520
317.566406	4368.721191
316.257813	4337.371094
314.951172	4296.476074
313.642578	4295.724121
312.333984	4222.370117
311.025391	4250.284668
309.716797	4249.540527
308.406250	4296.536133
307.097656	4330.150391
305.787109	4319.847656
304.478516	4252.291504
303.167969	4226.739746
301.857422	4267.973145
300.546875	4309.192383
299.236328	4327.510254
297.925781	4353.448730
296.613281	4369.845215
295.302734	4321.424316
293.990234	4368.314941
292.677734	4535.239258
291.367188	4355.353027
290.054688	4404.117188
288.742188	4334.781738
287.427734	4294.033203
286.115234	4413.226563
284.802734	4410.549316
283.488281	4358.389648
282.173828	4372.849121
280.861328	4221.780273
279.546875	4327.564941
278.232422	4351.531250
276.917969	4223.364258
275.601563	4462.178223
274.287109	4280.811523
272.970703	4304.768066
271.656250	4273.609863
270.339844	4348.856445
269.023438	4313.901855
267.707031	4307.447754
266.390625	4342.771484
265.074219	4387.575684
263.757813	4354.536133
262.439453	4351.874512
261.123047	4328.340820
259.804688	4390.190430
258.486328	4362.863770
257.167969	4354.512207
255.849609	4368.917969
254.531250	4368.151855
253.212891	4418.565918
251.894531	4406.418945
250.574219	4290.057129
249.255859	4387.821777
247.935547	4495.023438
246.615234	4378.706543
245.294922	4466.936035
243.974609	4405.568359
242.654297	4440.760742
241.332031	4426.732910
240.011719	4530.029297
238.689453	4559.504883
237.369141	4509.523438
236.046875	4470.906738
234.724609	4564.667969
233.402344	4431.525391
232.080078	4549.833496
230.755859	4598.172363
229.433594	4580.358887
228.111328	4532.323242
226.787109	4569.305664
225.462891	4583.611816
224.138672	4586.583496
222.814453	4559.346680
221.490234	4537.782227
220.166016	4582.279785
218.841797	4587.135742
217.515625	4608.969238
216.191406	4577.979004
214.865234	4633.752930
213.539063	4595.226563
212.212891	4630.239258
210.886719	4716.133301
209.560547	4679.497070
208.232422	4593.881836
206.906250	4683.504395
205.580078	4616.754395
204.251953	4619.709473
202.923828	4650.907715
201.595703	4627.499023
200.267578	4666.213379
198.939453	4614.580078
197.611328	4700.324219
196.281250	4757.818359
194.953125	4719.362305
193.623047	4624.500488
192.294922	4747.787598
190.964844	4714.993164
189.634766	4849.499023
188.304688	4784.749023
186.972656	4815.850586
185.642578	4925.844238
184.312500	4844.209473
182.980469	4912.843750
181.648438	5003.984863
180.316406	4856.672363
178.986328	5019.117676
177.652344	4824.937012
176.320313	5006.093750
174.988281	4948.932129
173.656250	5073.732422
172.322266	5012.828125
170.988281	4955.695313
169.656250	4964.196289
168.322266	5038.297363
166.988281	5110.498047
165.654297	5036.523926
164.318359	5043.130859
162.984375	5006.655273
161.648438	5236.118164
160.314453	5119.108398
158.978516	4990.906738
157.642578	5064.897461
156.306641	5088.333496
154.970703	5115.503906
153.634766	5146.405273
152.298828	5132.406250
150.960938	5296.069336
149.625000	5121.250000
148.287109	5312.898438
146.949219	5371.773438
145.611328	5273.651367
144.273438	5244.695801
142.935547	5421.242188
141.597656	5429.625977
140.257813	5350.236328
138.919922	5493.061523
137.580078	5538.763672
136.240234	5550.852539
134.900391	5465.898438
133.560547	5472.398438
132.220703	5672.905273
130.880859	5714.803711
129.539063	5695.148438
128.199219	5645.667480
126.857422	5663.313965
125.515625	5677.226074
124.175781	5774.990723
122.833984	5773.972656
121.490234	5871.685547
120.148438	5773.799316
118.806641	5839.819824
117.462891	5892.784180
116.121094	5845.206543
114.777344	5825.563477
113.433594	5856.170898
112.089844	5803.042969
110.746094	5775.976074
109.402344	5910.729492
108.058594	5907.827148
106.712891	6070.397461
105.367188	6015.417969
104.023438	5871.246094
102.677734	5972.414063
101.332031	5969.502441
99.986328	6009.315918
98.640625	6056.544434
97.292969	6025.764648
95.947266	6113.818359
94.599609	6246.391602
93.253906	6300.967773
91.906250	6374.080566
90.558594	6237.518555
89.210938	6190.042969
87.863281	6385.542480
86.515625	6367.726563
85.166016	6331.376465
83.818359	6434.063477
82.468750	6418.100586
81.119141	6346.553223
79.769531	6199.070313
78.419922	6294.297852
77.070313	6319.114746
75.720703	6438.358887
74.371094	6459.438477
73.019531	6437.935547
71.667969	6342.411621
70.318359	6270.976563
68.966797	6221.767090
67.615234	6231.766113
66.263672	6140.043945
64.912109	6244.356445
63.558594	5997.368652
62.207031	6144.183105
60.853516	6148.641602
59.500000	6040.383789
58.148438	5889.672852
56.794922	5709.460449
55.439453	5466.520996
54.085938	5327.069336
52.732422	5152.589844
51.376953	5024.317383
