#Wave		#Intensity
4002.106445	2004.510132
4001.408203	1875.648682
4000.709961	1907.557373
4000.010742	1914.407471
3999.312500	1860.433472
3998.613281	1920.946533
3997.914063	1974.286987
3997.215820	1916.753174
3996.516602	1827.058716
3995.816406	1966.185547
3995.117188	1922.977783
3994.417969	1929.816284
3993.717773	2072.432617
3993.018555	1911.333130
3992.318359	1957.462158
3991.618164	1975.004761
3990.917969	2035.392090
3990.217773	1856.550537
3989.517578	1834.833984
3988.817383	1830.969971
3988.117188	1948.438477
3987.416016	1919.581421
3986.715820	1940.677612
3986.014648	1926.098389
3985.313477	2018.512085
3984.612305	1971.833618
3983.911133	2007.168091
3983.209961	1864.263306
3982.507813	1931.679443
3981.806641	1924.242310
3981.105469	1866.927612
3980.403320	1977.057983
3979.701172	1926.876587
3978.999023	1908.761475
3978.296875	1919.136475
3977.594727	1893.908325
3976.892578	1865.128784
3976.190430	1886.182129
3975.487305	2017.534790
3974.785156	1967.403076
3974.082031	1910.173096
3973.378906	1867.187622
3972.675781	2044.686523
3971.972656	2026.581055
3971.269531	1933.829712
3970.566406	1997.495850
3969.862305	2025.604492
3969.159180	1968.429199
3968.455078	1975.218140
3967.751953	1999.764648
3967.047852	1917.760986
3966.343750	1846.436279
3965.639648	1839.039063
3964.935547	1867.141235
3964.230469	2062.043457
3963.526367	1955.255493
3962.821289	2011.709229
3962.117188	1968.817139
3961.412109	2071.359375
3960.707031	1914.990479
3960.001953	1904.045776
3959.296875	1910.830322
3958.591797	1882.166870
3957.885742	1981.096558
3957.180664	1909.909790
3956.474609	2058.403320
3955.769531	1870.331055
3955.063477	1905.447998
3954.357422	2014.917847
3953.651367	1950.863647
3952.945313	1900.990112
3952.238281	1865.290283
3951.532227	1978.234985
3950.825195	1967.302368
3950.119141	1896.231567
3949.412109	1948.984619
3948.705078	2005.257446
3947.998047	1934.214600
3947.291016	1969.258667
3946.583984	1919.453857
3945.876953	2056.984863
3945.168945	1985.979126
3944.461914	1989.193359
3943.753906	1875.829590
3943.045898	1995.618774
3942.337891	2016.487305
3941.629883	2030.287231
3940.921875	1948.762817
3940.213867	1927.271118
3939.504883	1888.140137
3938.796875	1954.881592
3938.087891	1905.174316
3937.379883	2017.749512
3936.670898	2024.479492
3935.961914	1971.258423
3935.252930	1956.838623
3934.543945	1977.676025
3933.833984	1843.419800
3933.125000	1790.261719
3932.415039	1853.398682
3931.706055	1955.268188
3930.996094	1909.162598
3930.286133	1993.381104
3929.576172	1978.975830
3928.866211	1904.722534
3928.156250	1907.936890
3927.445313	1981.542480
3926.735352	1924.919678
3926.024414	1928.129150
3925.314453	1941.891235
3924.603516	1836.058838
3923.892578	1944.784668
3923.181641	2046.442993
3922.470703	2035.567505
3921.758789	1961.423706
3921.047852	1940.021606
3920.335938	1929.168335
3919.625000	1939.398804
3918.913086	1960.164551
3918.201172	1931.751709
3917.489258	1826.090332
3916.777344	2011.888062
3916.065430	1860.609985
3915.352539	1835.741211
3914.640625	1930.201904
3913.927734	1933.401001
3913.215820	1862.924072
3912.502930	1936.288208
3911.790039	1939.484619
3911.077148	1907.613525
3910.364258	1788.100586
3909.650391	2054.232910
3908.937500	1791.031616
3908.224609	1899.380371
3907.510742	1906.083130
3906.796875	1877.751099
3906.083008	1993.039063
3905.369141	1985.714844
3904.655273	1964.386719
3903.941406	1988.578613
3903.227539	1900.748047
3902.512695	1896.943115
3901.798828	2071.605225
3901.083984	1969.808472
3900.369141	1889.033569
3899.654297	1965.678589
3898.939453	1787.011719
3898.224609	1979.033936
3897.509766	2083.595215
3896.793945	1988.885010
3896.079102	1978.081299
3895.363281	1900.889648
3894.648438	1925.040649
3893.932617	1977.129150
3893.216797	1868.541260
3892.500977	2028.875366
3891.784180	1923.805420
3891.068359	1878.114746
3890.352539	1999.975952
3889.635742	1870.532471
3888.918945	1926.060181
3888.203125	1831.556763
3887.486328	1942.882690
3886.769531	1911.182861
3886.051758	1865.545288
3885.334961	1938.461182
3884.618164	1871.918457
3883.900391	2018.001587
3883.183594	1951.467285
3882.465820	2006.901489
3881.748047	1947.357544
3881.030273	1908.731079
3880.312500	1908.424927
3879.594727	1925.528564
3878.875977	1935.663818
3878.158203	1956.238403
3877.439453	2067.293945
3876.721680	1854.698486
3876.002930	2004.005493
3875.284180	1805.402710
3874.565430	1954.669678
3873.846680	1982.176025
3873.127930	1905.365356
3872.408203	1908.536011
3871.689453	1942.988159
3870.969727	1935.725830
3870.250000	1879.819946
3869.530273	2060.174561
3868.810547	2007.739990
3868.090820	1896.280640
3867.371094	1972.371094
3866.651367	1965.110718
3865.930664	1947.438721
3865.210938	2040.838257
3864.490234	1957.224731
3863.769531	1873.637939
3863.048828	1914.967163
3862.328125	1928.534302
3861.607422	2011.457642
3860.886719	1931.383057
3860.165039	1955.341675
3859.444336	1982.758911
3858.722656	1819.548096
3858.000977	1916.283203
3857.279297	1933.299316
3856.557617	1856.778076
3855.835938	1894.579712
3855.114258	1942.758179
3854.392578	2039.395752
3853.669922	2021.759155
3852.948242	2017.973511
3852.225586	1979.580933
3851.502930	1968.882690
3850.780273	1968.566895
3850.057617	1940.578003
3849.334961	1954.101074
3848.612305	1794.718262
3847.888672	1950.016846
3847.166016	2001.557983
3846.442383	2004.693237
3845.718750	1973.269409
3844.995117	1958.275269
3844.271484	1943.281006
3843.547852	1928.286865
3842.824219	1913.292725
3842.100586	1906.079712
3841.375977	2012.801270
3840.651367	1943.439697
3839.927734	1950.030762
3839.203125	2129.161133
3838.478516	1990.808716
3837.753906	2021.536865
3837.029297	1859.101807
3836.303711	2010.542725
3835.579102	1996.428101
3834.853516	1899.577637
3834.128906	1919.954712
3833.403320	1936.878906
3832.677734	1988.255981
3831.952148	1939.703003
3831.226563	1991.063110
3830.500000	2011.409058
3829.774414	1983.537354
3829.047852	2038.308716
3828.322266	1979.458740
3827.595703	1999.793213
3826.869141	1996.031128
3826.142578	2064.528564
3825.416016	1936.905396
3824.689453	1943.474365
3823.961914	1980.994263
3823.235352	1977.237915
3822.507813	1884.091553
3821.781250	2065.980713
3821.053711	1938.479614
3820.326172	2051.572266
3819.598633	1951.601685
3818.871094	1913.499756
3818.142578	1954.410767
3817.415039	1933.491821
3816.686523	1970.952637
3815.958984	1891.673828
3815.230469	1898.235718
3814.501953	1911.659668
3813.773438	1945.668213
3813.044922	1965.942139
3812.316406	1931.322754
3811.586914	1958.452026
3810.858398	1978.713867
3810.128906	1981.825317
3809.399414	1971.223022
3808.669922	1974.334595
3807.940430	2042.560303
3807.210938	1918.876465
3806.481445	1928.846924
3805.751953	1959.366821
3805.021484	2027.551025
3804.291992	1914.221924
3803.561523	1872.829102
3802.831055	1879.375366
3802.100586	2077.592041
3801.370117	1971.171509
3800.639648	1933.217651
3799.909180	2049.224365
3799.177734	2059.157227
3798.447266	1952.807861
3797.715820	2034.561157
3796.984375	1976.114014
3796.252930	1927.940430
3795.521484	1978.898193
3794.790039	1947.825806
3794.058594	1985.097168
3793.327148	1957.449829
3792.594727	2039.110229
3791.862305	1960.237305
3791.130859	1966.752075
3790.398438	1891.329834
3789.666016	1972.948364
3788.933594	1945.329224
3788.201172	2009.851196
3787.467773	1948.117310
3786.735352	1998.973267
3786.001953	1923.618042
3785.268555	2011.972900
3784.536133	1936.639771
3783.802734	1851.103516
3783.069336	2000.780029
3782.334961	1905.037109
3781.601563	1935.398193
3780.868164	2044.107056
3780.133789	1941.590454
3779.399414	1948.090698
3778.666016	1971.614868
3777.931641	2035.987427
3777.197266	2028.852783
3776.462891	2035.334717
3775.727539	2011.187378
3774.993164	1936.010376
3774.257813	1966.317505
3773.523438	1901.375977
3772.788086	2064.311523
3772.052734	1887.165283
3771.317383	1965.057129
3770.582031	1954.544556
3769.846680	2018.805786
3769.110352	2011.686035
3768.375000	1909.436401
3767.638672	2038.217407
3766.903320	1980.150513
3766.166992	2078.315430
3765.430664	1999.888184
3764.694336	1918.091187
3763.958008	1931.360962
3763.220703	2002.320435
3762.484375	1913.775757
3761.747070	2008.463989
3761.010742	1909.770264
3760.273438	2001.036987
3759.536133	1895.593994
3758.798828	2105.501221
3758.061523	1969.565430
3757.323242	1965.860352
3756.585938	2036.711548
3755.847656	2005.890137
3755.110352	2056.385498
3754.372070	1947.664185
3753.633789	1876.231323
3752.895508	1960.584473
3752.157227	2041.525024
3751.418945	1929.490479
3750.679688	1929.181274
3749.941406	1854.424438
3749.202148	1992.848389
3748.462891	1985.763184
3747.723633	2049.709717
3746.984375	2032.472168
3746.245117	2103.153320
3745.505859	1977.729126
3744.766602	1977.412109
3744.026367	2088.623779
3743.287109	1993.673950
3742.546875	1915.647339
3741.806641	2050.461426
3741.066406	2040.000366
3740.326172	1995.773193
3739.585938	2005.582520
3738.845703	1998.509399
3738.104492	2116.325195
3737.364258	1967.495850
3736.623047	2007.671387
3735.881836	2061.328857
3735.140625	2000.281738
3734.399414	1979.725464
3733.658203	2060.337891
3732.916992	2016.177856
3732.174805	2056.306641
3731.433594	2042.495361
3730.691406	2042.168091
3729.949219	2126.075195
3729.207031	2139.209717
3728.464844	2054.659668
3727.722656	1943.194458
3726.980469	2064.102783
3726.237305	2057.038818
3725.495117	2117.299561
3724.751953	1982.336426
3724.008789	2029.129517
3723.266602	2099.459229
3722.523438	2031.843262
3721.779297	2068.515381
3721.036133	2118.627441
3720.292969	2104.838623
3719.548828	2050.712158
3718.805664	2141.138184
3718.061523	2070.219482
3717.317383	2096.769287
3716.573242	2056.117432
3715.829102	1918.063477
3715.084961	1978.210815
3714.339844	2038.338867
3713.595703	2081.659912
3712.850586	2188.749756
3712.106445	1976.943237
3711.361328	1949.779175
3710.616211	2090.392090
3709.871094	1996.121948
3709.125977	2019.282227
3708.379883	2052.496094
3707.634766	2062.226807
3706.888672	2075.307129
3706.143555	2091.735352
3705.397461	2034.422974
3704.651367	2117.873535
3703.905273	2027.069946
3703.159180	2103.794922
3702.412109	2086.710693
3701.666016	2150.005615
3700.918945	2119.525879
3700.172852	2095.751221
3699.425781	2112.152100
3698.678711	2162.015137
3697.931641	2037.858032
3697.184570	2134.556885
3696.436523	2204.463135
3695.689453	2043.567871
3694.942383	2066.649170
3694.194336	2073.005127
3693.446289	2122.818115
3692.698242	2089.053223
3691.950195	2155.557373
3691.202148	2141.846436
3690.454102	2071.344727
3689.705078	2114.437500
3688.957031	2094.059814
3688.208008	2177.206055
3687.459961	2136.792480
3686.710938	2163.155762
3685.961914	2152.796143
3685.212891	2089.045654
3684.462891	2175.462402
3683.713867	2161.769775
3682.963867	2124.732422
3682.214844	2161.076904
3681.464844	2147.392822
3680.714844	2183.722168
3679.964844	2186.705566
3679.214844	2189.687988
3678.464844	2259.316162
3677.713867	2125.682373
3676.963867	2248.598389
3676.212891	2244.907471
3675.462891	2211.245850
3674.711914	2304.121826
3673.960938	2350.360596
3673.209961	2196.868896
3672.458984	2256.421875
3671.707031	2325.938232
3670.956055	2149.235107
3670.204102	2195.461182
3669.452148	2284.909424
3668.701172	2271.241943
3667.949219	2310.776123
3667.197266	2223.973633
3666.444336	2303.388184
3665.692383	2336.251953
3664.940430	2315.941162
3664.187500	2239.159668
3663.434570	2262.052490
3662.681641	2261.690186
3661.929688	2354.304443
3661.175781	2417.008545
3660.422852	2370.147949
3659.669922	2237.008057
3658.916992	2316.292969
3658.163086	2289.378418
3657.409180	2325.503174
3656.655273	2308.546143
3655.902344	2397.717529
3655.147461	2337.648926
3654.393555	2367.111816
3653.639648	2479.434082
3652.885742	2353.096436
3652.130859	2395.797607
3651.375977	2415.292725
3650.622070	2431.468750
3649.867188	2348.276855
3649.112305	2434.001465
3648.356445	2327.658203
3647.601563	2320.664307
3646.846680	2542.061035
3646.090820	2452.298584
3645.334961	2544.555420
3644.580078	2517.680664
3643.824219	2533.816650
3643.068359	2444.112793
3642.312500	2506.550537
3641.555664	2529.292725
3640.799805	2482.607178
3640.042969	2492.125000
3639.287109	2640.436279
3638.530273	2583.842773
3637.773438	2527.267334
3637.016602	2526.862549
3636.259766	2509.944824
3635.501953	2555.771240
3634.745117	2436.507568
3633.988281	2584.661133
3633.230469	2597.448730
3632.472656	2593.732666
3631.714844	2580.119629
3630.957031	2672.074219
3630.199219	2585.889648
3629.441406	2529.412842
3628.682617	2631.222900
3627.924805	2630.801514
3627.166016	2640.268555
3626.407227	2623.367188
3625.649414	2688.850098
3624.890625	2747.722656
3624.130859	2737.400391
3623.372070	2707.319580
3622.613281	2683.834473
3621.853516	2680.112061
3621.094727	2646.762695
3620.334961	2639.755859
3619.575195	2580.095947
3618.815430	2619.167480
3618.055664	2694.415283
3617.294922	2776.217529
3616.535156	2617.908936
3615.775391	2739.156738
3615.014648	2748.581299
3614.253906	2518.033447
3613.493164	2639.238770
3612.732422	2783.408691
3611.971680	2674.535645
3611.210938	2756.235840
3610.449219	2670.394287
3609.688477	2784.909668
3608.926758	2741.777100
3608.166016	2728.205811
3607.404297	2724.486084
3606.642578	2868.457031
3605.879883	2625.169434
3605.118164	2782.233887
3604.356445	2775.227295
3603.593750	2659.986572
3602.832031	2784.176270
3602.069336	2659.134521
3601.306641	2717.718018
3600.543945	2681.227051
3599.781250	2700.460938
3599.018555	2837.651123
3598.254883	2748.739014
3597.492188	2722.093262
3596.728516	2603.751465
3595.964844	2727.770264
3595.201172	2864.845947
3594.437500	2766.179443
3593.673828	2736.278809
3592.910156	2696.570068
3592.146484	2863.010498
3591.381836	2702.249023
3590.617188	2688.732178
3589.853516	2815.848633
3589.088867	2815.397461
3588.324219	2788.791260
3587.559570	2703.354004
3586.793945	2833.654785
3586.029297	2722.094971
3585.263672	2751.064453
3584.499023	2819.226074
3583.733398	2867.768066
3582.967773	2886.903076
3582.202148	2837.462402
3581.436523	2830.478516
3580.670898	2784.326904
3579.904297	2783.880859
3579.138672	2783.434814
3578.372070	2805.827148
3577.605469	2818.425781
3576.838867	2762.528076
3576.072266	2908.831543
3575.305664	2702.953857
3574.539063	2868.779785
3573.771484	2702.087891
3573.004883	2812.458740
3572.237305	2844.592285
3571.469727	2857.168213
3570.703125	2811.107422
3569.935547	2795.034424
3569.166992	2778.961182
3568.399414	2762.888184
3567.631836	2746.814941
3566.863281	2730.741943
3566.094727	2818.168945
3565.327148	2856.761963
3564.558594	2794.493652
3563.790039	2722.487305
3563.021484	2679.772949
3562.251953	2861.435059
3561.483398	2701.672363
3560.713867	2873.520752
3559.945313	2678.056152
3559.175781	2781.612793
3558.406250	2761.672852
3557.636719	2855.437012
3556.867188	2770.531982
3556.096680	2708.386230
3555.327148	2912.510010
3554.556641	2778.939941
3553.787109	2804.461914
3553.016602	2690.424072
3552.246094	2800.318604
3551.475586	2738.227295
3550.705078	2721.569580
3549.933594	2640.050781
3549.163086	2707.726318
3548.391602	2707.292725
3547.621094	2680.924805
3546.849609	2806.903320
3546.078125	2806.453613
3545.306641	2643.994385
3544.535156	2737.521240
3543.762695	2694.973877
3542.991211	2769.030518
3542.218750	2745.920166
3541.446289	2648.352295
3540.674805	2677.061768
3539.902344	2734.890869
3539.129883	2569.414795
3538.356445	2737.250000
3537.583984	2613.881592
3536.811523	2681.386963
3536.038086	2697.127197
3535.264648	2712.862305
3534.491211	2699.495850
3533.717773	2705.528076
3532.944336	2747.109375
3532.170898	2691.735840
3531.397461	2688.073730
3530.623047	2736.098145
3529.849609	2638.765137
3529.075195	2667.406006
3528.300781	2699.266602
3527.526367	2608.442383
3526.751953	2808.145264
3525.977539	2691.514893
3525.202148	2703.990479
3524.427734	2603.544922
3523.652344	2635.384766
3522.876953	2599.485596
3522.101563	2647.438965
3521.326172	2708.273193
3520.550781	2620.801758
3519.775391	2613.935547
3519.000000	2587.736084
3518.223633	2764.535156
3517.447266	2689.996582
3516.671875	2625.144775
3515.895508	2682.693604
3515.119141	2604.983643
3514.342773	2575.590820
3513.565430	2749.002686
3512.789063	2549.018066
3512.011719	2619.404297
3511.235352	2660.811035
3510.458008	2557.443604
3509.680664	2685.689697
3508.903320	2620.941650
3508.125977	2675.183105
3507.347656	2649.035645
3506.570313	2632.539551
3505.791992	2509.992432
3505.014648	2634.909180
3504.236328	2721.232422
3503.458008	2685.461182
3502.679688	2524.443115
3501.901367	2581.840820
3501.122070	2571.795166
3500.343750	2683.740479
3499.564453	2670.471680
3498.786133	2705.344971
3498.006836	2701.702637
3497.227539	2633.898438
3496.448242	2588.569336
3495.668945	2524.011963
3494.888672	2626.219238
3494.109375	2548.852051
3493.329102	2667.050293
3492.548828	2624.957031
3491.769531	2624.536377
3490.989258	2515.178223
3490.208008	2665.341309
3489.427734	2623.274902
3488.647461	2529.981934
3487.866211	2529.576416
3487.085938	2612.409668
3486.304688	2698.417236
3485.523438	2585.968994
3484.742188	2735.951904
3483.960938	2498.755615
3483.179688	2565.532471
3482.397461	2513.946777
3481.616211	2574.303955
3480.833984	2561.102051
3480.051758	2525.525879
3479.269531	2614.619141
3478.487305	2553.479248
3477.705078	2616.976807
3476.922852	2437.647461
3476.139648	2577.806396
3475.357422	2721.114014
3474.574219	2551.434082
3473.791016	2621.266113
3473.007813	2639.999512
3472.224609	2543.823975
3471.441406	2565.755127
3470.658203	2552.581055
3469.874023	2625.546875
3469.090820	2519.865967
3468.306641	2602.381104
3467.522461	2586.020752
3466.738281	2531.407471
3465.954102	2479.999023
3465.169922	2581.590576
3464.385742	2609.856445
3463.600586	2564.832520
3462.815430	2659.989990
3462.031250	2513.048828
3461.246094	2538.122803
3460.460938	2547.268311
3459.675781	2460.903564
3458.890625	2450.959961
3458.104492	2409.194092
3457.319336	2564.728027
3456.533203	2545.227783
3455.747070	2554.363037
3454.960938	2573.036621
3454.174805	2582.164307
3453.388672	2467.288818
3452.602539	2581.336914
3451.815430	2603.172363
3451.029297	2675.848389
3450.242188	2446.642578
3449.455078	2601.921143
3448.667969	2528.446045
3447.880859	2528.040771
3447.093750	2537.161865
3446.306641	2536.755127
3445.518555	2520.476563
3444.731445	2599.419922
3443.943359	2322.918701
3443.155273	2544.647949
3442.367188	2445.896729
3441.579102	2531.144775
3440.791016	2476.826172
3440.002930	2603.262939
3439.213867	2498.224609
3438.425781	2507.333740
3437.636719	2510.101074
3436.847656	2566.737549
3436.058594	2512.464844
3435.269531	2464.545410
3434.480469	2508.492432
3433.690430	2536.591309
3432.901367	2542.517334
3432.111328	2434.473633
3431.321289	2459.405518
3430.531250	2383.057373
3429.741211	2401.660889
3428.951172	2521.497803
3428.161133	2562.215820
3427.370117	2520.689697
3426.580078	2472.852295
3425.789063	2529.366699
3424.998047	2449.931396
3424.207031	2398.967529
3423.416016	2512.349609
3422.625000	2474.030762
3421.833984	2438.883301
3421.041992	2646.964600
3420.250977	2513.897461
3419.458984	2466.129639
3418.666992	2412.062744
3417.875000	2582.135010
3417.083008	2395.508789
3416.291016	2439.303711
3415.498047	2413.671631
3414.706055	2593.098145
3413.913086	2466.517822
3413.120117	2409.357422
3412.327148	2484.645752
3411.534180	2528.383789
3410.741211	2417.655273
3409.948242	2537.028076
3409.155273	2404.275879
3408.361328	2498.407959
3407.567383	2523.208008
3406.774414	2399.970215
3405.980469	2399.585693
3405.186523	2430.686523
3404.391602	2546.774658
3403.597656	2461.382813
3402.803711	2542.811279
3402.008789	2463.740234
3401.213867	2475.929199
3400.418945	2478.677979
3399.624023	2437.395264
3398.829102	2559.640869
3398.034180	2414.605713
3397.239258	2389.070313
3396.443359	2470.405762
3395.648438	2432.299561
3394.852539	2450.761719
3394.056641	2459.793213
3393.260742	2471.962891
3392.464844	2418.178223
3391.667969	2333.010742
3390.872070	2464.495117
3390.075195	2551.991455
3389.279297	2501.366699
3388.482422	2416.240234
3387.685547	2393.890625
3386.888672	2540.944336
3386.091797	2455.852295
3385.293945	2389.603516
3384.497070	2473.877686
3383.699219	2366.892578
3382.902344	2419.798828
3382.104492	2541.635010
3381.306641	2400.222168
3380.508789	2406.103271
3379.709961	2390.055176
3378.912109	2489.894287
3378.113281	2329.791504
3377.315430	2404.560547
3376.516602	2401.044434
3375.717773	2400.659424
3374.918945	2503.545898
3374.120117	2412.405518
3373.321289	2380.734375
3372.521484	2336.561523
3371.722656	2608.272949
3370.922852	2348.320068
3370.123047	2469.874023
3369.323242	2378.826172
3368.523438	2359.692383
3367.723633	2387.438232
3366.922852	2424.548340
3366.123047	2408.540039
3365.322266	2398.783447
3364.522461	2295.342773
3363.721680	2357.422852
3362.920898	2366.410645
3362.120117	2328.574219
3361.318359	2459.279053
3360.517578	2452.644043
3359.715820	2424.171387
3358.915039	2355.155762
3358.113281	2407.799561
3357.311523	2348.163574
3356.509766	2341.551025
3355.708008	2369.232422
3354.905273	2431.190674
3354.103516	2365.356201
3353.300781	2389.904053
3352.499023	2411.328613
3351.696289	2389.137695
3350.893555	2423.012939
3350.090820	2379.029541
3349.287109	2397.328613
3348.484375	2440.524902
3347.681641	2384.110107
3346.877930	2337.048828
3346.074219	2408.236816
3345.270508	2342.521240
3344.466797	2335.924805
3343.663086	2400.858398
3342.859375	2431.567627
3342.054688	2375.217041
3341.250977	2421.462402
3340.446289	2284.325195
3339.641602	2501.478760
3338.836914	2330.196533
3338.032227	2360.886963
3337.227539	2341.872803
3336.421875	2304.231934
3335.617188	2356.646240
3334.811523	2343.850586
3334.006836	2414.865234
3333.201172	2389.650391
3332.395508	2407.884766
3331.589844	2298.912842
3330.783203	2360.583252
3329.977539	2366.407471
3329.170898	2424.946045
3328.365234	2309.840088
3327.558594	2318.769531
3326.751953	2414.480957
3325.945313	2252.947510
3325.138672	2299.062988
3324.331055	2391.633545
3323.524414	2347.885254
3322.716797	2520.939209
3321.909180	2294.491699
3321.101563	2362.235352
3320.293945	2364.951904
3319.486328	2253.152832
3318.678711	2413.705078
3317.871094	2351.437988
3317.062500	2320.125732
3316.253906	2397.078613
3315.446289	2337.936523
3314.637695	2414.861816
3313.829102	2228.983398
3313.019531	2339.902588
3312.210938	2407.518799
3311.402344	2339.151855
3310.592773	2317.149902
3309.783203	2316.778076
3308.973633	2310.229492
3308.164063	2411.764404
3307.354492	2420.640137
3306.544922	2244.289551
3305.735352	2370.478516
3304.924805	2292.946533
3304.114258	2298.749756
3303.304688	2286.040527
3302.494141	2365.873047
3301.683594	2217.457275
3300.872070	2312.692871
3300.061523	2352.402100
3299.250977	2327.363770
3298.439453	2407.125244
3297.627930	2234.168701
3296.816406	2258.459229
3296.004883	2288.903076
3295.193359	2294.696045
3294.381836	2121.868164
3293.570313	2275.484863
3292.757813	2305.906250
3291.945313	2397.880859
3291.133789	2308.243896
3290.321289	2246.330322
3289.508789	2412.110107
3288.695313	2362.504150
3287.882813	2365.200684
3287.070313	2374.046875
3286.256836	2296.798340
3285.443359	2222.648926
3284.629883	2289.914063
3283.816406	2249.594727
3283.002930	2279.960938
3282.189453	2236.583984
3281.375000	2306.875000
3280.561523	2254.293701
3279.747070	2367.549561
3278.932617	2241.289063
3278.119141	2296.185303
3277.303711	2332.647949
3276.489258	2415.130859
3275.674805	2322.694580
3274.859375	2346.864258
3274.044922	2272.872314
3273.229492	2247.972900
3272.414063	2324.270264
3271.598633	2234.988281
3270.783203	2308.197510
3269.967773	2298.632568
3269.151367	2276.813232
3268.335938	2328.533447
3267.519531	2279.145752
3266.703125	2266.528564
3265.886719	2284.539063
3265.070313	2180.068115
3264.253906	2326.665527
3263.437500	2277.317383
3262.620117	2267.770752
3261.803711	2298.005859
3260.986328	2297.637207
3260.168945	2217.735840
3259.351563	2241.847412
3258.534180	2265.951416
3257.715820	2207.495605
3256.898438	2375.275391
3256.080078	2338.216064
3255.262695	2282.832764
3254.444336	2291.632813
3253.625977	2224.054688
3252.807617	2211.479492
3251.989258	2397.420898
3251.169922	2293.215332
3250.351563	2350.855469
3249.532227	2258.900879
3248.712891	2289.059082
3247.893555	2264.279053
3247.074219	2160.178223
3246.254883	2254.400391
3245.435547	2305.890381
3244.616211	2241.478027
3243.795898	2378.329590
3242.975586	2173.687988
3242.155273	2176.387207
3241.334961	2182.133301
3240.514648	2325.000488
3239.694336	2221.039795
3238.874023	2369.947021
3238.052734	2323.880859
3237.231445	2253.467529
3236.411133	2298.776855
3235.589844	2219.257324
3234.768555	2261.513672
3233.946289	2382.881592
3233.125000	2285.129883
3232.303711	2181.324951
3231.481445	2333.064941
3230.659180	2223.203125
3229.836914	2201.560303
3229.014648	2189.045410
3228.192383	2301.168457
3227.370117	2309.917236
3226.547852	2206.224365
3225.724609	2251.446045
3224.901367	2284.501465
3224.078125	2320.583496
3223.255859	2341.469482
3222.431641	2256.073242
3221.608398	2173.740234
3220.785156	2243.206787
3219.960938	2349.070801
3219.137695	2254.624512
3218.313477	2405.962402
3217.489258	2199.297119
3216.665039	2323.298096
3215.840820	2247.111572
3215.015625	2319.520020
3214.191406	2404.031250
3213.366211	2339.992676
3212.541992	2294.157959
3211.716797	2263.488525
3210.891602	2323.717285
3210.066406	2368.781006
3209.241211	2392.629883
3208.415039	2274.147461
3207.589844	2279.837646
3206.763672	2218.927734
3205.937500	2306.345703
3205.111328	2318.080078
3204.285156	2266.270264
3203.458984	2326.411133
3202.632813	2319.988037
3201.805664	2398.246582
3200.978516	2331.338135
3200.152344	2291.660645
3199.325195	2251.996094
3198.498047	2306.036377
3197.670898	2224.076172
3196.842773	2250.911133
3196.015625	2244.507813
3195.187500	2280.391846
3194.360352	2394.781982
3193.532227	2164.921631
3192.704102	2264.198730
3191.875977	2318.166992
3191.046875	2221.219727
3190.218750	2254.055176
3189.389648	2280.846191
3188.561523	2340.809814
3187.732422	2249.953125
3186.903320	2237.529541
3186.074219	2294.456299
3185.245117	2336.291504
3184.415039	2251.521973
3183.585938	2254.173828
3182.755859	2377.349365
3181.926758	2301.651611
3181.096680	2247.063232
3180.266602	2309.947266
3179.435547	2285.486572
3178.605469	2339.312012
3177.775391	2251.640137
3176.944336	2344.579834
3176.113281	2434.480713
3175.283203	2241.528564
3174.452148	2349.466553
3173.620117	2325.026855
3172.789063	2360.740967
3171.958008	2273.163574
3171.125977	2314.887207
3170.294922	2299.486084
3169.462891	2278.078857
3168.630859	2127.468018
3167.798828	2235.284912
3166.966797	2153.819580
3166.133789	2243.577148
3165.301758	2261.234375
3164.468750	2383.972900
3163.635742	2248.499756
3162.802734	2269.149170
3161.969727	2337.808350
3161.136719	2241.414795
3160.303711	2301.056152
3159.469727	2396.673340
3158.636719	2354.300781
3157.802734	2317.938721
3156.968750	2236.616455
3156.134766	2410.121338
3155.300781	2301.835693
3154.466797	2274.495361
3153.631836	2268.137451
3152.797852	2294.734619
3151.962891	2333.304199
3151.127930	2264.049316
3150.292969	2254.702637
3149.458008	2239.371094
3148.623047	2394.664307
3147.788086	2235.658447
3146.952148	2313.100830
3146.117188	2321.704590
3145.281250	2345.262695
3144.445313	2437.604492
3143.609375	2203.958008
3142.773438	2290.312744
3141.936523	2203.249512
3141.100586	2280.609619
3140.263672	2196.564453
3139.426758	2300.792725
3138.590820	2330.298584
3137.753906	2162.647461
3136.916016	2192.165771
3136.079102	2329.175049
3135.242188	2164.590332
3134.404297	2271.708252
3133.566406	2280.297119
3132.729492	2250.088379
3131.891602	2249.726807
3131.052734	2285.164063
3130.214844	2299.710449
3129.376953	2254.606445
3128.538086	2257.225830
3127.700195	2304.564209
3126.861328	2235.634277
3126.022461	2408.136230
3125.183594	2228.955811
3124.343750	2189.864990
3123.504883	2281.859863
3122.666016	2281.492920
3121.826172	2281.126221
3120.986328	2230.142090
3120.146484	2253.599609
3119.306641	2208.589111
3118.466797	2252.875000
3117.626953	2184.074463
3116.786133	2222.399658
3115.946289	2222.042236
3115.105469	2284.141846
3114.264648	2224.301270
3113.423828	2223.943604
3112.583008	2286.012939
3111.741211	2247.006348
3110.900391	2240.701660
3110.058594	2273.025391
3109.217773	2162.740234
3108.375977	2147.541016
3107.534180	2286.778076
3106.692383	2218.114990
3105.849609	2289.011719
3105.007813	2229.275391
3104.165039	2202.205566
3103.323242	2175.144287
3102.480469	2323.143311
3101.637695	2227.841553
3100.794922	2182.992920
3099.952148	2224.159668
3099.108398	2300.893799
3098.265625	2353.886230
3097.421875	2279.404785
3096.578125	2151.601807
3095.734375	2189.776855
3094.890625	2272.379883
3094.046875	2230.543457
3093.203125	2298.304443
3092.358398	2203.174561
3091.513672	2122.879150
3090.669922	2285.354492
3089.825195	2347.143311
3088.980469	2198.798096
3088.134766	2189.567871
3087.290039	2177.382080
3086.445313	2239.148193
3085.599609	2277.234863
3084.753906	2137.890869
3083.908203	2193.720459
3083.062500	2231.795654
3082.216797	2204.836914
3081.371094	2242.897949
3080.524414	2162.763184
3079.678711	2262.855225
3078.832031	2292.027832
3077.985352	2303.471680
3077.138672	2226.331055
3076.291992	2107.884033
3075.445313	2246.276855
3074.597656	2240.012939
3073.750977	2254.406738
3072.903320	2298.298828
3072.055664	2356.925781
3071.208008	2318.204834
3070.360352	2258.854004
3069.512695	2196.573730
3068.665039	2269.918945
3067.816406	2290.186035
3066.967773	2213.195557
3066.120117	2145.069336
3065.271484	2253.728027
3064.421875	2220.964111
3063.573242	2179.375244
3062.724609	2270.308105
3061.875000	2084.460938
3061.026367	2269.577393
3060.176758	2328.076416
3059.327148	2186.450439
3058.477539	2271.424316
3057.627930	2268.116943
3056.777344	2208.925537
3055.927734	2320.322021
3055.077148	2199.393555
3054.226563	2310.755615
3053.375977	2119.321533
3052.525391	2186.576172
3051.674805	2200.916504
3050.824219	2218.190430
3049.972656	2229.583496
3049.122070	2349.644043
3048.270508	2190.690430
3047.418945	2310.718262
3046.567383	2286.861328
3045.715820	2254.206299
3044.864258	2195.149658
3044.011719	2200.664795
3043.159180	2244.316650
3042.307617	2246.888672
3041.455078	2202.535156
3040.602539	2266.691895
3039.750000	2222.349121
3038.896484	2131.118408
3038.043945	2195.255371
3037.190430	2139.223633
3036.337891	2279.517822
3035.484375	2320.163818
3034.630859	2214.345459
3033.777344	2149.560791
3032.922852	2231.200928
3032.069336	2189.855225
3031.214844	2259.754150
3030.361328	2057.449951
3029.506836	2203.428711
3028.652344	2211.851074
3027.797852	2293.402344
3026.942383	2176.041504
3026.087891	2193.237061
3025.232422	2245.513184
3024.377930	2183.760742
3023.522461	2180.486328
3022.666992	2112.919189
3021.811523	2235.301514
3020.955078	2299.214355
3020.099609	2231.660645
3019.243164	2149.525879
3018.387695	2344.825195
3017.531250	2198.467041
3016.674805	2180.598145
3015.818359	2174.409668
3014.961914	2139.041260
3014.104492	2240.817383
3013.248047	2199.614746
3012.390625	2269.263672
3011.533203	2201.822754
3010.675781	2213.131592
3009.818359	2329.390381
3008.960938	2206.588867
3008.102539	2273.265869
3007.245117	2173.824463
3006.386719	2147.252930
3005.528320	2245.950195
3004.669922	2184.424561
3003.811523	2157.864014
3002.953125	2195.367676
3002.094727	2215.392090
3001.235352	2162.642822
3000.376953	2258.331787
2999.517578	2252.148438
2998.658203	2321.608643
2997.798828	2172.885010
2996.939453	2172.535156
2996.079102	2201.263916
2995.219727	2171.835205
2994.359375	2113.346436
2993.499023	2232.171387
2992.638672	2153.349854
2991.778320	2240.168945
2990.917969	2158.466064
2990.057617	2190.069092
2989.196289	2210.045166
2988.335938	2314.221191
2987.474609	2189.010742
2986.613281	2174.144531
2985.751953	2194.110107
2984.890625	2199.560059
2984.028320	2149.883057
2983.166992	2181.446289
2982.304688	2250.704102
2981.442383	2195.242920
2980.580078	2278.973633
2979.717773	2238.020508
2978.855469	2101.429199
2977.993164	2130.071289
2977.129883	2277.505127
2976.267578	2213.401367
2975.404297	2227.528076
2974.541016	2189.518555
2973.677734	2270.246094
2972.814453	2188.812988
2971.950195	2269.514404
2971.086914	2185.213379
2970.222656	2213.799805
2969.358398	2210.549561
2968.494141	2201.514648
2967.629883	2175.127686
2966.765625	2229.724854
2965.901367	2243.823242
2965.036133	2226.115234
2964.171875	2193.959961
2963.306641	2231.177979
2962.441406	2225.039063
2961.576172	2317.134766
2960.710938	2195.434570
2959.844727	2261.510742
2958.979492	2243.819580
2958.113281	2194.373047
2957.248047	2225.774902
2956.381836	2239.848145
2955.515625	2288.548096
2954.648438	2259.324463
2953.782227	2250.305176
2952.915039	2223.981689
2952.048828	2212.086914
2951.181641	2200.195801
2950.314453	2142.178223
2949.447266	2170.659668
2948.580078	2248.129639
2947.712891	2187.250244
2946.844727	2230.117188
2945.976563	2232.638428
2945.109375	2307.167725
2944.241211	2240.558105
2943.373047	2289.147217
2942.503906	2236.956787
2941.635742	2216.446533
2940.767578	2365.747314
2939.898438	2172.568359
2939.029297	2198.112061
2938.160156	2258.167236
2937.291016	2295.193359
2936.421875	2234.433350
2935.552734	2265.700684
2934.682617	2273.959717
2933.812500	2227.603760
2932.943359	2310.586670
2932.073242	2258.492920
2931.203125	2367.300293
2930.332031	2234.784668
2929.461914	2326.328613
2928.591797	2231.192383
2927.720703	2302.609863
2926.849609	2244.825928
2925.978516	2241.593750
2925.107422	2324.453369
2924.236328	2235.132324
2923.365234	2300.753662
2922.493164	2369.221924
2921.621094	2239.786621
2920.750000	2202.149414
2919.877930	2276.334229
2919.005859	2255.901855
2918.132813	2186.754150
2917.260742	2263.770752
2916.387695	2240.485107
2915.515625	2374.760254
2914.642578	2254.083008
2913.769531	2242.264648
2912.896484	2241.903076
2912.023438	2333.149658
2911.149414	2324.186279
2910.276367	2243.679932
2909.402344	2269.070313
2908.528320	2368.836426
2907.654297	2216.850342
2906.780273	2256.532471
2905.906250	2264.747070
2905.032227	2281.535889
2904.157227	2226.854492
2903.282227	2280.799805
2902.407227	2234.708984
2901.532227	2265.777832
2900.657227	2305.406982
2899.782227	2316.460205
2898.907227	2253.257813
2898.031250	2130.113037
2897.155273	2292.499512
2896.280273	2317.819824
2895.404297	2294.613770
2894.527344	2220.051514
2893.651367	2310.991699
2892.775391	2216.482422
2891.898438	2210.420654
2891.022461	2272.801025
2890.145508	2383.632568
2889.268555	2197.947510
2888.391602	2226.095947
2887.513672	2251.385254
2886.636719	2088.606445
2885.758789	2304.788330
2884.880859	2258.840820
2884.003906	2249.932129
2883.125977	2260.959229
2882.247070	2263.441406
2881.369141	2231.763184
2880.491211	2217.172119
2879.612305	2305.031494
2878.733398	2273.361572
2877.854492	2264.460205
2876.975586	2247.028564
2876.096680	2286.480225
2875.217773	2251.989990
2874.337891	2302.799805
2873.458984	2168.830322
2872.579102	2290.688232
2871.699219	2250.536133
2870.819336	2156.415771
2869.939453	2210.040283
2869.059570	2209.683350
2868.178711	2271.801270
2867.297852	2251.559326
2866.417969	2225.646484
2865.537109	2191.226563
2864.656250	2148.303955
2863.774414	2238.755859
2862.893555	2212.861328
2862.012695	2218.177002
2861.130859	2322.754150
2860.249023	2302.529541
2859.367188	2202.927002
2858.485352	2327.298584
2857.603516	2278.740479
2856.720703	2312.377930
2855.838867	2232.671143
2854.956055	2229.477539
2854.073242	2237.614990
2853.190430	2276.901123
2852.307617	2185.925049
2851.424805	2123.288818
2850.541992	2108.792969
2849.658203	2210.337402
2848.774414	2176.024170
2847.891602	2223.769531
2847.007813	2189.465088
2846.124023	2172.141602
2845.239258	2276.421387
2844.355469	2213.851074
2843.470703	2145.646973
2842.586914	2235.747803
2841.702148	2176.040039
2840.817383	2138.956299
2839.931641	2087.758545
2839.046875	2256.900879
2838.162109	2197.228027
2837.276367	2151.693115
2836.390625	2142.875732
2835.504883	2142.529541
2834.619141	2215.565186
2833.733398	2189.810059
2832.847656	2285.385986
2831.960938	2231.417480
2831.075195	2157.722656
2830.188477	2194.035400
2829.301758	2230.336182
2828.415039	2148.219482
2827.528320	2232.434326
2826.641602	2248.983154
2825.753906	2192.263428
2824.866211	2208.813477
2823.979492	2194.371826
2823.091797	2230.631348
2822.204102	2154.238770
2821.315430	2263.697021
2820.427734	2215.474609
2819.539063	2178.526367
2818.651367	2259.785400
2817.762695	2310.067383
2816.874023	2138.084473
2815.985352	2154.615967
2815.096680	2173.954346
2814.207031	2221.405273
2813.318359	2218.234863
2812.428711	2203.821289
2811.539063	2197.843994
2810.649414	2189.058594
2809.759766	2177.466064
2808.870117	2278.244629
2807.979492	2117.779053
2807.088867	2252.233887
2806.199219	2170.443115
2805.308594	2231.854248
2804.417969	2183.775879
2803.527344	2138.519775
2802.635742	2160.622070
2801.745117	2149.050537
2800.853516	2280.542480
2799.961914	2333.462158
2799.071289	2159.225098
2798.178711	2251.399414
2797.287109	2206.182861
2796.395508	2231.051758
2795.502930	2225.086182
2794.611328	2216.320557
2793.718750	2123.513916
2792.826172	2181.991943
2791.933594	2254.453613
2791.041016	2237.288574
2790.147461	2130.539795
2789.254883	2216.970703
2788.361328	2205.417236
2787.467773	2303.000977
2786.574219	2185.118896
2785.680664	2148.399414
2784.787109	2226.366455
2783.892578	2298.715088
2782.999023	2234.034668
2782.104492	2261.629150
2781.209961	2160.638672
2780.315430	2207.798828
2779.420898	2173.910889
2778.526367	2134.446533
2777.630859	2365.947266
2776.735352	2220.335205
2775.840820	2219.976074
2774.945313	2135.857910
2774.049805	2185.759766
2773.154297	2249.600830
2772.257813	2207.377686
2771.362305	2081.463135
2770.465820	2234.560791
2769.569336	2236.988525
2768.672852	2150.173340
2767.776367	2200.016113
2766.879883	2291.661133
2765.982422	2202.091797
2765.085938	2232.392578
2764.188477	2140.075195
2763.291016	2279.034180
2762.393555	2217.381104
2761.496094	2189.170166
2760.598633	2247.295898
2759.701172	2213.520752
2758.802734	2235.433350
2757.904297	2232.288330
2757.005859	2256.973633
2756.107422	2245.478516
2755.208984	2203.384277
2754.310547	2122.361328
2753.411133	2247.169678
2752.512695	2288.516602
2751.613281	2240.882080
2750.713867	2246.078857
2749.814453	2237.377441
2748.915039	2164.763916
2748.014648	2261.659424
2747.115234	2175.175293
2746.214844	2169.268066
2745.314453	2232.790527
2744.414063	2218.545898
2743.513672	2170.991211
2742.613281	2273.342773
2741.711914	2203.592285
2740.811523	2236.533936
2739.910156	2219.525391
2739.008789	2194.200439
2738.107422	2318.653320
2737.206055	2265.589844
2736.304688	2173.726807
2735.402344	2131.792480
2734.500977	2125.904053
2733.598633	2183.756348
2732.696289	2288.693848
2731.793945	2260.619629
2730.891602	2238.094482
2729.988281	2293.121582
2729.085938	2223.524658
2728.182617	2123.496094
2727.279297	2150.833496
2726.375977	2261.192383
2725.472656	2175.041992
2724.569336	2199.591064
2723.666016	2166.038818
2722.761719	2259.728271
2721.857422	2181.929932
2720.953125	2187.106689
2720.048828	2236.514404
2719.144531	2233.387939
2718.240234	2067.207520
2717.335938	2133.189697
2716.430664	2243.354248
2715.525391	2231.941650
2714.620117	2151.486328
2713.714844	2098.671143
2712.809570	2172.877197
2711.904297	2142.159668
2710.998047	2241.175049
2710.091797	2315.322021
2709.186523	2262.522705
2708.280273	2253.879883
2707.374023	2242.481689
2706.466797	2159.383545
2705.560547	2145.246826
2704.653320	2180.739502
2703.747070	2114.230469
2702.839844	2196.569336
2701.932617	2163.146240
2701.025391	2149.020264
2700.117188	2283.652588
2699.209961	2236.460205
2698.301758	2216.821289
2697.393555	2307.323242
2696.485352	2243.632324
2695.577148	2171.704346
2694.668945	2207.128906
2693.760742	2148.988037
2692.851563	2165.135986
2691.943359	2181.284180
2691.034180	2197.432129
2690.125000	2213.580322
2689.215820	2229.728271
2688.305664	2256.855957
2687.396484	2174.036377
2686.486328	2146.203857
2685.577148	2236.526123
2684.666992	2200.450928
2683.756836	2136.920654
2682.846680	2246.423828
2681.935547	2188.397949
2681.025391	2166.080566
2680.114258	2223.372559
2679.203125	2154.400635
2678.291992	2159.539551
2677.380859	2230.522217
2676.469727	2087.518311
2675.558594	2216.085938
2674.646484	2254.117920
2673.734375	2242.785400
2672.823242	2206.784424
2671.911133	2250.281250
2670.998047	2217.030762
2670.085938	2134.470947
2669.173828	2188.916504
2668.260742	2166.648438
2667.347656	2182.729492
2666.434570	2204.281494
2665.521484	2182.021729
2664.608398	2228.202881
2663.695313	2153.945068
2662.781250	2055.083252
2661.868164	2194.287109
2660.954102	2166.575439
2660.040039	2149.813477
2659.125977	2212.362793
2658.210938	2135.445068
2657.296875	2099.559326
2656.381836	2238.620117
2655.467773	2290.182617
2654.552734	2155.920166
2653.637695	2191.086914
2652.722656	2209.852539
2651.806641	2266.848145
2650.891602	2190.020996
2649.975586	2156.902832
2649.059570	2284.854248
2648.143555	2150.744385
2647.227539	2207.703125
2646.311523	2158.232178
2645.395508	2187.890625
2644.478516	2184.808105
2643.561523	2192.635254
2642.644531	2170.465820
2641.727539	2186.471436
2640.810547	2117.970947
2639.893555	2183.036865
2638.975586	2264.431152
2638.058594	2285.859863
2637.140625	2173.802246
2636.222656	2241.540283
2635.304688	2230.283936
2634.386719	2199.971924
2633.467773	2305.784424
2632.549805	2253.695068
2631.630859	2201.622803
2630.711914	2176.776855
2629.792969	2233.554688
2628.874023	2197.831055
2627.955078	2192.035156
2627.036133	2197.117920
2626.116211	2188.604980
2625.196289	2114.855225
2624.276367	2177.023438
2623.356445	2233.736328
2622.436523	2211.637695
2621.516602	2213.995361
2620.595703	2186.474854
2619.674805	2123.659424
2618.754883	2185.765381
2617.833984	2169.121826
2616.912109	2225.771240
2615.991211	2233.551758
2615.070313	2233.189209
2614.148438	2202.983398
2613.226563	2229.751709
2612.304688	2115.479248
2611.382813	2155.811523
2610.460938	2196.130859
2609.539063	2220.171875
2608.616211	2255.046387
2607.694336	2216.740967
2606.771484	2164.900391
2605.848633	2153.712646
2604.925781	2172.323486
2604.001953	2296.547607
2603.079102	2190.572510
2602.155273	2238.948486
2601.232422	2146.551270
2600.308594	2129.964111
2599.384766	2159.384277
2598.460938	2183.383545
2597.536133	2207.375000
2596.612305	2179.969971
2595.687500	2106.601563
2594.762695	2138.705078
2593.837891	2260.008789
2592.913086	2224.503906
2591.988281	2270.084717
2591.062500	2134.614014
2590.137695	2193.702637
2589.211914	2150.127686
2588.286133	2260.508301
2587.360352	2165.631104
2586.434570	2240.875244
2585.508789	2278.302979
2584.582031	2164.575928
2583.655273	2231.687744
2582.729492	2147.684326
2581.802734	2260.636963
2580.875977	2257.572754
2579.948242	2197.876709
2579.021484	2240.661133
2578.093750	2129.765137
2577.166016	2134.810059
2576.239258	2180.278809
2575.311523	2158.367676
2574.382813	2144.546387
2573.455078	2152.279053
2572.526367	2178.862305
2571.598633	2175.815430
2570.669922	2213.155518
2569.741211	2234.331543
2568.812500	2180.137939
2567.883789	2233.605469
2566.954102	2209.026611
2566.025391	2219.428711
2565.095703	2248.655518
2564.166016	2240.222168
2563.236328	2229.102539
2562.306641	2223.363281
2561.375977	2139.672852
2560.446289	2096.323730
2559.515625	2278.709717
2558.584961	2235.351807
2557.654297	2307.518311
2556.723633	2199.709229
2555.792969	2180.553955
2554.861328	2239.268799
2553.930664	2096.624512
2552.999023	2265.382080
2552.067383	2248.911865
2551.135742	2253.912598
2550.204102	2245.497803
2549.271484	2212.944580
2548.339844	2166.992188
2547.407227	2271.217773
2546.474609	2332.512695
2545.541992	2214.186523
2544.609375	2203.105957
2543.676758	2229.545166
2542.743164	2221.144775
2541.810547	2239.535645
2540.876953	2220.422363
2539.943359	2201.315430
2539.009766	2233.088135
2538.076172	2195.245361
2537.141602	2197.565186
2536.208008	2237.351563
2535.273438	2175.443848
2534.338867	2140.310059
2533.404297	2273.709717
2532.469727	2177.057129
2531.535156	2139.266113
2530.599609	2235.169434
2529.664063	2138.570313
2528.729492	2242.460693
2527.793945	2148.563965
2526.857422	2182.949463
2525.921875	2273.424316
2524.986328	2136.831543
2524.049805	2221.943359
2523.113281	2293.676514
2522.177734	2125.110107
2521.241211	2175.481201
2520.303711	2188.471680
2519.367188	2297.521240
2518.429688	2211.771484
2517.493164	2238.087402
2516.555664	2149.708008
2515.618164	2277.359619
2514.680664	2252.992920
2513.742188	2247.294678
2512.804688	2161.636230
2511.866211	2251.893311
2510.928711	2240.868652
2509.990234	2216.527344
2509.051758	2168.220703
2508.112305	2186.510498
2507.173828	2279.352539
2506.234375	2217.747314
2505.295898	2113.571045
2504.356445	2217.025391
2503.416992	2232.631104
2502.477539	2213.643311
2501.537109	2093.574219
2500.597656	2231.541260
2499.657227	2191.288086
2498.716797	2156.365723
2497.776367	2235.768555
2496.835938	2259.327148
2495.895508	2261.616943
2494.955078	2205.448242
2494.013672	2228.999756
2493.072266	2130.353760
2492.130859	2124.695313
2491.189453	2249.155029
2490.248047	2187.723633
2489.306641	2195.331299
2488.364258	2208.244629
2487.421875	2234.422119
2486.480469	2239.364990
2485.538086	2231.041748
2484.594727	2159.063477
2483.652344	2182.579590
2482.709961	2232.603760
2481.766602	2187.171143
2480.823242	2181.513672
2479.879883	2154.656006
2478.936523	2262.947754
2477.993164	2281.125000
2477.049805	2254.263916
2476.105469	2190.332031
2475.161133	2102.588379
2474.216797	2126.074951
2473.272461	2144.259277
2472.328125	2257.722412
2471.383789	2193.841797
2470.438477	2214.652100
2469.494141	2150.799072
2468.548828	2195.415039
2467.603516	2181.834229
2466.658203	2094.219727
2465.711914	2273.656006
2464.766602	2236.278809
2463.820313	2204.199219
2462.874023	2174.772705
2461.927734	2182.344727
2460.981445	2213.688721
2460.035156	2189.557373
2459.088867	2223.530518
2458.141602	2167.721191
2457.194336	2130.409180
2456.247070	2306.907471
2455.299805	2240.555176
2454.352539	2097.704590
2453.405273	2158.041260
2452.457031	2231.546875
2451.509766	2154.700439
2450.561523	2135.891113
2449.613281	2212.000732
2448.665039	2116.742676
2447.715820	2126.940186
2446.767578	2176.662109
2445.818359	2194.750732
2444.870117	2165.415283
2443.920898	2254.614990
2442.970703	2090.972412
2442.021484	2251.247070
2441.072266	2198.227783
2440.122070	2195.237305
2439.171875	2139.612793
2438.222656	2186.627686
2437.272461	2141.546143
2436.321289	2191.175781
2435.371094	2096.137451
2434.419922	2182.572754
2433.469727	2145.408447
2432.518555	2189.747314
2431.567383	2194.646973
2430.616211	2068.150391
2429.664063	2115.107666
2428.712891	2214.590088
2427.760742	2172.203125
2426.808594	2203.363037
2425.856445	2129.482910
2424.904297	2239.399170
2423.952148	2160.287109
2423.000000	2170.432861
2422.046875	2154.334473
2421.093750	2114.629150
2420.140625	2153.632080
2419.187500	2150.657959
2418.234375	2176.530518
2417.281250	2231.235352
2416.327148	2220.385498
2415.373047	2128.286865
2414.419922	2106.974854
2413.465820	2090.910156
2412.510742	2208.458252
2411.556641	2160.949951
2410.601563	2228.688965
2409.647461	2215.233154
2408.692383	2144.184326
2407.737305	2180.481201
2406.782227	2122.547363
2405.827148	2088.182861
2404.871094	2197.728760
2403.916016	2194.754150
2402.958984	2102.854004
2402.003906	2133.891602
2401.046875	2130.928955
2400.091797	2159.337402
2399.134766	2158.985107
2398.177734	2140.339355
2397.220703	2132.151367
2396.263672	2110.903320
2395.306641	2141.903809
2394.349609	2149.389160
2393.392578	2117.703613
2392.435547	2151.298584
2391.476563	2148.337158
2390.519531	2093.177490
2389.560547	2145.026367
2388.603516	2246.430908
2387.644531	2188.673584
2386.685547	2177.883301
2385.728516	2060.176025
2384.769531	2164.135498
2383.810547	2075.145264
2382.851563	2080.019531
2381.890625	2152.651367
2380.931641	2204.413818
2379.972656	2123.290527
2379.013672	2263.605225
2378.052734	2117.388672
2377.093750	2150.894775
2376.132813	2173.975586
2375.171875	2095.526611
2374.210938	2144.635986
2373.250000	2126.069824
2372.291016	2125.722656
2371.330078	2161.795654
2370.367188	2114.624268
2369.406250	2041.462524
2368.445313	2178.937988
2367.484375	2181.181885
2366.521484	2095.048096
2365.560547	2131.090576
2364.597656	2078.773193
2363.634766	2174.561279
2362.673828	2127.448975
2361.710938	2059.574463
2360.748047	2100.786377
2359.785156	2144.581055
2358.822266	2172.785889
2357.859375	2208.767822
2356.894531	2130.554932
2355.931641	2213.235596
2354.968750	2176.554932
2354.003906	2093.197754
2353.041016	2056.548584
2352.076172	2139.187012
2351.111328	2074.024170
2350.146484	2125.527588
2349.181641	2086.304932
2348.218750	2184.432129
2347.251953	2243.664307
2346.287109	2111.186768
2345.322266	2219.621338
2344.357422	2136.392334
2343.390625	2063.547363
2342.425781	2104.629639
2341.458984	2285.466553
2340.494141	2101.354004
2339.527344	2176.046631
2338.560547	2144.646729
2337.595703	2118.429932
2336.628906	2120.669922
2335.662109	2128.080566
2334.693359	2070.855469
2333.726563	2197.177734
2332.759766	2183.896240
2331.792969	2180.955078
2330.824219	2185.765869
2329.857422	2386.900146
2328.888672	2324.522705
2327.921875	2135.628906
2326.953125	2119.788086
2325.984375	2103.952148
2325.015625	2108.770508
2324.046875	2116.167725
2323.078125	2131.303467
2322.109375	2092.257324
2321.140625	2089.335693
2320.169922	2158.627197
2319.201172	2142.802734
2318.230469	2052.216797
2317.261719	2090.547119
2316.291016	2164.947510
2315.320313	2089.863525
2314.351563	2043.145264
2313.380859	2099.484375
2312.410156	2078.535889
2311.439453	2024.116455
2310.468750	2144.800537
2309.496094	2008.008179
2308.525391	2136.377197
2307.554688	2087.130615
2306.582031	2050.765869
2305.611328	1986.113281
2304.638672	2083.534424
2303.666016	2090.909180
2302.695313	2036.567139
2301.722656	2059.373047
2300.750000	2082.171387
2299.777344	2017.576660
2298.804688	2102.048096
2297.832031	2093.996094
2296.857422	2080.809082
2295.884766	2113.858887
2294.912109	2154.601807
2293.937500	2156.816895
2292.962891	2043.506470
2291.990234	2081.674072
2291.015625	2150.625732
2290.041016	2052.767334
2289.066406	2155.052979
2288.091797	2180.351318
2287.117188	2110.747559
2286.142578	2123.223633
2285.167969	2071.598877
2284.191406	2076.386719
2283.216797	2122.181152
2282.240234	2119.271240
2281.265625	2152.232666
2280.289063	2123.701172
2279.314453	2064.442627
2278.337891	2174.224365
2277.361328	2022.798706
2276.384766	1945.664917
2275.408203	2114.284424
2274.431641	2080.667969
2273.453125	2011.239014
2272.476563	2164.414307
2271.500000	2031.044434
2270.521484	2015.366455
2269.544922	2165.908447
2268.566406	2124.645996
2267.587891	2034.827148
2266.609375	2139.285645
2265.632813	2118.491699
2264.654297	2015.942261
2263.675781	2043.713257
2262.695313	2091.908691
2261.716797	1989.413940
2260.738281	2045.262695
2259.759766	2078.116211
2258.779297	2146.694824
2257.800781	2105.509033
2256.820313	2105.164307
2255.839844	2117.575928
2254.859375	2004.990356
2253.880859	2152.588623
2252.900391	2057.884521
2251.919922	2060.096924
2250.937500	2008.775269
2249.957031	2087.458740
2248.976563	2071.826416
2247.996094	2081.678955
2247.013672	2127.193359
2246.033203	2058.072754
2245.050781	2085.749268
2244.068359	2067.583496
2243.087891	2067.244629
2242.105469	2064.360596
2241.123047	2130.193115
2240.140625	2096.763916
2239.158203	2055.713135
2238.173828	2075.726563
2237.191406	2039.779297
2236.208984	2021.644409
2235.224609	2072.163818
2234.242188	2003.187012
2233.257813	2101.984863
2232.275391	2129.594482
2231.291016	2045.396851
2230.306641	2126.355957
2229.322266	1978.685547
2228.337891	1965.663086
2227.353516	2117.692871
2226.369141	2071.647705
2225.384766	2109.383545
2224.398438	2154.720703
2223.414063	2060.478760
2222.427734	2098.197754
2221.443359	2064.876465
2220.457031	2122.872559
2219.470703	2140.275635
2218.484375	1975.120117
2217.498047	2101.548340
2216.511719	2078.392090
2215.525391	2057.777588
2214.539063	2037.169678
2213.552734	2079.903076
2212.566406	2049.166504
2211.578125	2096.948730
2210.591797	2126.990479
2209.603516	2038.031494
2208.615234	2164.262207
2207.628906	2044.955688
2206.640625	2133.186768
2205.652344	2021.514404
2204.664063	2006.005005
2203.675781	2109.374268
2202.687500	2103.970459
2201.697266	2065.699463
2200.708984	2032.496826
2199.720703	2080.187256
2198.730469	1971.178345
2197.742188	2041.603638
2196.751953	2058.952881
2195.761719	2023.252319
2194.771484	2012.818359
2193.781250	2050.364258
2192.791016	2087.897949
2191.800781	1994.157959
2190.810547	2054.402832
2189.820313	1950.605347
2188.830078	2076.435791
2187.837891	2058.436768
2186.847656	2088.365234
2185.855469	2130.892334
2184.863281	2077.594238
2183.873047	2062.127686
2182.880859	2049.186523
2181.888672	2000.968140
2180.896484	2048.513916
2179.904297	2060.774170
2178.912109	2037.765991
2177.917969	2120.540527
2176.925781	1989.254272
2175.933594	2129.915039
2174.939453	2237.805664
2173.947266	2091.463623
2172.953125	2060.923584
2171.958984	2032.909424
2170.964844	2070.309082
2169.970703	1969.363159
2168.976563	2041.967163
2167.982422	2101.975586
2166.988281	2199.673096
2165.994141	2015.826416
2165.000000	2176.333008
2164.003906	2100.595459
2163.009766	2120.348389
2162.013672	2094.881836
2161.017578	2076.957764
2160.023438	2111.770752
2159.027344	2159.125732
2158.031250	2106.056885
2157.035156	2145.867432
2156.039063	2087.799316
2155.042969	2160.216309
2154.044922	2127.250244
2153.048828	2094.295166
2152.052734	2139.090088
2151.054688	2183.870361
2150.058594	2150.921875
2149.060547	1990.153198
2148.062500	2105.105713
2147.064453	2099.748535
2146.066406	2147.003418
2145.068359	2046.456909
2144.070313	2111.235840
2143.072266	2118.401123
2142.074219	2100.527588
2141.074219	2150.246338
2140.076172	2077.312256
2139.078125	2117.008789
2138.078125	2191.719971
2137.078125	2088.796143
2136.078125	2135.974365
2135.080078	2073.105225
2134.080078	2122.770752
2133.080078	2134.921387
2132.080078	2132.071045
2131.078125	2084.237793
2130.078125	2106.383301
2129.078125	2111.033691
2128.076172	2138.163086
2127.076172	2095.354980
2126.074219	2172.418457
2125.074219	2089.672852
2124.072266	2126.772461
2123.070313	2101.464844
2122.068359	2086.146973
2121.066406	2158.158203
2120.064453	2033.074951
2119.062500	2139.989502
2118.058594	2099.737549
2117.056641	2191.645996
2116.052734	2079.103760
2115.050781	2175.969971
2114.046875	2125.770020
2113.044922	2127.912109
2112.041016	2122.579590
2111.037109	2042.522217
2110.033203	1989.886475
2109.029297	2079.201416
2108.025391	2156.038574
2107.021484	2023.754028
2106.015625	2078.175537
2105.011719	2130.090576
2104.005859	2055.099609
2103.001953	2094.563232
2101.996094	2129.039551
2100.992188	2056.572266
2099.986328	2058.720459
2098.980469	2192.624023
2097.974609	2120.181885
2096.968750	2052.734131
2095.962891	2149.301270
2094.955078	2014.793579
2093.949219	2200.756348
2092.943359	2011.647095
2091.935547	2018.765381
2090.929688	2167.395020
2089.921875	2092.569580
2088.914063	2107.116455
2087.906250	2019.918213
2086.900391	2076.650146
2085.892578	2056.463135
2084.882813	2125.571533
2083.875000	2130.181396
2082.867188	2112.474854
2081.859375	2114.605957
2080.849609	2052.292480
2079.841797	2136.213867
2078.832031	2116.039795
2077.824219	2088.439941
2076.814453	1998.924805
2075.804688	2119.947998
2074.794922	2032.932983
2073.785156	2124.201416
2072.775391	2108.999512
2071.765625	2076.478027
2070.753906	2125.626709
2069.744141	2135.173340
2068.734375	2053.188965
2067.722656	2161.676514
2066.712891	2183.576660
2065.701172	2029.922119
2064.689453	2113.638916
2063.677734	2068.800537
2062.666016	2100.586426
2061.654297	2085.415283
2060.642578	2087.542236
2059.630859	2111.898926
2058.619141	2079.445557
2057.605469	2086.510742
2056.593750	2147.887939
2055.580078	2073.481201
2054.568359	2144.712402
2053.554688	2109.812256
2052.541016	2185.948242
2051.527344	1978.376587
2050.513672	2103.836914
2049.500000	2128.150146
2048.486328	2105.609131
2047.472656	2139.774658
2046.457031	2107.380127
2045.443359	2134.140869
2044.429688	2030.302856
2043.414063	2118.656250
2042.398438	2150.328125
2041.384766	2007.134644
2040.369141	2159.468506
2039.353516	2072.945068
2038.337891	2119.372559
2037.322266	2072.261963
2036.306641	2062.077393
2035.289063	2024.832886
2034.273438	2157.333740
2033.257813	2152.059326
2032.240234	2028.749878
2031.222656	2062.837158
2030.207031	2111.662598
2029.189453	2162.929688
2028.171875	2024.954956
2027.154297	2176.958984
2026.136719	2066.050293
2025.119141	1977.284546
2024.101563	2067.824951
2023.082031	2136.236328
2022.064453	2047.502808
2021.046875	2113.440186
2020.027344	2164.630615
2019.007813	2078.389648
2017.990234	2129.568848
2016.970703	2134.123535
2015.951172	2062.645752
2014.931641	2096.636475
2013.912109	2032.543823
2012.892578	2130.264404
2011.873047	1938.735596
2010.851563	2085.451172
2009.832031	2092.457764
2008.810547	2123.959717
2007.791016	2059.925537
2006.769531	2076.728516
2005.748047	2115.562988
2004.728516	2102.973145
2003.707031	1980.238037
2002.685547	2077.805664
2001.662109	2084.803467
2000.640625	2059.994141
1999.619141	2018.069702
1998.597656	2100.891846
1997.574219	2071.201172
1996.552734	2046.410034
1995.529297	2121.852783
1994.505859	2106.837891
1993.484375	2089.384033
1992.460938	2059.719238
1991.437500	1966.548462
1990.414063	2098.119629
1989.390625	2048.931152
1988.365234	2048.592773
1987.341797	2087.315674
1986.318359	1979.571289
1985.292969	2108.591064
1984.269531	2039.920166
1983.244141	1993.229248
1982.218750	2039.246704
1981.193359	2029.154419
1980.167969	2043.450317
1979.142578	1996.789307
1978.117188	2042.775513
1977.091797	2078.997314
1976.066406	2007.984741
1975.041016	1993.034302
1974.013672	2014.629761
1972.988281	2031.346802
1971.960938	2031.011353
1970.933594	1964.934570
1969.906250	2079.029785
1968.880859	1986.192139
1967.853516	2007.766968
1966.826172	2019.601563
1965.796875	2007.103760
1964.769531	2091.907959
1963.742188	1967.527832
1962.714844	2054.742188
1961.685547	1986.327881
1960.658203	2063.786621
1959.628906	1905.466919
1958.599609	2014.504028
1957.570313	1970.437622
1956.541016	1970.112061
1955.511719	2045.080444
1954.482422	1969.461060
1953.453125	1978.847778
1952.423828	2036.783936
1951.394531	2000.038818
1950.363281	2004.562012
1949.333984	2079.449951
1948.302734	1916.562500
1947.271484	2071.485840
1946.240234	2003.237183
1945.210938	2080.500488
1944.179688	1900.749146
1943.148438	2033.756226
1942.115234	1999.489380
1941.083984	2052.469727
1940.052734	2052.130371
1939.021484	1894.333740
1937.988281	1908.552734
1936.955078	2063.220947
1935.923828	1961.188599
1934.890625	1997.176636
1933.857422	1890.347900
1932.824219	2006.196289
1931.791016	2017.962646
1930.757813	1971.663818
1929.724609	2000.363647
1928.691406	1932.317017
1927.656250	1946.505615
1926.623047	1946.183716
1925.587891	2006.292358
1924.554688	2039.796021
1923.519531	2017.710815
1922.484375	2000.464966
1921.449219	2094.343262
1920.414063	1937.007446
1919.378906	2086.406006
1918.343750	1953.267700
1917.308594	1977.084839
1916.273438	2078.129883
1915.236328	1940.232300
1914.201172	1942.324097
1913.164063	2009.550781
1912.126953	2011.630249
1911.091797	1958.241577
1910.054688	1953.095093
1909.017578	1976.880249
1907.980469	2101.895508
1906.943359	2106.367676
1905.906250	2031.320557
1904.867188	2081.578369
1903.830078	2045.101318
1902.791016	1986.960327
1901.753906	1981.815430
1900.714844	2063.347168
1899.677734	2058.191162
1898.638672	2048.223145
1897.599609	2035.851929
1896.560547	1900.776367
1895.521484	2001.498901
1894.482422	2020.409546
1893.441406	2017.670166
1892.402344	2053.403076
1891.363281	2053.062988
1890.322266	2043.108521
1889.281250	2011.527832
1888.242188	1960.734741
1887.201172	2075.728271
1886.160156	2104.209229
1885.119141	1986.179199
1884.078125	2055.487061
1883.037109	2100.763184
1881.996094	2086.012451
1880.953125	2071.266602
1879.912109	2049.326416
1878.869141	2010.598511
1877.828125	2103.822021
1876.785156	2079.488770
1875.742188	1968.832153
1874.701172	2078.799805
1873.658203	2013.728516
1872.615234	1967.853882
1871.572266	2058.594971
1870.527344	2063.046143
1869.484375	1976.458862
1868.441406	2026.432861
1867.396484	1951.854858
1866.353516	1970.687622
1865.308594	1965.572754
1864.263672	2015.515259
1863.218750	2015.181274
1862.175781	2010.061523
1861.130859	1935.559937
1860.083984	1997.434692
1859.039063	2011.454102
1857.994141	2066.121582
1856.949219	1910.367676
1855.902344	2005.673096
1854.857422	1945.586792
1853.810547	2000.228760
1852.763672	2052.463135
1851.718750	1932.674561
1850.671875	1977.737061
1849.625000	1898.599365
1848.578125	1984.244751
1847.529297	2034.050781
1846.482422	2057.583496
1845.435547	1947.459106
1844.388672	1942.363770
1843.339844	1999.301025
1842.291016	1991.813232
1841.244141	1981.942993
1840.195313	1948.229736
1839.146484	1945.522461
1838.097656	1890.371826
1837.048828	1947.260620
1836.000000	1968.385010
1834.951172	1882.283569
1833.900391	1977.261108
1832.851563	1984.078613
1831.802734	1914.687500
1830.751953	1923.894043
1829.701172	1923.574951
1828.652344	2016.086304
1827.601563	1951.495239
1826.550781	1944.033081
1825.500000	2007.945801
1824.449219	1945.766846
1823.396484	1952.578857
1822.345703	1964.144409
1821.294922	1928.156006
1820.242188	1918.327637
1819.191406	1951.283325
1818.138672	1901.056763
1817.085938	1943.507935
1816.035156	1983.569458
1814.982422	1873.984009
1813.929688	1978.161743
1812.875000	1987.330811
1811.822266	2015.488403
1810.769531	1943.947021
1809.716797	1960.236572
1808.662109	1933.810669
1807.609375	1942.979126
1806.554688	1971.120483
1805.500000	1975.536499
1804.447266	2041.602051
1803.392578	1927.464478
1802.337891	1984.034302
1801.283203	2000.295044
1800.226563	1952.570435
1799.171875	1971.200073
1798.117188	1951.922119
1797.060547	1970.545532
1796.005859	1972.586426
1794.949219	1939.111572
1793.892578	1952.993164
1792.837891	1957.402588
1791.781250	1959.443970
1790.724609	1866.841309
1789.667969	1949.330444
1788.611328	1998.677979
1787.552734	1972.332031
1786.496094	2024.023682
1785.439453	1940.943237
1784.380859	1957.166870
1783.322266	1926.118408
1782.265625	1913.983765
1781.207031	1984.542236
1780.148438	2019.644897
1779.089844	1962.626953
1778.031250	1905.627930
1776.972656	1912.394287
1775.914063	1815.292358
1774.853516	1923.559814
1773.794922	2022.351929
1772.734375	1830.903442
1771.675781	1922.600952
1770.615234	1919.922852
1769.554688	1980.917847
1768.494141	1987.662231
1767.435547	1935.467896
1766.373047	1963.430908
1765.312500	1956.034546
1764.251953	1934.502930
1763.191406	1943.604858
1762.128906	1926.793335
1761.068359	1959.444458
1760.005859	1954.409302
1758.945313	1963.501709
1757.882813	1986.714478
1756.820313	1995.798340
1755.757813	1894.281250
1754.695313	2028.073242
1753.632813	1952.460449
1752.570313	1930.968018
1751.505859	1998.842773
1750.443359	1916.218750
1749.378906	2009.932007
1748.316406	1950.837524
1747.251953	2021.013550
1746.187500	1926.692505
1745.125000	1978.055176
1744.060547	1989.470337
1742.996094	1960.958008
1741.929688	1913.670532
1740.865234	1939.176636
1739.800781	1936.506714
1738.734375	1983.122437
1737.669922	1914.744019
1736.603516	1928.502075
1735.539063	1944.601318
1734.472656	2014.637573
1733.406250	2033.061890
1732.339844	1894.395264
1731.273438	1966.749023
1730.207031	2027.359619
1729.140625	1959.064331
1728.072266	1982.168213
1727.005859	1949.041992
1725.939453	2026.010498
1724.871094	2084.218750
1723.802734	1936.361816
1722.736328	1980.519287
1721.667969	1998.914795
1720.599609	1975.179443
1719.531250	1925.713379
1718.462891	2011.953613
1717.392578	1950.802368
1716.324219	1917.735718
1715.255859	1952.491089
1714.185547	1954.504028
1713.117188	2047.679932
1712.046875	2045.001831
1710.976563	1925.486816
1709.906250	1906.475220
1708.835938	1973.901123
1707.765625	1868.470947
1706.695313	1963.902954
1705.625000	1949.567017
1704.554688	2009.937378
1703.482422	1930.245483
1702.412109	1995.265991
1701.339844	1936.602295
1700.267578	2022.595825
1699.197266	2003.599121
1698.125000	1909.981812
1697.052734	2042.570557
1695.980469	2016.585815
1694.908203	1955.645874
1693.833984	2006.591919
1692.761719	2055.190674
1691.689453	2045.529175
1690.615234	1998.600952
1689.542969	2000.596924
1688.468750	1979.306274
1687.394531	1997.602051
1686.320313	2018.219604
1685.246094	1931.768311
1684.171875	1952.389771
1683.097656	1931.124390
1682.023438	2002.916870
1680.947266	1981.650146
1679.873047	1992.947388
1678.798828	2053.067871
1677.722656	2066.674072
1676.646484	1959.410278
1675.570313	1933.520264
1674.496094	1998.257568
1673.419922	1958.430542
1672.343750	1883.775024
1671.265625	1957.777588
1670.189453	2050.331299
1669.113281	1961.768066
1668.035156	1959.119751
1666.958984	1984.322266
1665.880859	2000.234619
1664.804688	2055.582764
1663.726563	2043.641602
1662.648438	2073.451660
1661.570313	1971.073730
1660.492188	2121.448975
1659.414063	1954.189331
1658.333984	1970.087646
1657.255859	2013.788940
1656.177734	1927.724976
1655.097656	1932.036499
1654.017578	1989.619385
1652.939453	1940.655273
1651.859375	2053.787598
1650.779297	2030.294556
1649.699219	1941.998779
1648.619141	2004.160156
1647.539063	1996.884155
1646.457031	1959.534912
1645.376953	2035.540771
1644.296875	2002.822876
1643.214844	1949.304810
1642.132813	1925.859863
1641.052734	1955.588867
1639.970703	1918.283569
1638.888672	1964.179443
1637.806641	1938.437012
1636.724609	1951.973633
1635.642578	1956.267090
1634.558594	1962.868408
1633.476563	1960.231812
1632.392578	1895.266968
1631.310547	1984.966553
1630.226563	1936.173096
1629.142578	1864.322632
1628.060547	1972.437744
1626.976563	1831.408325
1625.892578	1923.349487
1624.806641	1890.747314
1623.722656	1950.372070
1622.638672	1945.436401
1621.554688	1981.985718
1620.468750	1919.439941
1619.382813	1896.080688
1618.298828	1934.923218
1617.212891	1966.843384
1616.126953	1885.920044
1615.041016	1894.814331
1613.955078	1926.724976
1612.869141	1907.990723
1611.783203	1921.479004
1610.695313	1884.345459
1609.609375	1955.343140
1608.521484	1955.016479
1607.435547	1899.498657
1606.347656	2009.545288
1605.259766	1875.875244
1604.171875	1944.516357
1603.085938	1882.142700
1601.996094	1897.912231
1600.908203	1826.377808
1599.820313	1904.168823
1598.732422	1940.595581
1597.642578	1974.713989
1596.554688	1868.777344
1595.464844	1935.031860
1594.375000	1980.609009
1593.285156	1893.081543
1592.197266	1991.418335
1591.107422	1903.918091
1590.015625	1954.056641
1588.925781	1891.816040
1587.835938	1898.377930
1586.746094	1937.030396
1585.654297	1893.159302
1584.564453	1874.510132
1583.472656	1917.729370
1582.380859	1947.189331
1581.289063	1926.249878
1580.197266	1873.256714
1579.105469	2010.323120
1578.013672	1959.622803
1576.921875	1984.472900
1575.830078	2007.026245
1574.736328	1965.504150
1573.644531	1917.132690
1572.550781	1937.398315
1571.457031	1937.074219
1570.365234	1977.909058
1569.271484	1982.150635
1568.177734	1972.675659
1567.083984	1938.063843
1565.990234	2038.282715
1564.894531	1953.408203
1563.800781	1991.914673
1562.707031	1984.729614
1561.611328	1936.443115
1560.515625	1988.631714
1559.421875	1949.491821
1558.326172	1987.966309
1557.230469	2028.709839
1556.134766	2101.382568
1555.039063	1966.437134
1553.943359	1988.916626
1552.845703	2066.120361
1551.750000	2004.211670
1550.654297	2092.785400
1549.556641	1969.350586
1548.458984	2014.600098
1547.363281	2014.262939
1546.265625	2045.820435
1545.167969	2020.421997
1544.070313	1979.089844
1542.972656	1919.555176
1541.873047	1953.383789
1540.775391	2039.555786
1539.677734	2066.525146
1538.578125	1970.606934
1537.480469	1961.176392
1536.380859	1910.803101
1535.281250	2021.927979
1534.181641	2005.671265
1533.082031	2025.797974
1531.982422	1968.627686
1530.882813	1963.752197
1529.783203	1906.611206
1528.681641	1960.822266
1527.582031	1994.569580
1526.480469	1953.351318
1525.380859	1962.107910
1524.279297	1943.614624
1523.177734	1925.127441
1522.076172	1983.820068
1520.974609	1969.871094
1519.873047	1980.886353
1518.771484	1994.166382
1517.669922	1921.246826
1516.566406	1945.871948
1515.464844	1920.602905
1514.361328	1940.685425
1513.257813	1963.027954
1512.156250	1921.903809
1511.052734	1930.645752
1509.949219	1903.134521
1508.845703	1943.590088
1507.742188	1888.907349
1506.636719	1906.706665
1505.533203	1919.971680
1504.429688	1892.484985
1503.324219	1951.015015
1502.218750	1930.321167
1501.115234	1929.997437
1500.009766	1836.922852
1498.904297	1866.018799
1497.798828	1922.242432
1496.693359	1872.176270
1495.587891	1939.683350
1494.480469	1916.754883
1493.375000	2000.051392
1492.269531	1909.333252
1491.162109	1827.682373
1490.054688	1892.881226
1488.949219	1842.878296
1487.841797	1856.117432
1486.734375	1871.609863
1485.626953	1918.698975
1484.519531	1843.898926
1483.410156	1836.820068
1482.302734	1870.354248
1481.195313	1924.179077
1480.085938	1847.172607
1478.976563	1842.352661
1477.869141	1961.539673
1476.759766	1900.345337
1475.650391	1909.041992
1474.541016	1917.735596
1473.431641	1836.301147
1472.322266	1896.817261
1471.210938	1943.798706
1470.101563	1934.464478
1468.990234	1877.849365
1467.880859	1825.755737
1466.769531	1850.208740
1465.658203	1870.152466
1464.548828	1930.591431
1463.437500	1928.017578
1462.326172	1898.452271
1461.212891	1916.125366
1460.101563	1920.300903
1458.990234	1861.524780
1457.876953	1899.425537
1456.765625	1890.116699
1455.652344	1912.270142
1454.541016	1873.755005
1453.427734	1927.352295
1452.314453	1902.323120
1451.201172	1857.092041
1450.087891	1850.044556
1448.972656	1975.443970
1447.859375	1878.600952
1446.746094	1952.339722
1445.630859	1949.768066
1444.517578	1922.520752
1443.402344	1893.039551
1442.287109	1854.598022
1441.171875	1908.098877
1440.056641	1916.745483
1438.941406	1911.940552
1437.826172	1871.280396
1436.710938	1897.854126
1435.595703	1906.496338
1434.478516	1930.815186
1433.363281	1932.730225
1432.246094	1910.013672
1431.128906	1952.229858
1430.011719	1862.364990
1428.894531	1918.003052
1427.777344	1913.205322
1426.660156	1897.222656
1425.542969	1930.457520
1424.425781	1950.261841
1423.306641	1927.572388
1422.189453	1795.336914
1421.070313	1900.099365
1419.953125	1922.130249
1418.833984	1870.409912
1417.714844	1894.672607
1416.595703	1896.587891
1415.476563	1869.466553
1414.357422	1900.416382
1413.236328	1938.054199
1412.117188	1942.192993
1410.998047	1921.778076
1409.876953	1854.505249
1408.755859	1849.730835
1407.636719	1871.728760
1406.515625	1784.423218
1405.394531	1926.852905
1404.273438	1870.784424
1403.152344	1861.552002
1402.029297	1910.277466
1400.908203	1867.611694
1399.787109	1820.503662
1398.664063	1855.843872
1397.541016	1839.938843
1396.419922	1795.086182
1395.296875	1846.000122
1394.173828	1874.632690
1393.050781	1811.988403
1391.927734	1869.550537
1390.804688	1902.615112
1389.679688	1793.274414
1388.556641	1866.382202
1387.431641	1797.119141
1386.308594	1810.159424
1385.183594	1814.301514
1384.058594	1876.241089
1382.933594	1818.136108
1381.808594	1813.385376
1380.683594	1897.512817
1379.558594	1834.990234
1378.433594	1808.027344
1377.308594	1914.320801
1376.181641	1898.455566
1375.054688	1862.615234
1373.929688	1835.665649
1372.802734	1782.093384
1371.675781	1786.231201
1370.548828	1836.956909
1369.421875	1818.902222
1368.294922	1791.982178
1367.167969	1767.288696
1366.039063	1866.758423
1364.912109	1826.543701
1363.783203	1850.615479
1362.656250	1972.179932
1361.527344	1847.776367
1360.398438	1913.920654
1359.269531	1895.879761
1358.140625	1800.339478
1357.011719	1844.317383
1355.882813	1857.288818
1354.753906	1837.056030
1353.623047	1861.088867
1352.494141	1867.412964
1351.363281	1796.307861
1350.232422	1846.877197
1349.103516	1859.834595
1347.972656	1910.376099
1346.841797	1854.786377
1345.710938	1797.004883
1344.578125	1860.791016
1343.447266	1891.411621
1342.316406	1919.812622
1341.183594	1835.552856
1340.052734	1866.161987
1338.919922	1792.979980
1337.787109	1858.909668
1336.654297	1865.218262
1335.521484	1882.559692
1334.388672	1895.481934
1333.255859	1901.781006
1332.123047	1848.519409
1330.988281	1846.002197
1329.855469	1929.485718
1328.720703	1937.979248
1327.587891	1902.382324
1326.453125	1897.653442
1325.318359	1943.609741
1324.183594	1861.760986
1323.048828	1795.360107
1321.914063	1784.044556
1320.779297	1869.627563
1319.642578	1886.926392
1318.507813	1884.406616
1317.371094	1881.887695
1316.236328	1855.162109
1315.099609	1903.255615
1313.962891	1894.134766
1312.826172	1854.223267
1311.689453	1911.088989
1310.552734	1822.814087
1309.416016	1910.444092
1308.279297	1850.773804
1307.140625	1854.856812
1306.003906	1852.346436
1304.865234	1898.169800
1303.726563	1851.721069
1302.587891	1873.370728
1301.451172	1798.395752
1300.310547	1925.429565
1299.171875	1819.739624
1298.033203	1804.069214
1296.894531	1757.683105
1295.753906	1860.503906
1294.615234	1866.770508
1293.474609	1807.237549
1292.335938	1857.368652
1291.195313	1780.317139
1290.054688	1760.287231
1288.914063	1836.701904
1287.773438	1875.836792
1286.632813	1882.093140
1285.490234	1877.393921
1284.349609	1863.935059
1283.207031	1850.480713
1282.066406	1867.684448
1280.923828	1775.423462
1279.781250	1801.389282
1278.638672	1759.504517
1277.496094	1783.276001
1276.353516	1835.479492
1275.210938	1811.108765
1274.068359	1863.289795
1272.923828	1712.100220
1271.781250	1834.239258
1270.636719	1884.203857
1269.494141	1800.837158
1268.349609	1839.864746
1267.205078	1828.630127
1266.060547	1813.030396
1264.916016	1810.539917
1263.771484	1751.275757
1262.626953	1827.394043
1261.480469	1879.474609
1260.335938	1837.688843
1259.189453	1939.939697
1258.042969	1789.068237
1256.898438	1856.389771
1255.751953	1895.334839
1254.605469	1829.593872
1253.458984	1787.858521
1252.312500	1872.574097
1251.164063	1870.077881
1250.017578	1847.969482
1248.869141	1834.583862
1247.722656	1821.202759
1246.574219	1879.703613
1245.425781	1872.852417
1244.279297	1946.566162
1243.130859	1811.262939
1241.982422	1900.198364
1240.832031	1997.808716
1239.683594	1819.047363
1238.535156	1829.617310
1237.384766	1920.664429
1236.236328	1887.717529
1235.085938	1976.549438
1233.935547	1915.341431
1232.785156	1888.933105
1231.636719	1979.892822
1230.484375	1866.564331
1229.333984	1892.319458
1228.183594	1913.721313
1227.033203	1904.710083
1225.880859	1869.644043
1224.730469	1947.487549
1223.578125	1947.157959
1222.425781	1905.591187
1221.273438	1950.838745
1220.121094	1937.490601
1218.968750	1961.024658
1217.816406	1962.861572
1216.664063	1999.394409
1215.511719	2005.560425
1214.357422	2044.241333
1213.205078	2013.551025
1212.050781	2004.541748
1210.896484	2062.703369
1209.742188	1997.363892
1208.587891	1938.544312
1207.433594	1975.031250
1206.279297	1985.522949
1205.125000	1991.681274
1203.968750	1926.408813
1202.814453	2019.140381
1201.658203	2105.349121
1200.503906	2076.868164
1199.347656	2046.233887
1198.191406	1950.729614
1197.035156	2058.514404
1195.878906	2081.947021
1194.722656	2053.493652
1193.566406	2081.241455
1192.408203	2054.958740
1191.251953	2143.189941
1190.093750	2121.225586
1188.937500	2086.310303
1187.779297	2081.637939
1186.621094	2092.080078
1185.462891	2106.835938
1184.304688	2173.385498
1183.146484	2121.227051
1181.988281	2051.826172
1180.828125	2124.822510
1179.669922	2141.716797
1178.509766	2117.632568
1177.351563	2110.805420
1176.191406	2065.177490
1175.031250	2075.604004
1173.871094	2105.421875
1172.710938	2199.868164
1171.550781	2162.872803
1170.388672	2240.045898
1169.228516	2299.964844
1168.068359	2265.124023
1166.906250	2193.697754
1165.744141	2257.898438
1164.583984	2154.216553
1163.421875	2166.761230
1162.259766	2190.058350
1161.097656	2224.102295
1159.933594	2238.779297
1158.771484	2309.357422
1157.609375	2263.818115
1156.445313	2229.041748
1155.283203	2237.260254
1154.119141	2331.427002
1152.955078	2361.109131
1151.791016	2268.342285
1150.626953	2300.172607
1149.462891	2314.813477
1148.298828	2323.008301
1147.134766	2309.734619
1145.968750	2369.437012
1144.804688	2328.263428
1143.638672	2342.886719
1142.474609	2383.246582
1141.308594	2389.276123
1140.142578	2360.993164
1138.976563	2416.337646
1137.810547	2415.927246
1136.644531	2413.373779
1135.476563	2475.109619
1134.310547	2483.259766
1133.142578	2497.833496
1131.976563	2467.423340
1130.808594	2522.683105
1129.640625	2434.468262
1128.472656	2558.219482
1127.304688	2538.521240
1126.136719	2578.750977
1124.968750	2507.703613
1123.800781	2494.441650
1122.630859	2615.938232
1121.462891	2549.197510
1120.292969	2640.708008
1119.123047	2618.880859
1117.953125	2661.185791
1116.785156	2628.676758
1115.613281	2692.333252
1114.443359	2647.010986
1113.273438	2732.003174
1112.103516	2633.297363
1110.931641	2754.563232
1109.761719	2775.444580
1108.589844	2698.127441
1107.417969	2714.742676
1106.248047	2852.982666
1105.076172	2799.160156
1103.904297	2790.151855
1102.730469	2774.748047
1101.558594	2778.541016
1100.386719	2824.973877
1099.212891	2792.518311
1098.041016	2781.386719
1096.867188	2832.057129
1095.693359	2906.146729
1094.519531	2873.698975
1093.345703	2926.457275
1092.171875	2942.995850
1090.998047	2880.749756
1089.824219	2901.547607
1088.650391	2956.393555
1087.474609	2977.171387
1086.298828	3006.452881
1085.125000	2912.338135
1083.949219	2967.144287
1082.773438	3024.058350
1081.597656	3089.458008
1080.421875	3048.540283
1079.246094	3041.645020
1078.070313	3115.508789
1076.892578	3063.983154
1075.716797	3114.448486
1074.539063	3041.699463
1073.361328	3247.183594
1072.183594	3225.397461
1071.007813	3163.281250
1069.830078	3237.035400
1068.650391	3266.196533
1067.472656	3231.689697
1066.294922	3173.857422
1065.115234	3300.589355
1063.937500	3344.565186
1062.757813	3271.899414
1061.578125	3343.426514
1060.400391	3349.216553
1059.220703	3236.318359
1058.041016	3447.670654
1056.861328	3415.303467
1055.679688	3370.237549
1054.500000	3460.735596
1053.318359	3513.085938
1052.138672	3493.432617
1050.957031	3448.383301
1049.775391	3547.271973
1048.595703	3423.931152
1047.414063	3541.832031
1046.232422	3490.458496
1045.048828	3576.581787
1043.867188	3658.446045
1042.685547	3575.363281
1041.501953	3549.386230
1040.320313	3681.940186
1039.136719	3639.047363
1037.953125	3708.153320
1036.769531	3753.997559
1035.585938	3698.440918
1034.402344	3706.258057
1033.218750	3690.845947
1032.035156	3730.328125
1030.849609	3784.571777
1029.666016	3813.472168
1028.480469	3819.152344
1027.294922	3759.430420
1026.109375	3773.554932
1024.923828	3823.526367
1023.738281	3869.263428
1022.552734	3805.356934
1021.367188	3792.061035
1020.181641	3871.499756
1018.994141	3948.804443
1017.808594	3836.470947
1016.621094	3911.648438
1015.433594	3919.405762
1014.246094	3979.802979
1013.058594	3880.172607
1011.871094	3856.355957
1010.683594	3933.569824
1009.496094	3983.401611
1008.306641	3852.279053
1007.119141	3912.625244
1005.929688	3956.125000
1004.742188	3892.364746
1003.552734	3946.365234
1002.363281	3907.853760
1001.173828	3869.355225
999.984375	3872.897705
998.794922	4034.017822
997.603516	3936.697754
996.414063	3954.928955
995.222656	3893.354736
994.033203	3892.690186
992.841797	3847.941406
991.650391	3979.515381
990.458984	3955.752197
989.267578	3881.640625
988.076172	3853.706299
986.884766	4008.260986
985.691406	3906.915527
984.500000	3818.185059
983.306641	3968.473389
982.115234	3862.994141
980.921875	3996.458008
979.728516	3895.200195
978.535156	3909.199951
977.341797	3881.302490
976.148438	3811.529541
974.953125	3913.479248
973.759766	3977.710205
972.564453	3916.328857
971.371094	3917.752686
970.175781	3693.190430
968.980469	3912.230225
967.785156	3836.259277
966.589844	3850.243652
965.394531	3847.494873
964.199219	3830.112061
963.003906	3831.548096
961.806641	3776.554443
960.611328	3897.105957
959.414063	3900.618652
958.216797	3791.329834
957.019531	3725.937500
955.822266	3838.062256
954.625000	3720.488525
953.427734	3736.552246
952.230469	3783.916992
951.031250	3781.183594
949.833984	3824.351318
948.634766	3859.160156
947.437500	3702.074707
946.238281	3826.561035
945.039063	3775.867676
943.839844	3710.599365
942.640625	3712.049316
941.439453	3657.233398
940.240234	3777.453125
939.041016	3726.810791
937.839844	3740.753174
936.638672	3773.433105
935.439453	3722.817139
934.238281	3759.651855
933.037109	3702.811035
931.835938	3700.096680
930.634766	3693.221680
929.431641	3727.955566
928.230469	3623.319092
927.027344	3641.415771
925.826172	3678.219482
924.623047	3706.695068
923.419922	3710.218018
922.216797	3713.739502
921.013672	3665.313721
919.810547	3679.228760
918.607422	3661.982178
917.404297	3594.898682
916.199219	3565.213623
914.996094	3579.135742
913.791016	3617.961670
912.585938	3646.397461
911.380859	3562.773193
910.175781	3547.640869
908.970703	3627.930908
907.765625	3560.943848
906.560547	3574.849365
905.353516	3507.894043
904.148438	3538.386475
902.941406	3461.097656
901.736328	3553.752197
900.529297	3553.143555
899.322266	3562.892334
898.115234	3510.504883
896.908203	3576.167236
895.699219	3540.358398
894.492188	3558.382080
893.285156	3363.223145
892.076172	3443.350586
890.867188	3484.140137
889.660156	3475.268799
888.451172	3437.444824
887.242188	3374.818848
886.033203	3425.929199
884.824219	3297.176270
883.613281	3364.817139
882.404297	3444.833496
881.193359	3367.796143
879.984375	3361.021729
878.773438	3374.903809
877.562500	3289.657471
876.351563	3320.064453
875.140625	3358.718262
873.929688	3333.374512
872.718750	3308.039063
871.505859	3288.902344
870.294922	3259.457275
869.082031	3289.837402
867.871094	3243.904053
866.658203	3222.729004
865.445313	3271.653320
864.232422	3170.094482
863.019531	3214.889160
861.806641	3183.430664
860.591797	3178.764648
859.378906	3153.502197
858.164063	3140.604980
856.951172	3123.593750
855.736328	3166.290771
854.521484	3161.631104
853.306641	3091.116699
852.091797	3131.739502
850.876953	3106.514648
849.662109	3089.526123
848.445313	3091.052734
847.230469	3100.803467
846.013672	3159.892090
844.796875	3142.905762
843.582031	3012.890137
842.365234	3199.362305
841.148438	3141.287842
839.929688	3083.233398
838.712891	3111.457031
837.496094	3182.792480
836.277344	3155.556396
835.060547	3109.855225
833.841797	3125.740234
832.623047	3018.499268
831.404297	3153.390381
830.185547	3140.541016
828.966797	3178.969971
827.748047	3139.462891
826.529297	3112.270508
825.308594	3199.881592
824.089844	3225.976074
822.869141	3157.798828
821.650391	3276.089111
820.429688	3160.811279
819.208984	3264.723145
817.988281	3202.729004
816.765625	3251.317139
815.544922	3109.510498
814.324219	3205.172363
813.101563	3194.389893
811.880859	3226.577393
810.658203	3236.251465
809.435547	3262.284668
808.212891	3214.689941
806.990234	3269.342041
805.767578	3264.691895
804.544922	3163.979004
803.320313	3320.789551
802.097656	3183.323730
800.873047	3282.876709
799.650391	3390.565674
798.425781	3289.916992
797.201172	3289.351563
795.976563	3288.786133
794.751953	3275.974121
793.527344	3259.084961
792.300781	3274.847900
791.076172	3270.204834
789.849609	3267.602783
788.625000	3315.985352
787.398438	3427.560303
786.171875	3363.772705
784.945313	3265.355713
783.718750	3252.566650
782.492188	3249.969727
781.265625	3277.932129
780.037109	3254.962402
778.810547	3305.316162
777.582031	3300.675293
776.353516	3247.175537
775.125000	3271.042969
773.898438	3408.870117
772.667969	3341.135254
771.439453	3228.666016
770.210938	3342.019775
768.982422	3292.635010
767.751953	3200.565430
766.523438	3273.204346
765.292969	3268.575684
764.062500	3290.368896
762.832031	3198.362793
761.601563	3289.236572
760.371094	3296.795654
759.140625	3340.908936
757.908203	3297.691162
756.677734	3362.091553
755.445313	3294.526123
754.214844	3328.461182
752.982422	3342.092529
751.750000	3404.411621
750.517578	3251.687744
749.285156	3378.901367
748.052734	3278.957275
746.818359	3298.667236
745.585938	3214.987793
744.351563	3366.440674
743.119141	3311.147949
741.884766	3351.098877
740.650391	3332.290283
739.416016	3380.324951
738.181641	3262.291992
736.947266	3419.653564
735.710938	3340.116211
734.476563	3333.468750
733.240234	3296.469482
732.005859	3399.088135
730.769531	3335.791992
729.533203	3434.322998
728.296875	3366.997803
727.060547	3352.264648
725.824219	3474.999756
724.587891	3324.833984
723.349609	3328.302490
722.113281	3370.158936
720.875000	3335.235596
719.636719	3379.095947
718.400391	3392.649414
717.162109	3436.484619
715.923828	3353.123779
714.683594	3380.803223
713.445313	3358.021729
712.207031	3462.362793
710.966797	3377.037354
709.728516	3434.947998
708.488281	3381.922607
707.248047	3415.616455
706.007813	3396.883789
704.767578	3529.328125
703.527344	3377.574951
702.287109	3342.738770
701.044922	3414.686523
699.804688	3432.225342
698.562500	3349.064697
697.320313	3364.594971
696.080078	3323.750977
694.837891	3460.049805
693.595703	3453.415283
692.353516	3372.333984
691.109375	3335.540039
689.867188	3457.662109
688.625000	3372.599609
687.380859	3418.264648
686.136719	3405.612305
684.892578	3467.335938
683.650391	3446.640381
682.406250	3411.886475
681.160156	3465.540771
679.916016	3414.725830
678.671875	3464.344238
677.425781	3371.379639
676.181641	3453.110107
674.935547	3490.652100
673.689453	3445.896973
672.443359	3435.268799
671.197266	3512.918945
669.951172	3486.235596
668.705078	3513.711182
667.458984	3402.818359
666.210938	3404.235596
664.964844	3465.787109
663.716797	3525.313232
662.468750	3440.544189
661.220703	3512.074463
659.972656	3475.411621
658.724609	3456.786377
657.476563	3436.164795
656.228516	3447.583496
654.978516	3450.991211
653.730469	3378.344971
652.480469	3357.750732
651.230469	3597.254150
649.980469	3470.610107
648.730469	3514.010498
647.480469	3449.414063
646.230469	3548.783447
644.980469	3470.210205
643.728516	3335.702637
642.478516	3534.953857
641.226563	3532.344727
639.974609	3439.844971
638.722656	3397.308105
637.470703	3484.584229
636.218750	3491.967773
634.966797	3433.474121
633.714844	3462.818115
632.460938	3394.371826
631.208984	3547.412842
629.955078	3395.192627
628.701172	3490.340576
627.447266	3507.683838
626.193359	3455.238770
624.939453	3416.765381
623.685547	3561.670654
622.431641	3644.750244
621.175781	3524.574951
619.921875	3629.544678
618.666016	3567.173340
617.410156	3656.167969
616.154297	3625.669922
614.898438	3521.526611
613.642578	3588.588867
612.386719	3671.547852
611.130859	3621.171143
609.873047	3650.384033
608.617188	3633.840332
607.359375	3674.972412
606.101563	3745.914063
604.845703	3723.398438
603.587891	3828.095947
602.328125	3696.275146
601.070313	3838.691895
599.812500	3760.551514
598.552734	3867.156006
597.294922	3989.610107
596.035156	3881.700928
594.775391	3841.324951
593.517578	3872.417236
592.257813	3980.893555
590.996094	3976.235840
589.736328	4050.931641
588.476563	3996.676514
587.214844	4039.612793
585.955078	3975.464111
584.693359	4060.020020
583.431641	4033.549316
582.169922	3929.799805
580.908203	4240.198730
579.646484	4112.676270
578.384766	4222.883789
577.123047	4160.760254
575.859375	4167.959473
574.597656	4157.338867
573.333984	4027.960938
572.070313	4179.645508
570.806641	4172.985352
569.542969	4263.264160
568.279297	4173.516602
567.015625	4145.106445
565.751953	4094.955566
564.486328	4282.054688
563.222656	4283.289063
561.957031	4355.667969
560.691406	4321.321777
559.425781	4265.256836
558.160156	4357.352539
556.894531	4403.994141
555.628906	4278.834473
554.361328	4262.298340
553.095703	4376.042969
551.828125	4325.945801
550.562500	4228.510254
549.294922	4344.173828
548.027344	4442.044434
546.759766	4407.747070
545.492188	4428.672363
544.222656	4492.962402
542.955078	4454.731445
541.687500	4402.718262
540.417969	4516.239258
539.148438	4438.622070
537.878906	4561.945801
536.611328	4513.888184
535.339844	4416.620605
534.070313	4673.756836
532.800781	4570.589844
531.531250	4654.422363
530.259766	4635.904785
528.988281	4650.838867
527.718750	4685.437988
526.447266	4659.057617
525.175781	4786.060547
523.904297	4755.739258
522.632813	4868.921387
521.359375	4946.688477
520.087891	4981.198730
518.814453	5005.873535
517.542969	5010.896973
516.269531	5072.873047
514.996094	4981.666016
513.722656	5002.396484
512.449219	5052.563477
511.175781	5191.029297
509.902344	5239.183594
508.626953	5153.911621
507.353516	5233.439941
506.078125	5273.715820
504.802734	5286.525879
503.527344	5358.146973
502.251953	5298.410156
500.976563	5554.229980
499.701172	5470.965332
498.425781	5415.157715
497.148438	5519.993164
495.873047	5462.237305
494.595703	5480.869629
493.318359	5538.650879
492.041016	5604.242188
490.763672	5579.782227
489.486328	5480.972656
488.208984	5615.014648
486.931641	5596.433105
485.652344	5482.025391
484.375000	5557.333984
483.095703	5528.996094
481.816406	5545.627441
480.537109	5464.531738
479.257813	5561.285156
477.978516	5405.973145
476.699219	5629.672363
475.417969	5441.200195
474.138672	5428.537598
472.857422	5490.068848
471.576172	5409.080566
470.296875	5521.337402
469.015625	5319.387207
467.734375	5382.845215
466.451172	5200.495605
465.169922	5302.958496
463.888672	5337.135742
462.605469	5199.730957
461.322266	5261.204102
460.041016	5293.420898
458.757813	5234.040039
457.474609	5336.388672
456.191406	5162.091309
454.908203	5186.511719
453.623047	5177.819824
452.339844	5159.395996
451.054688	5248.041016
449.771484	5173.169434
448.486328	5141.133789
447.201172	5202.497070
445.916016	5205.481445
444.630859	5087.880371
443.343750	5188.111816
442.058594	5000.562012
440.773438	5126.043945
439.486328	5010.481445
438.199219	5073.734863
436.914063	5123.365723
435.626953	5186.576660
434.339844	5086.621094
433.050781	5099.327637
431.763672	4991.655273
430.476563	5014.080078
429.187500	5162.651367
427.900391	5049.202148
426.611328	5030.860840
425.322266	5006.706055
424.033203	5027.167480
422.744141	5136.823242
421.455078	4914.902344
420.164063	4917.922852
418.875000	5044.982910
417.583984	4984.031250
416.294922	4897.914063
415.003906	4960.985352
413.712891	5020.160645
412.421875	4922.462402
411.130859	4977.751465
409.839844	4911.066895
408.546875	4964.402832
407.255859	4936.445801
405.962891	4838.846191
404.671875	4839.937012
403.378906	4883.576660
402.085938	4969.743652
400.792969	4849.004883
399.500000	4836.560547
398.207031	4884.035156
396.912109	4792.359863
395.619141	4855.282227
394.324219	4815.800293
393.029297	4865.176270
391.734375	4744.601563
390.439453	4753.427246
389.144531	4806.648438
387.849609	4846.340332
386.554688	4712.344727
385.257813	4667.146484
383.962891	4799.435059
382.666016	4709.877441
381.369141	4749.550781
380.074219	4874.042969
378.777344	4680.423340
377.478516	4801.029297
376.181641	4663.373047
374.884766	4712.652344
373.585938	4694.492188
372.289063	4628.187988
370.990234	4727.514648
369.691406	4736.315430
368.392578	4643.088379
367.093750	4688.469238
365.794922	4683.801758
364.496094	4784.954590
363.195313	4787.966309
361.896484	4702.503906
360.595703	4701.682129
359.294922	4821.987305
357.996094	4615.458008
356.695313	4689.608398
355.394531	4757.967285
354.091797	4620.723633
352.791016	4637.205078
351.490234	4755.473145
350.187500	4599.098633
348.884766	4748.051270
347.583984	4774.095703
346.281250	4671.539063
344.978516	4707.182617
343.673828	4677.580566
342.371094	4621.132813
341.068359	4658.683594
339.763672	4675.127441
338.460938	4800.849609
337.156250	4880.521484
335.851563	4711.007324
334.546875	4658.444336
333.242188	4644.217773
331.937500	4741.101074
330.632813	4686.644531
329.326172	4710.718750
328.021484	4738.613281
326.714844	4724.384766
325.408203	4526.424316
324.101563	4697.854980
322.794922	4547.799316
321.488281	4690.472656
320.181641	4595.935059
318.873047	4633.375977
317.566406	4563.736328
316.257813	4536.175293
314.951172	4562.138672
313.642578	4605.291504
312.333984	4539.525879
311.025391	4641.884277
309.716797	4419.522461
308.406250	4661.264160
307.097656	4563.077148
305.787109	4554.642578
304.478516	4502.313965
303.167969	4585.487793
301.857422	4605.671875
300.546875	4560.991211
299.236328	4539.212891
297.925781	4563.207520
296.613281	4606.259277
295.302734	4574.953125
293.990234	4492.198242
292.677734	4653.383789
291.367188	4650.663574
290.054688	4626.990234
288.742188	4601.420410
287.427734	4549.199707
286.115234	4613.135254
284.802734	4627.555176
283.488281	4634.357422
282.173828	4622.127930
280.861328	4598.487305
279.546875	4593.876953
278.232422	4581.660156
276.917969	4558.038574
275.601563	4684.622070
274.287109	4531.729492
272.970703	4622.161621
271.656250	4602.349121
270.339844	4633.840332
269.023438	4551.347168
267.707031	4582.835938
266.390625	4633.302246
265.074219	4598.315918
263.757813	4532.969727
262.439453	4642.252930
261.123047	4576.921387
259.804688	4522.996094
258.486328	4603.769531
257.167969	4618.134766
255.849609	4505.446777
254.531250	4728.372559
253.212891	4646.033691
251.894531	4641.428223
250.574219	4665.247559
249.255859	4636.010254
247.935547	4809.466797
246.615234	4685.519043
245.294922	4769.907715
243.974609	4617.611328
242.654297	4618.693848
241.332031	4636.809082
240.011719	4671.947754
238.689453	4769.506836
237.369141	4759.211914
236.046875	4762.158691
234.724609	4787.795898
233.402344	4800.189453
232.080078	4825.810059
230.755859	4811.733398
229.433594	4748.531738
228.111328	4779.815430
226.787109	4780.865234
225.462891	4770.582520
224.138672	4807.509766
222.814453	4891.622070
221.490234	4945.503418
220.166016	4850.271484
218.841797	4943.766113
217.515625	4829.701660
216.191406	4957.119629
214.865234	4912.872070
213.539063	4861.097168
212.212891	4890.407715
210.886719	4802.840820
209.560547	4815.188965
208.232422	4934.937012
206.906250	4766.397949
205.580078	4878.577637
204.251953	4909.736328
202.923828	4954.063965
201.595703	4911.775391
200.267578	4907.147461
198.939453	4953.333984
197.611328	4997.622559
196.281250	5066.352051
194.953125	4869.840332
193.623047	5085.257813
192.294922	4958.382813
190.964844	5090.989258
189.634766	5056.260254
188.304688	5030.939941
186.972656	5125.883789
185.642578	5194.492676
184.312500	5105.297363
182.980469	5155.105469
181.648438	5259.347656
180.316406	5192.715820
178.986328	5249.989746
177.652344	5294.105957
176.320313	5244.389648
174.988281	5341.019531
173.656250	5298.814941
172.322266	5262.250488
170.988281	5332.575684
169.656250	5282.895020
168.322266	5210.739258
166.988281	5146.104980
165.654297	5422.507813
164.318359	5346.618164
162.984375	5411.233398
161.648438	5340.990234
160.314453	5433.669434
158.978516	5350.342285
157.642578	5306.350098
156.306641	5307.287598
154.970703	5500.943848
153.634766	5430.757813
152.298828	5455.987305
150.960938	5404.534180
149.625000	5390.494141
148.287109	5531.620605
146.949219	5515.693359
145.611328	5540.884766
144.273438	5536.171875
142.935547	5529.592285
141.597656	5661.229980
140.257813	5710.653809
138.919922	5894.492188
137.580078	5953.190918
136.240234	5548.986328
134.900391	5777.542480
133.560547	5774.658691
132.220703	5928.475098
130.880859	5942.351563
129.539063	5786.524414
128.199219	5927.205078
126.857422	5855.322266
125.515625	6022.034668
124.175781	6132.783203
122.833984	5932.342285
121.490234	6201.409180
120.148438	6123.952148
118.806641	6061.420410
117.462891	6041.732910
116.121094	6079.759277
114.777344	6214.555176
113.433594	6122.275879
112.089844	5972.352539
110.746094	6047.567871
109.402344	6234.350098
108.058594	6344.824219
106.712891	6356.719238
105.367188	6283.100586
104.023438	6187.204590
102.677734	6184.254395
101.332031	6270.485840
99.986328	6326.964355
98.640625	6405.710449
97.292969	6350.729004
95.947266	6410.875977
94.599609	6432.020020
93.253906	6551.521973
91.906250	6554.076660
90.558594	6647.540039
89.210938	6598.137207
87.863281	6572.861816
86.515625	6484.548340
85.166016	6564.979004
83.818359	6684.308105
82.468750	6861.047852
81.119141	6719.007813
79.769531	6560.343262
78.419922	6583.265137
77.070313	6730.264648
75.720703	6762.406250
74.371094	6716.778809
73.019531	6654.507813
71.667969	6707.003418
70.318359	6552.235840
68.966797	6562.178711
67.615234	6481.480469
66.263672	6509.925781
64.912109	6244.356445
63.558594	6354.178711
62.207031	6377.085449
60.853516	6387.046875
59.500000	6546.674805
58.148438	6172.332520
56.794922	5842.453613
55.439453	5636.426270
54.085938	5489.558594
52.732422	5507.049805
51.376953	5365.793945
