#Wave		#Intensity
4002.106445	2129.791992
4001.408203	2054.622803
4000.709961	2007.766846
4000.010742	2007.444092
3999.312500	1992.810425
3998.613281	2003.221802
3997.914063	2085.161865
3997.215820	2052.642334
3996.516602	1987.954224
3995.816406	2001.934326
3995.117188	2119.564697
3994.417969	1976.274780
3993.717773	2025.981445
3993.018555	2022.083252
3992.318359	2107.486572
3991.618164	1967.861938
3990.917969	2031.821289
3990.217773	2042.205566
3989.517578	2002.610596
3988.817383	2002.288818
3988.117188	1955.575684
3987.416016	1916.013428
3986.715820	1994.188843
3986.014648	2100.874023
3985.313477	2075.572510
3984.612305	2025.319092
3983.911133	1996.472656
3983.209961	1971.199951
3982.507813	1988.703247
3981.806641	1991.947021
3981.105469	2023.692627
3980.403320	2044.741089
3979.701172	1877.012939
3978.999023	1976.422729
3978.296875	2057.997803
3977.594727	2068.347168
3976.892578	2142.762451
3976.190430	2003.623657
3975.487305	2102.933105
3974.785156	2024.326050
3974.082031	2024.000854
3973.378906	1984.553711
3972.675781	2044.686523
3971.972656	2161.686523
3971.269531	2132.900391
3970.566406	1986.833008
3969.862305	2146.430176
3969.159180	1964.876099
3968.455078	2078.242188
3967.751953	2006.868652
3967.047852	2013.649048
3966.343750	1992.020630
3965.639648	2087.557861
3964.935547	2080.123291
3964.230469	2129.476807
3963.526367	2015.580933
3962.821289	2025.901245
3962.117188	1986.554199
3961.412109	2113.921631
3960.707031	2078.119385
3960.001953	2035.237061
3959.296875	2070.361572
3958.591797	2027.494263
3957.885742	1977.552612
3957.180664	2065.820801
3956.474609	1980.460327
3955.769531	2040.361206
3955.063477	2057.742188
3954.357422	2068.035156
3953.651367	1975.647705
3952.945313	1993.030518
3952.238281	2035.183960
3951.532227	2158.718018
3950.825195	2165.447998
3950.119141	1984.675171
3949.412109	1984.356445
3948.705078	1991.110962
3947.998047	2079.192383
3947.291016	2011.684448
3946.583984	2036.105713
3945.876953	2049.916016
3945.168945	1961.242676
3944.461914	2059.857422
3943.753906	1985.341309
3943.045898	2013.279053
3942.337891	1914.073730
3941.629883	2033.818237
3940.921875	2114.690186
3940.213867	2022.575684
3939.504883	1958.724731
3938.796875	1979.582275
3938.087891	1982.792480
3937.379883	2081.245117
3936.670898	2133.815430
3935.961914	1897.203979
3935.252930	1956.838623
3934.543945	2086.959473
3933.833984	2100.723145
3933.125000	1966.468628
3932.415039	1990.817871
3931.706055	1986.975342
3930.996094	2011.313354
3930.286133	1961.684204
3929.576172	2000.103760
3928.866211	1992.741089
3928.156250	2066.344971
3927.445313	2058.974121
3926.735352	2044.567261
3926.024414	2012.572754
3925.314453	1917.265869
3924.603516	2018.961304
3923.892578	2015.120361
3923.181641	2028.861816
3922.470703	1944.160278
3921.758789	1943.848145
3921.047852	2122.777344
3920.335938	1960.794067
3919.625000	2041.287598
3918.913086	1998.805786
3918.201172	2044.144531
3917.489258	2026.257935
3916.777344	2085.622070
3916.065430	2001.033325
3915.352539	2120.052979
3914.640625	2035.485596
3913.927734	1979.016602
3913.215820	2073.423828
3912.502930	2034.505615
3911.790039	2013.135864
3911.077148	2002.292847
3910.364258	1991.453247
3909.650391	2131.354248
3908.937500	2057.408203
3908.224609	2018.529663
3907.510742	2000.686523
3906.796875	2028.391602
3906.083008	2010.552490
3905.369141	2115.294189
3904.655273	1918.866089
3903.941406	2009.584717
3903.227539	2166.782715
3902.512695	2082.437500
3901.798828	1938.630615
3901.083984	2120.255615
3900.369141	1906.524536
3899.654297	2053.119873
3898.939453	1989.842773
3898.224609	2013.999146
3897.509766	2069.611328
3896.793945	2174.141357
3896.079102	1922.163818
3895.363281	1946.315308
3894.648438	2071.777100
3893.932617	1917.745483
3893.216797	2067.619629
3892.500977	1986.970825
3891.784180	2115.836670
3891.068359	1902.551147
3890.352539	2017.427734
3889.635742	2020.593872
3888.918945	2027.248047
3888.203125	2075.764404
3887.486328	1988.228271
3886.769531	1966.983887
3886.051758	2088.713379
3885.334961	2053.513672
3884.618164	1969.523071
3883.900391	1990.119019
3883.183594	2010.708252
3882.465820	1996.448853
3881.748047	1940.390259
3881.030273	1933.112671
3880.312500	1950.215210
3879.594727	2026.505615
3878.875977	1987.885010
3878.158203	2071.106445
3877.439453	1942.003296
3876.721680	1920.813354
3876.002930	2004.005493
3875.284180	2000.205322
3874.565430	1867.718140
3873.846680	1999.563599
3873.127930	1964.473389
3872.408203	2002.398438
3871.689453	2068.117920
3870.969727	2130.341064
3870.250000	2043.131470
3869.530273	2032.381226
3868.810547	1997.319214
3868.090820	1983.106567
3867.371094	2118.215332
3866.651367	2103.987793
3865.930664	2009.923340
3865.210938	1971.421997
3864.490234	2030.100098
3863.769531	2061.001709
3863.048828	1866.399170
3862.328125	2001.374634
3861.607422	2049.605957
3860.886719	1969.525269
3860.165039	2066.283203
3859.444336	1923.830811
3858.722656	2065.620361
3858.000977	1971.727173
3857.279297	2061.492920
3856.557617	2095.803711
3855.835938	2046.977295
3855.114258	1998.166626
3854.392578	2004.771118
3853.669922	2059.840088
3852.948242	1997.205322
3852.225586	2028.032227
3851.502930	2003.485229
3850.780273	2044.680176
3850.057617	2096.239258
3849.334961	2033.648560
3848.612305	2095.566895
3847.888672	1998.421509
3847.166016	2053.411865
3846.442383	1932.109497
3845.718750	2114.957764
3844.995117	1969.497681
3844.271484	2034.821167
3843.547852	2013.770020
3842.824219	2172.312500
3842.100586	2006.218018
3841.375977	2050.778564
3840.651367	1977.959106
3839.927734	2098.440186
3839.203125	2046.341309
3838.478516	2008.060059
3837.753906	2062.933594
3837.029297	2145.382813
3836.303711	2031.234375
3835.579102	2079.181641
3834.853516	1992.660400
3834.128906	1988.893921
3833.403320	2057.502930
3832.677734	2112.306641
3831.952148	1994.827759
3831.226563	2090.960693
3830.500000	1928.748413
3829.774414	2093.733887
3829.047852	1972.890015
3828.322266	2027.654175
3827.595703	2030.771118
3826.869141	1965.058228
3826.142578	2023.238037
3825.416016	2077.958984
3824.689453	1974.432373
3823.961914	1970.676514
3823.235352	2011.624634
3822.507813	2028.492676
3821.781250	2031.604980
3821.053711	2000.346069
3820.326172	2113.428711
3819.598633	2061.551025
3818.871094	2068.091309
3818.142578	2033.411499
3817.415039	2012.479858
3816.686523	2111.734863
3815.958984	2008.401367
3815.230469	2035.540283
3814.501953	2031.781860
3813.773438	2004.004028
3813.044922	1972.803955
3812.316406	1972.487671
3811.586914	1999.610352
3810.858398	2061.017334
3810.128906	2022.970581
3809.399414	2060.356445
3808.669922	2036.032593
3807.940430	1847.214844
3807.210938	2014.820313
3806.481445	2031.627441
3805.751953	2072.407227
3805.021484	1989.876953
3804.291992	2082.015869
3803.561523	2061.139160
3802.831055	1971.803711
3802.100586	2009.137573
3801.370117	2008.815430
3800.639648	2094.033936
3799.909180	2056.066406
3799.177734	2018.110962
3798.447266	2004.107544
3797.715820	1962.753052
3796.984375	2058.167236
3796.252930	2047.582153
3795.521484	2071.178467
3794.790039	1992.249878
3794.058594	2114.931396
3793.327148	1984.778931
3792.594727	1991.291870
3791.862305	2055.858643
3791.130859	2062.357910
3790.398438	2164.446045
3789.666016	2030.976196
3788.933594	2088.669189
3788.201172	2020.088135
3787.467773	1951.529053
3786.735352	2016.029297
3786.001953	1950.903442
3785.268555	2063.124756
3784.536133	2021.879150
3783.802734	2089.735596
3783.069336	2062.132813
3782.334961	2027.722900
3781.601563	1966.064819
3780.868164	2156.532959
3780.133789	2006.310059
3779.399414	2152.435791
3778.666016	2131.659668
3777.931641	2046.201416
3777.197266	2052.681641
3776.462891	2028.527588
3775.727539	2099.666016
3774.993164	2116.341797
3774.257813	2092.188965
3773.523438	1993.213379
3772.788086	2108.522705
3772.052734	2128.586426
3771.317383	2203.039795
3770.582031	2042.923950
3769.846680	2056.191162
3769.110352	2059.259766
3768.375000	2007.965942
3767.638672	2028.026367
3766.903320	2010.718872
3766.166992	2030.772217
3765.430664	2159.471680
3764.694336	1938.460327
3763.958008	2019.612915
3763.220703	2107.527100
3762.484375	2018.965576
3761.747070	2001.678589
3761.010742	2045.455566
3760.273438	2075.652100
3759.536133	2071.928223
3758.798828	2115.672607
3758.061523	2142.453369
3757.323242	1982.807373
3756.585938	2043.489258
3755.847656	2070.268311
3755.110352	2130.916748
3754.372070	2049.281494
3753.633789	2082.820068
3752.895508	2112.961670
3752.157227	2193.877686
3751.418945	2071.663574
3750.679688	2095.023193
3749.941406	1976.247925
3749.202148	2026.682861
3748.462891	2165.056885
3747.723633	2107.209961
3746.984375	2012.181274
3746.245117	2113.297119
3745.505859	2123.100586
3744.766602	2102.479248
3744.026367	2173.114990
3743.287109	2115.321777
3742.546875	2121.739990
3741.806641	2057.217529
3741.066406	2202.119629
3740.326172	2043.050293
3739.585938	2117.003662
3738.845703	2072.778320
3738.104492	2126.451172
3737.364258	2139.609619
3736.623047	2142.640869
3735.881836	2054.581543
3735.140625	2084.610596
3734.399414	2222.553711
3733.658203	2097.430908
3732.916992	2134.181641
3732.174805	2079.903564
3731.433594	2167.202148
3730.691406	2089.346924
3729.949219	2099.120117
3729.207031	2095.415039
3728.464844	2276.967041
3727.722656	2050.962646
3726.980469	2128.079834
3726.237305	2137.838867
3725.495117	2056.708984
3724.751953	2100.132324
3724.008789	2096.430664
3723.266602	2082.636719
3722.523438	2082.302979
3721.779297	2122.330566
3721.036133	2084.998535
3720.292969	2047.678467
3719.548828	2165.014160
3718.805664	2114.248047
3718.061523	2150.877441
3717.317383	2130.371338
3716.573242	2146.828369
3715.829102	2173.357422
3715.084961	2115.913086
3714.339844	2179.377197
3713.595703	2121.950195
3712.850586	2185.392578
3712.106445	2181.686035
3711.361328	2077.303467
3710.616211	2070.260010
3709.871094	2103.476563
3709.125977	2190.350830
3708.379883	2129.632324
3707.634766	2219.827881
3706.888672	2142.360596
3706.143555	2209.060303
3705.397461	2168.487061
3704.651367	2050.852295
3703.905273	2268.308105
3703.159180	2160.744873
3702.412109	2180.495361
3701.666016	2247.124268
3700.918945	2166.403076
3700.172852	2112.490479
3699.425781	2202.529297
3698.678711	2295.885986
3697.931641	2272.094482
3697.184570	2094.408447
3696.436523	2244.605225
3695.689453	2297.759521
3694.942383	2203.756836
3694.194336	2266.931396
3693.446289	2092.730957
3692.698242	2212.725098
3691.950195	2165.583252
3691.202148	2188.626221
3690.454102	2228.366211
3689.705078	2248.051270
3688.957031	2271.069580
3688.208008	2173.866943
3687.459961	2223.599609
3686.710938	2159.817383
3685.961914	2313.004150
3685.212891	2222.531006
3684.462891	2148.769775
3683.713867	2248.507324
3682.963867	2161.423340
3682.214844	2277.801758
3681.464844	2280.771240
3680.714844	2330.414795
3679.964844	2243.373291
3679.214844	2323.002441
3678.464844	2285.974609
3677.713867	2232.299805
3676.963867	2361.861084
3676.212891	2204.938721
3675.462891	2277.849609
3674.711914	2350.737061
3673.960938	2360.347900
3673.209961	2336.669678
3672.458984	2332.967041
3671.707031	2422.436523
3670.956055	2262.352783
3670.204102	2331.845947
3669.452148	2318.168701
3668.701172	2351.051270
3667.949219	2417.171631
3667.197266	2293.784424
3666.444336	2373.187988
3665.692383	2389.424072
3664.940430	2315.941162
3664.187500	2312.248047
3663.434570	2361.702393
3662.681641	2434.388916
3661.929688	2407.434082
3661.175781	2417.008545
3660.422852	2360.189209
3659.669922	2416.234131
3658.916992	2366.070068
3658.163086	2505.044434
3657.409180	2587.578369
3656.655273	2613.698730
3655.902344	2430.881104
3655.147461	2397.333496
3654.393555	2469.885498
3653.639648	2489.378418
3652.885742	2399.495605
3652.130859	2402.424805
3651.375977	2458.363770
3650.622070	2487.783447
3649.867188	2484.072754
3649.112305	2437.312988
3648.356445	2589.230225
3647.601563	2492.810547
3646.846680	2598.330566
3646.090820	2707.125977
3645.334961	2501.539551
3644.580078	2481.288330
3643.824219	2599.973633
3643.068359	2450.727539
3642.312500	2569.379639
3641.555664	2575.580322
3640.799805	2462.772705
3640.042969	2713.573975
3639.287109	2594.170898
3638.530273	2593.755127
3637.773438	2619.768555
3637.016602	2708.532227
3636.259766	2556.180664
3635.501953	2727.476807
3634.745117	2667.612793
3633.988281	2673.787354
3633.230469	2696.462158
3632.472656	2646.531250
3631.714844	2731.891357
3630.957031	2705.062988
3630.199219	2704.629639
3629.441406	2780.045654
3628.682617	2746.627441
3627.924805	2640.691650
3627.166016	2706.192871
3626.407227	2629.958740
3625.649414	2728.392090
3624.890625	2764.196045
3624.130859	2724.223877
3623.372070	2717.200195
3622.613281	2943.985352
3621.853516	2752.547363
3621.094727	2771.858398
3620.334961	2820.786377
3619.575195	2724.897217
3618.815430	2790.269043
3618.055664	2773.372559
3617.294922	2759.770752
3616.535156	2762.617432
3615.775391	2824.652588
3615.014648	2722.279053
3614.253906	2718.555664
3613.493164	2797.001465
3612.732422	2865.563721
3611.971680	2825.676514
3611.210938	2700.388428
3610.449219	2841.194336
3609.688477	2886.716553
3608.926758	2938.791016
3608.166016	2849.678223
3607.404297	2832.809082
3606.642578	2937.378906
3605.879883	2825.338623
3605.118164	2841.290527
3604.356445	2771.946777
3603.593750	3073.252197
3602.832031	2846.484131
3602.069336	3023.084961
3601.306641	2845.572021
3600.543945	2844.648682
3599.781250	2843.725098
3599.018555	2842.801758
3598.254883	2841.878174
3597.492188	2840.954834
3596.728516	2840.031250
3595.964844	2839.107910
3595.201172	2897.587158
3594.437500	2998.604004
3593.673828	2971.939209
3592.910156	2820.926270
3592.146484	2794.298340
3591.381836	3006.497314
3590.617188	2953.680420
3589.853516	2832.200928
3589.088867	2743.459473
3588.324219	2837.832275
3587.559570	2853.721924
3586.793945	2948.046875
3586.029297	2859.343262
3585.263672	2927.498535
3584.499023	2773.491211
3583.733398	2861.235596
3582.967773	2962.014648
3582.202148	2892.970947
3581.436523	2902.301514
3580.670898	2898.572510
3579.904297	3054.762451
3579.138672	2949.853516
3578.372070	2955.906250
3577.605469	3023.936035
3576.838867	2919.082031
3576.072266	2866.438232
3575.305664	2973.575439
3574.539063	2956.799072
3573.771484	2969.363281
3573.004883	2965.628662
3572.237305	2844.592285
3571.469727	2811.557617
3570.703125	2967.460938
3569.935547	3015.838135
3569.166992	2894.871094
3568.399414	2881.384033
3567.631836	2806.051025
3566.863281	2838.149170
3566.094727	2860.474121
3565.327148	2925.090088
3564.558594	2940.887451
3563.790039	2901.384277
3563.021484	2962.710205
3562.251953	2854.931885
3561.483398	2955.258789
3560.713867	2909.277100
3559.945313	2869.810303
3559.175781	3012.330566
3558.406250	2966.361572
3557.636719	2858.685547
3556.867188	2809.507813
3556.096680	2896.739258
3555.327148	2750.162598
3554.556641	2850.361328
3553.787109	2859.642334
3553.016602	2771.558838
3552.246094	2754.890381
3551.475586	3007.508057
3550.705078	2825.372070
3549.933594	2941.678223
3549.163086	2931.478760
3548.391602	2914.797607
3547.621094	2839.770508
3546.849609	2823.109375
3546.078125	2835.619873
3545.306641	2806.003906
3544.535156	2837.951172
3543.762695	2895.801025
3542.991211	2872.666748
3542.218750	2943.445068
3541.446289	2878.221680
3540.674805	2845.389648
3539.902344	2809.331787
3539.129883	2808.881592
3538.356445	2753.427734
3537.583984	2762.691650
3536.811523	2804.297363
3536.038086	2874.995117
3535.264648	2832.499756
3534.491211	2786.784912
3533.717773	2880.078369
3532.944336	2840.834229
3532.170898	2756.363281
3531.397461	2794.691895
3530.623047	2810.395996
3529.849609	2881.001709
3529.075195	2796.578125
3528.300781	2967.255859
3527.526367	2769.855957
3526.751953	2643.529785
3525.977539	2704.423828
3525.202148	2807.245605
3524.427734	2774.533691
3523.652344	2641.836182
3522.876953	2705.916260
3522.101563	2808.671387
3521.326172	2705.049072
3520.550781	2852.902100
3519.775391	2652.612793
3519.000000	2777.868652
3518.223633	2725.870361
3517.447266	2744.762939
3516.671875	2734.660156
3515.895508	2727.781006
3515.119141	2727.343750
3514.342773	2771.979736
3513.565430	2681.404297
3512.789063	2809.712891
3512.011719	2818.916748
3511.235352	2763.768799
3510.458008	2644.300293
3509.680664	2775.748779
3508.903320	2756.008789
3508.125977	2707.336670
3507.347656	2832.281982
3506.570313	2728.969482
3505.791992	2747.815186
3505.014648	2779.507813
3504.236328	2634.487061
3503.458008	2730.433105
3502.679688	2758.901367
3501.901367	2681.389404
3501.122070	2661.695557
3500.343750	2725.473389
3499.564453	2648.003906
3498.786133	2634.742676
3498.006836	2717.746094
3497.227539	2637.106689
3496.448242	2835.558105
3495.668945	2732.475586
3494.888672	2738.450928
3494.109375	2738.012207
3493.329102	2785.657227
3492.548828	2733.929688
3491.769531	2685.423096
3490.989258	2617.707764
3490.208008	2690.969727
3489.427734	2671.320313
3488.647461	2699.714844
3487.866211	2628.838379
3487.085938	2759.677979
3486.304688	2692.015381
3485.523438	2643.577148
3484.742188	2630.353760
3483.960938	2735.513428
3483.179688	2741.472900
3482.397461	2766.620850
3481.616211	2654.251221
3480.833984	2602.667969
3480.051758	2682.172607
3479.269531	2774.437012
3478.487305	2738.838135
3477.705078	2671.297363
3476.922852	2731.570801
3476.139648	2635.303955
3475.357422	2756.245850
3474.574219	2653.619141
3473.791016	2809.639648
3473.007813	2617.653809
3472.224609	2665.110596
3471.441406	2658.301025
3470.658203	2740.833984
3469.874023	2686.160889
3469.090820	2701.678955
3468.306641	2662.975830
3467.522461	2713.567871
3466.738281	2636.616943
3465.954102	2588.379639
3465.169922	2702.702148
3464.385742	2657.656006
3463.600586	2634.927246
3462.815430	2628.133789
3462.031250	2694.599854
3461.246094	2748.306152
3460.460938	2652.343018
3459.675781	2632.816650
3458.890625	2702.422119
3458.104492	2622.425049
3457.319336	2752.468750
3456.533203	2771.116699
3455.747070	2716.595215
3454.960938	2712.979492
3454.174805	2652.124512
3453.388672	2724.827881
3452.602539	2574.978760
3451.815430	2622.243408
3451.029297	2729.874023
3450.242188	2611.870605
3449.455078	2643.221436
3448.667969	2696.797119
3447.880859	2648.726074
3447.093750	2610.196533
3446.306641	2676.451416
3445.518555	2615.708740
3444.731445	2596.246094
3443.943359	2624.390381
3443.155273	2700.118896
3442.367188	2623.549316
3441.579102	2569.207275
3440.791016	2622.708496
3440.002930	2549.358643
3439.213867	2653.571045
3438.425781	2656.315674
3437.636719	2557.640869
3436.847656	2706.165283
3436.058594	2525.138184
3435.269531	2578.585938
3434.480469	2562.336182
3433.690430	2707.597412
3432.901367	2618.507813
3432.111328	2627.585449
3431.321289	2586.015869
3430.531250	2569.777588
3429.741211	2642.143311
3428.951172	2537.316650
3428.161133	2688.744873
3427.370117	2678.825684
3426.580078	2602.503174
3425.789063	2519.881592
3424.998047	2614.313721
3424.207031	2534.877441
3423.416016	2654.558105
3422.625000	2714.166748
3421.833984	2577.886963
3421.041992	2533.252441
3420.250977	2523.371826
3419.458984	2504.021484
3418.666992	2680.420410
3417.875000	2560.038330
3417.083008	2603.813965
3416.291016	2609.707764
3415.498047	2558.807617
3414.706055	2612.025879
3413.913086	2532.754395
3413.120117	2567.038086
3412.327148	2569.779541
3411.534180	2613.504150
3410.741211	2546.891113
3409.948242	2581.150391
3409.155273	2571.283203
3408.361328	2482.655029
3407.567383	2516.907715
3406.774414	2699.179199
3405.980469	2528.697021
3405.186523	2474.766357
3404.391602	2553.070801
3403.597656	2555.809082
3402.803711	2634.075439
3402.008789	2485.765869
3401.213867	2469.637207
3400.418945	2579.334961
3399.624023	2622.951660
3398.829102	2468.449707
3398.034180	2537.222412
3397.239258	2565.107178
3396.443359	2464.119629
3395.648438	2567.427246
3394.852539	2639.281738
3394.056641	2472.359131
3393.260742	2591.320557
3392.464844	2477.847412
3391.667969	2552.810059
3390.872070	2505.308350
3390.075195	2508.045654
3389.279297	2513.920654
3388.482422	2557.449219
3387.685547	2626.063477
3386.888672	2525.259521
3386.091797	2499.762939
3385.293945	2587.169189
3384.497070	2470.742188
3383.699219	2636.498779
3382.902344	2563.983643
3382.104492	2529.099121
3381.306641	2500.492676
3380.508789	2484.427002
3379.709961	2559.207275
3378.912109	2417.859619
3378.113281	2464.443359
3377.315430	2382.644043
3376.516602	2507.479248
3375.717773	2538.376709
3374.918945	2609.946533
3374.120117	2468.726318
3373.321289	2452.688232
3372.521484	2574.284180
3371.722656	2439.392090
3370.922852	2564.077881
3370.123047	2548.034668
3369.323242	2447.596436
3368.523438	2572.220947
3367.723633	2468.686035
3366.922852	2527.654297
3366.123047	2455.398682
3365.322266	2523.720215
3364.522461	2460.857178
3363.721680	2341.810791
3362.920898	2466.311768
3362.120117	2444.066406
3361.318359	2393.739990
3360.517578	2533.774658
3359.715820	2605.126221
3358.915039	2436.260254
3358.113281	2504.485596
3357.311523	2413.650146
3356.509766	2472.503418
3355.708008	2409.758789
3354.905273	2468.593506
3354.103516	2371.588867
3353.300781	2405.483643
3352.499023	2492.329346
3351.696289	2417.171875
3350.893555	2317.123047
3350.090820	2544.066895
3349.287109	2456.483398
3348.484375	2546.364014
3347.681641	2471.257568
3346.877930	2349.496582
3346.074219	2436.239502
3345.270508	2541.619873
3344.466797	2600.310303
3343.663086	2528.364990
3342.859375	2356.941406
3342.054688	2415.633057
3341.250977	2433.895996
3340.446289	2520.527588
3339.641602	2541.875244
3338.836914	2305.341064
3338.032227	2370.206299
3337.227539	2574.817627
3336.421875	2527.823242
3335.617188	2452.899414
3334.811523	2409.043701
3334.006836	2433.489014
3333.201172	2448.615723
3332.395508	2463.737793
3331.589844	2413.703369
3330.783203	2490.864990
3329.977539	2416.030762
3329.170898	2499.368896
3328.365234	2523.771729
3327.558594	2393.168457
3326.751953	2436.177246
3325.945313	2410.994629
3325.138672	2581.023682
3324.331055	2481.474609
3323.524414	2496.563965
3322.716797	2412.545166
3321.909180	2446.219238
3321.101563	2374.619385
3320.293945	2340.187988
3319.486328	2466.707275
3318.678711	2379.665771
3317.871094	2447.352051
3317.062500	2412.930908
3316.253906	2446.566895
3315.446289	2381.231689
3314.637695	2356.113525
3313.829102	2442.298096
3313.019531	2482.089600
3312.210938	2373.522949
3311.402344	2397.862305
3310.592773	2354.224365
3309.783203	2495.942383
3308.973633	2443.036621
3308.164063	2556.902588
3307.354492	2216.861572
3306.544922	2488.166992
3305.735352	2367.391846
3304.924805	2360.839844
3304.114258	2480.798340
3303.304688	2572.952637
3302.494141	2359.703857
3301.683594	2380.913818
3300.872070	2426.785645
3300.061523	2386.316162
3299.250977	2395.180908
3298.439453	2222.198730
3297.627930	2419.065430
3296.816406	2498.786377
3296.004883	2439.853516
3295.193359	2470.263428
3294.381836	2288.168457
3293.570313	2457.154053
3292.757813	2333.614014
3291.945313	2357.864746
3291.133789	2397.496094
3290.321289	2409.419922
3289.508789	2329.040039
3288.695313	2337.894775
3287.882813	2328.292480
3287.070313	2386.347656
3286.256836	2324.470703
3285.443359	2388.656006
3284.629883	2366.756836
3283.816406	2341.791260
3283.002930	2467.397217
3282.189453	2353.328613
3281.375000	2380.596680
3280.561523	2367.929688
3279.747070	2373.691162
3278.932617	2407.083008
3278.119141	2434.324707
3277.303711	2390.964111
3276.489258	2298.517090
3275.674805	2310.421387
3274.859375	2310.050537
3274.044922	2438.506592
3273.229492	2312.375977
3272.414063	2327.336426
3271.598633	2388.279541
3270.783203	2341.916260
3269.967773	2427.355957
3269.151367	2402.451660
3268.335938	2493.981934
3267.519531	2420.060791
3266.703125	2373.729248
3265.886719	2428.471191
3265.070313	2379.091064
3264.253906	2354.218018
3263.437500	2353.840088
3262.620117	2301.435303
3261.803711	2420.403076
3260.986328	2426.133545
3260.168945	2330.916748
3259.351563	2403.945557
3258.534180	2339.342529
3257.715820	2372.599121
3256.898438	2421.130127
3256.080078	2463.532227
3255.262695	2374.512939
3254.444336	2309.966064
3253.625977	2315.705322
3252.807617	2321.442627
3251.989258	2412.691162
3251.169922	2424.518066
3250.351563	2305.059570
3249.532227	2289.426758
3248.712891	2304.319580
3247.893555	2364.981445
3247.074219	2291.375488
3246.254883	2403.880127
3245.435547	2366.892822
3244.616211	2464.101074
3243.795898	2283.806152
3242.975586	2374.899170
3242.155273	2359.277100
3241.334961	2428.994629
3240.514648	2264.056885
3239.694336	2291.113525
3238.874023	2382.132080
3238.052734	2366.520996
3237.231445	2314.372070
3236.411133	2362.716309
3235.589844	2401.912354
3234.768555	2377.176514
3233.946289	2328.102539
3233.125000	2303.386475
3232.303711	2369.947266
3231.481445	2348.274170
3230.659180	2338.773193
3229.836914	2274.540283
3229.014648	2404.909668
3228.192383	2325.487305
3227.370117	2395.019287
3226.547852	2309.546143
3225.724609	2397.288574
3224.901367	2478.927002
3224.078125	2320.583496
3223.255859	2432.577148
3222.431641	2331.984131
3221.608398	2489.479004
3220.785156	2492.114746
3219.960938	2391.560547
3219.137695	2388.141846
3218.313477	2408.996338
3217.489258	2323.671143
3216.665039	2365.760498
3215.840820	2435.128906
3215.015625	2295.263428
3214.191406	2470.725830
3213.366211	2409.707275
3212.541992	2330.524902
3211.716797	2387.722656
3210.891602	2405.517090
3210.066406	2383.926758
3209.241211	2404.744385
3208.415039	2392.245605
3207.589844	2249.560791
3206.763672	2370.286865
3205.937500	2457.680664
3205.111328	2405.840332
3204.285156	2414.531006
3203.458984	2383.890869
3202.632813	2386.532715
3201.805664	2331.712646
3200.978516	2518.812744
3200.152344	2279.567627
3199.325195	2303.384033
3198.498047	2448.085693
3197.670898	2335.884277
3196.842773	2435.213867
3196.015625	2332.113037
3195.187500	2383.085205
3194.360352	2418.941162
3193.532227	2400.436035
3192.704102	2369.861328
3191.875977	2514.365967
3191.046875	2384.189697
3190.218750	2401.911621
3189.389648	2416.610840
3188.561523	2437.338135
3187.732422	2325.353760
3186.903320	2373.228760
3186.074219	2559.781006
3185.245117	2354.378906
3184.415039	2444.423340
3183.585938	2386.772217
3182.755859	2347.218262
3181.926758	2389.018066
3181.096680	2346.464111
3180.266602	2382.227295
3179.435547	2417.978760
3178.605469	2288.130127
3177.775391	2311.844238
3176.944336	2431.862061
3176.113281	2353.230957
3175.283203	2476.212158
3174.452148	2304.342529
3173.620117	2352.096924
3172.789063	2315.631348
3171.958008	2402.457275
3171.125977	2414.096680
3170.294922	2362.609131
3169.462891	2305.127197
3168.630859	2295.742188
3167.798828	2487.656006
3166.966797	2367.098877
3166.133789	2447.811768
3165.301758	2405.376953
3164.468750	2389.977783
3163.635742	2389.593750
3162.802734	2278.153564
3161.969727	2397.829102
3161.136719	2433.450439
3160.303711	2421.059082
3159.469727	2357.678711
3158.636719	2345.303223
3157.802734	2398.901855
3156.968750	2239.614502
3156.134766	2353.165771
3155.300781	2400.742676
3154.466797	2352.409668
3153.631836	2381.993652
3152.797852	2357.645020
3151.962891	2405.190186
3151.127930	2422.772217
3150.292969	2455.320068
3149.458008	2374.092529
3148.623047	2316.837891
3147.788086	2424.208008
3146.952148	2313.100830
3146.117188	2351.623535
3145.281250	2315.348633
3144.445313	2452.559082
3143.609375	2335.537598
3142.773438	2272.373047
3141.936523	2409.523926
3141.100586	2352.345703
3140.263672	2363.921631
3139.426758	2220.115723
3138.590820	2410.962646
3137.753906	2404.601074
3136.916016	2374.348389
3136.079102	2505.356201
3135.242188	2397.470459
3134.404297	2364.248291
3133.566406	2337.006104
3132.729492	2303.804199
3131.891602	2422.782715
3131.052734	2338.862305
3130.214844	2371.296875
3129.376953	2424.596680
3128.538086	2319.843750
3127.700195	2373.134766
3126.861328	2265.442627
3126.022461	2348.528809
3125.183594	2526.944336
3124.343750	2317.979736
3123.504883	2424.848389
3122.666016	2281.492920
3121.826172	2361.531250
3120.986328	2364.129150
3120.146484	2345.886963
3119.306641	2422.899658
3118.466797	2413.582031
3117.626953	2383.438232
3116.786133	2264.051025
3115.946289	2323.179443
3115.105469	2266.297119
3114.264648	2325.406006
3113.423828	2396.388672
3112.583008	2312.767334
3111.741211	2371.840088
3110.900391	2398.204590
3110.058594	2338.393311
3109.217773	2338.017334
3108.375977	2432.691650
3107.534180	2295.687744
3106.692383	2434.878662
3105.849609	2318.700439
3105.007813	2339.106445
3104.165039	2466.351318
3103.323242	2302.744873
3102.480469	2388.416748
3101.637695	2304.970703
3100.794922	2280.871826
3099.952148	2339.815918
3099.108398	2330.544434
3098.265625	2270.877686
3097.421875	2341.651367
3096.578125	2323.492920
3095.734375	2317.192871
3094.890625	2417.551514
3094.046875	2257.203369
3093.203125	2259.802002
3092.358398	2374.927490
3091.513672	2415.996338
3090.669922	2223.187988
3089.825195	2332.344238
3088.980469	2320.131592
3088.134766	2281.292969
3087.290039	2310.510010
3086.445313	2443.244873
3085.599609	2416.234863
3084.753906	2353.749756
3083.908203	2344.501709
3083.062500	2373.684814
3082.216797	2370.347412
3081.371094	2322.684814
3080.524414	2340.038818
3079.678711	2366.249512
3078.832031	2256.583984
3077.985352	2259.174072
3077.138672	2314.911865
3076.291992	2335.205078
3075.445313	2272.842773
3074.597656	2313.794678
3073.750977	2404.897217
3072.903320	2307.149658
3072.055664	2371.675049
3071.208008	2306.407227
3070.360352	2335.525146
3069.512695	2293.871582
3068.665039	2408.472412
3067.816406	2381.557617
3066.967773	2245.612549
3066.120117	2336.593506
3065.271484	2345.055664
3064.421875	2329.950439
3063.573242	2285.398926
3062.724609	2367.480713
3061.875000	2352.378906
3061.026367	2340.225830
3060.176758	2292.757813
3059.327148	2198.221436
3058.477539	2409.710449
3057.627930	2418.147949
3056.777344	2400.111084
3055.927734	2340.907959
3055.077148	2358.173340
3054.226563	2325.455078
3053.375977	2330.959717
3052.525391	2348.218262
3051.674805	2347.840332
3050.824219	2265.198486
3049.972656	2382.334961
3049.122070	2255.658203
3048.270508	2410.934082
3047.418945	2272.548828
3046.567383	2383.737305
3045.715820	2386.288818
3044.864258	2347.753662
3044.011719	2350.310059
3043.159180	2253.117920
3042.307617	2305.554199
3041.455078	2155.610107
3040.602539	2296.015137
3039.750000	2234.076416
3038.896484	2365.629395
3038.043945	2338.870361
3037.190430	2367.798096
3036.337891	2311.747559
3035.484375	2326.022949
3034.630859	2316.861328
3033.777344	2263.774414
3032.922852	2371.749023
3032.069336	2336.235840
3031.214844	2385.621338
3030.361328	2350.117188
3029.506836	2376.074463
3028.652344	2325.954590
3027.797852	2334.355957
3026.942383	2272.559570
3026.087891	2301.436768
3025.232422	2242.589355
3024.377930	2291.925781
3023.522461	2382.166748
3022.666992	2273.653076
3021.811523	2235.301514
3020.955078	2337.193848
3020.099609	2316.370361
3019.243164	2213.778076
3018.387695	2245.542480
3017.531250	2347.367188
3016.674805	2422.886963
3015.818359	2355.367432
3014.961914	2317.051514
3014.104492	2255.406006
3013.248047	2327.974365
3012.390625	2356.767334
3011.533203	2379.718262
3010.675781	2277.280273
3009.818359	2244.844238
3008.960938	2212.418701
3008.102539	2197.490234
3007.245117	2328.265137
3006.386719	2319.149658
3005.528320	2286.732666
3004.669922	2344.615723
3003.811523	2341.326172
3002.953125	2311.832764
3002.094727	2270.704102
3001.235352	2343.105713
3000.376953	2307.805664
2999.517578	2319.072754
2998.658203	2272.150879
2997.798828	2283.419922
2996.939453	2242.335449
2996.079102	2157.645752
2995.219727	2317.205811
2994.359375	2345.901855
2993.499023	2223.452148
2992.638672	2298.649902
2991.778320	2324.429443
2990.917969	2268.858887
2990.057617	2256.875000
2989.196289	2236.182373
2988.335938	2256.147705
2987.474609	2310.945068
2986.613281	2284.448242
2985.751953	2252.155273
2984.890625	2315.631836
2984.028320	2303.653564
2983.166992	2311.984863
2982.304688	2363.819580
2981.442383	2296.740234
2980.580078	2365.957275
2979.717773	2296.000244
2978.855469	2292.731689
2977.993164	2321.343018
2977.129883	2297.788086
2976.267578	2364.051758
2975.404297	2433.190430
2974.541016	2357.497559
2973.677734	2429.510742
2972.814453	2255.403809
2971.950195	2301.357178
2971.086914	2309.669189
2970.222656	2315.084717
2969.358398	2378.366211
2968.494141	2270.944824
2967.629883	2215.622070
2966.765625	2304.916748
2965.901367	2278.521484
2965.036133	2367.777100
2964.171875	2292.239990
2963.306641	2317.881836
2962.441406	2297.280518
2961.576172	2256.461670
2960.710938	2345.648438
2959.844727	2365.488281
2958.979492	2350.667969
2958.113281	2321.415771
2957.248047	2220.001221
2956.381836	2340.872314
2955.515625	2320.293457
2954.648438	2383.399902
2953.782227	2227.225342
2952.915039	2388.400635
2952.048828	2292.841064
2951.181641	2289.587891
2950.314453	2274.802979
2949.447266	2432.983643
2948.580078	2354.771729
2947.712891	2247.767090
2946.844727	2270.455078
2945.976563	2293.135742
2945.109375	2275.483887
2944.241211	2289.516357
2943.373047	2346.735840
2942.503906	2311.810059
2941.635742	2305.680176
2940.767578	2299.552490
2939.898438	2382.631348
2939.029297	2290.179443
2938.160156	2422.135986
2937.291016	2226.165039
2936.421875	2303.450439
2935.552734	2320.330566
2934.682617	2365.953125
2933.812500	2285.090332
2932.943359	2293.343506
2932.073242	2298.720459
2931.203125	2309.841553
2930.332031	2320.958984
2929.461914	2306.224609
2928.591797	2280.008789
2927.720703	2325.578369
2926.849609	2328.073975
2925.978516	2459.725830
2925.107422	2327.323242
2924.236328	2372.855469
2923.365234	2317.966309
2922.493164	2389.300049
2921.621094	2297.143555
2920.750000	2402.866211
2919.877930	2253.398926
2919.005859	2361.960693
2918.132813	2321.455811
2917.260742	2303.888184
2916.387695	2346.492676
2915.515625	2280.228271
2914.642578	2380.105469
2913.769531	2296.674805
2912.896484	2370.748047
2912.023438	2461.973877
2911.149414	2381.432373
2910.276367	2298.054932
2909.402344	2374.941406
2908.528320	2448.941895
2907.654297	2322.687012
2906.780273	2330.892090
2905.906250	2419.161621
2905.032227	2421.630371
2904.157227	2481.270264
2903.282227	2343.678955
2902.407227	2277.574219
2901.532227	2362.923340
2900.657227	2405.393555
2899.782227	2265.046631
2898.907227	2390.338135
2898.031250	2361.398682
2897.155273	2303.919189
2896.280273	2397.744629
2895.404297	2405.919678
2894.527344	2299.950684
2893.651367	2342.375732
2892.775391	2333.439697
2891.898438	2324.506836
2891.022461	2301.318115
2890.145508	2309.500488
2889.268555	2326.232422
2888.391602	2371.461914
2887.513672	2362.529541
2886.636719	2302.311035
2885.758789	2347.522461
2884.880859	2244.598389
2884.003906	2315.436523
2883.125977	2306.520264
2882.247070	2306.147949
2881.369141	2300.082520
2880.491211	2322.480469
2879.612305	2245.271240
2878.733398	2298.968750
2877.854492	2392.476074
2876.975586	2221.429443
2876.096680	2266.572998
2875.217773	2342.979492
2874.337891	2328.386475
2873.458984	2356.435547
2872.579102	2222.479248
2871.699219	2361.358154
2870.819336	2309.836670
2869.939453	2340.710938
2869.059570	2348.853760
2868.178711	2393.910645
2867.297852	2243.041504
2866.417969	2364.749268
2865.537109	2341.660400
2864.656250	2361.147705
2863.774414	2332.392090
2862.893555	2385.918457
2862.012695	2320.292725
2861.130859	2260.360107
2860.249023	2262.830811
2859.367188	2316.333740
2858.485352	2361.314941
2857.603516	2406.281738
2856.720703	2258.535889
2855.838867	2221.337646
2854.956055	2447.609619
2854.073242	2237.614990
2853.190430	2305.220703
2852.307617	2276.533447
2851.424805	2284.658936
2850.541992	2202.202637
2849.658203	2306.562012
2848.774414	2226.958496
2847.891602	2269.037109
2847.007813	2285.643311
2846.124023	2333.355469
2845.239258	2318.839111
2844.355469	2293.018066
2843.470703	2213.493408
2842.586914	2314.889160
2841.702148	2241.038574
2840.817383	2237.851074
2839.931641	2116.009766
2839.046875	2234.303467
2838.162109	2352.559082
2837.276367	2292.880371
2836.390625	2329.212646
2835.504883	2283.671143
2834.619141	2240.966553
2833.733398	2313.974365
2832.847656	2262.814209
2831.960938	2268.090576
2831.075195	2281.826904
2830.188477	2309.659180
2829.301758	2272.630859
2828.415039	2280.721191
2827.528320	2364.914551
2826.641602	2192.617676
2825.753906	2327.518799
2824.866211	2228.534912
2823.979492	2309.865234
2823.091797	2281.327393
2822.204102	2275.326660
2821.315430	2308.745605
2820.427734	2271.776367
2819.539063	2291.111572
2818.651367	2276.670654
2817.762695	2321.322266
2816.874023	2292.814453
2815.985352	2236.187500
2815.096680	2303.322754
2814.207031	2347.940918
2813.318359	2280.086670
2812.428711	2158.845459
2811.539063	2231.570557
2810.649414	2301.462158
2809.759766	2301.090088
2808.870117	2368.138428
2807.979492	2196.423340
2807.088867	2241.000732
2806.199219	2336.104248
2805.308594	2327.304688
2804.417969	2237.107178
2803.527344	2306.906982
2802.635742	2267.250000
2801.745117	2261.272461
2800.853516	2395.551514
2799.961914	2336.266846
2799.071289	2159.225098
2798.178711	2327.100098
2797.287109	2169.740234
2796.395508	2222.643066
2795.502930	2323.169434
2794.611328	2336.803223
2793.718750	2367.241699
2792.826172	2274.425293
2791.933594	2178.838379
2791.041016	2349.292969
2790.147461	2326.515869
2789.254883	2396.119873
2788.361328	2300.574707
2787.467773	2249.833252
2786.574219	2257.863037
2785.680664	2232.321289
2784.787109	2217.975586
2783.892578	2301.511719
2782.999023	2320.711670
2782.104492	2376.248291
2781.209961	2345.117432
2780.315430	2266.487061
2779.420898	2171.116699
2778.526367	2243.403809
2777.630859	2343.600586
2776.735352	2267.813965
2775.840820	2309.333496
2774.945313	2328.503906
2774.049805	2336.501709
2773.154297	2280.302490
2772.257813	2293.886719
2771.362305	2352.109131
2770.465820	2287.565186
2769.569336	2373.662354
2768.672852	2289.614014
2767.776367	2305.973877
2766.879883	2372.510498
2765.982422	2338.677246
2765.085938	2276.984863
2764.188477	2374.145752
2763.291016	2354.259033
2762.393555	2314.878906
2761.496094	2314.504395
2760.598633	2308.560547
2759.701172	2369.441650
2758.802734	2346.787354
2757.904297	2274.039307
2757.005859	2362.725830
2756.107422	2234.348389
2755.208984	2353.614990
2754.310547	2375.487061
2753.411133	2389.008301
2752.512695	2346.911377
2751.613281	2288.146240
2750.713867	2307.234619
2749.814453	2226.260010
2748.915039	2456.548584
2748.014648	2333.899170
2747.115234	2319.631348
2746.214844	2283.147705
2745.314453	2327.211914
2744.414063	2332.388672
2743.513672	2287.591797
2742.613281	2339.960938
2741.711914	2284.076172
2740.811523	2389.150879
2739.910156	2416.508301
2739.008789	2282.967041
2738.107422	2240.994873
2737.206055	2323.823975
2736.304688	2287.403809
2735.402344	2212.185303
2734.500977	2184.110107
2733.598633	2253.038086
2732.696289	2349.651855
2731.793945	2357.582520
2730.891602	2348.891113
2729.988281	2392.822510
2729.085938	2278.905029
2728.182617	2284.073242
2727.279297	2350.138428
2726.375977	2283.333740
2725.472656	2313.403564
2724.569336	2329.629639
2723.666016	2232.430908
2722.761719	2381.427246
2721.857422	2245.535156
2720.953125	2300.471191
2720.048828	2195.046143
2719.144531	2252.736572
2718.240234	2385.026855
2717.335938	2362.535156
2716.430664	2276.507324
2715.525391	2361.770020
2714.620117	2300.626709
2713.714844	2316.822510
2712.809570	2316.447266
2711.904297	2327.114258
2710.998047	2221.854736
2710.091797	2323.600830
2709.186523	2281.836914
2708.280273	2320.089355
2707.374023	2281.097656
2706.466797	2338.642822
2705.560547	2247.270020
2704.653320	2238.635254
2703.747070	2254.811523
2702.839844	2279.250732
2701.932617	2372.572021
2701.025391	2300.553711
2700.117188	2333.237305
2699.209961	2197.900635
2698.301758	2288.420410
2697.393555	2334.856934
2696.485352	2309.702393
2695.577148	2262.536133
2694.668945	2242.905273
2693.760742	2248.045166
2692.851563	2283.445557
2691.943359	2310.582520
2691.034180	2323.959473
2690.125000	2169.593994
2689.215820	2309.459473
2688.305664	2201.877686
2687.396484	2316.956543
2686.486328	2214.904297
2685.577148	2390.390137
2684.666992	2315.830322
2683.756836	2359.402100
2682.846680	2334.303467
2681.935547	2224.093506
2681.025391	2325.310791
2680.114258	2275.525635
2679.203125	2286.134766
2678.291992	2285.764160
2677.380859	2337.521484
2676.469727	2386.519043
2675.558594	2295.623779
2674.646484	2267.829102
2673.734375	2272.945068
2672.823242	2234.197998
2671.911133	2324.285400
2670.998047	2323.908691
2670.085938	2235.851563
2669.173828	2238.228760
2668.260742	2276.213623
2667.347656	2308.708740
2666.434570	2239.878418
2665.521484	2417.471924
2664.608398	2318.535400
2663.695313	2241.526123
2662.781250	2364.303467
2661.868164	2295.519775
2660.954102	2306.089844
2660.040039	2201.781006
2659.125977	2286.199219
2658.210938	2225.675049
2657.296875	2331.932617
2656.381836	2342.487793
2655.467773	2230.058350
2654.552734	2344.460693
2653.637695	2303.100098
2652.722656	2365.552979
2651.806641	2261.385986
2650.891602	2261.019287
2649.975586	2252.461670
2649.059570	2273.934814
2648.143555	2325.424072
2647.227539	2365.980957
2646.311523	2281.014160
2645.395508	2182.434570
2644.478516	2321.188232
2643.561523	2222.634033
2642.644531	2186.826172
2641.727539	2281.891113
2640.810547	2308.779297
2639.893555	2262.072998
2638.975586	2256.256348
2638.058594	2239.543213
2637.140625	2258.248291
2636.222656	2331.419678
2635.304688	2273.854736
2634.386719	2292.544922
2633.467773	2319.395996
2632.549805	2215.589111
2631.630859	2272.379395
2630.711914	2334.593018
2629.792969	2331.493652
2628.874023	2347.436035
2627.955078	2240.988770
2627.036133	2335.797363
2626.116211	2240.261719
2625.196289	2305.137939
2624.276367	2391.736084
2623.356445	2312.541992
2622.436523	2347.487793
2621.516602	2254.743896
2620.595703	2276.106934
2619.674805	2224.139648
2618.754883	2269.937744
2617.833984	2193.554932
2616.912109	2271.915283
2615.991211	2285.115967
2615.070313	2371.576416
2614.148438	2395.608643
2613.226563	2313.842041
2612.304688	2389.406738
2611.382813	2340.208008
2610.460938	2342.539551
2609.539063	2220.171875
2608.616211	2265.887939
2607.694336	2341.398926
2606.771484	2327.471191
2605.848633	2308.129883
2604.925781	2307.755127
2604.001953	2283.006592
2603.079102	2353.037598
2602.155273	2404.094482
2601.232422	2352.273682
2600.308594	2403.313965
2599.384766	2197.268066
2598.460938	2313.250244
2597.536133	2272.297852
2596.612305	2220.540039
2595.687500	2266.151611
2594.762695	2336.082275
2593.837891	2292.449219
2592.913086	2267.750488
2591.988281	2343.051758
2591.062500	2304.842773
2590.137695	2328.782715
2589.211914	2320.301025
2588.286133	2274.011963
2587.360352	2260.141113
2586.434570	2302.971680
2585.508789	2237.811768
2584.582031	2372.396973
2583.655273	2261.371582
2582.729492	2325.758545
2581.802734	2239.055908
2580.875977	2397.828125
2579.948242	2227.541260
2579.021484	2270.321045
2578.093750	2302.302979
2577.166016	2299.233643
2576.239258	2328.505371
2575.311523	2260.762207
2574.382813	2244.229980
2573.455078	2338.145508
2572.526367	2340.458984
2571.598633	2132.729980
2570.669922	2264.311035
2569.741211	2379.697754
2568.812500	2268.958496
2567.883789	2311.647217
2566.954102	2303.199707
2566.025391	2310.895996
2565.095703	2388.524170
2564.166016	2385.446533
2563.236328	2422.703613
2562.306641	2271.755615
2561.375977	2338.587402
2560.446289	2314.018799
2559.515625	2364.698730
2558.584961	2377.748047
2557.654297	2318.263428
2556.723633	2223.881836
2555.792969	2317.509766
2554.861328	2317.133057
2553.930664	2279.173096
2552.999023	2308.327637
2552.067383	2310.635986
2551.135742	2329.043213
2550.204102	2258.911865
2549.271484	2285.368164
2548.339844	2343.999023
2547.407227	2284.625244
2546.474609	2270.848633
2545.541992	2348.217285
2544.609375	2334.434570
2543.676758	2309.937256
2542.743164	2290.806641
2541.810547	2301.149658
2540.876953	2257.920654
2539.943359	2297.723389
2539.009766	2291.994629
2538.076172	2409.415527
2537.141602	2245.745605
2536.208008	2430.042236
2535.273438	2373.454834
2534.338867	2303.508789
2533.404297	2353.958252
2532.469727	2366.947998
2531.535156	2390.629639
2530.599609	2336.768066
2529.664063	2432.623535
2528.729492	2362.735840
2527.793945	2423.815430
2526.857422	2345.935791
2525.921875	2345.554199
2524.986328	2259.699463
2524.049805	2424.909424
2523.113281	2299.016846
2522.177734	2290.633789
2521.241211	2442.411377
2520.303711	2260.531006
2519.367188	2457.627441
2518.429688	2310.487549
2517.493164	2283.436035
2516.555664	2411.086914
2515.618164	2229.359131
2514.680664	2268.990479
2513.742188	2343.264404
2512.804688	2361.541016
2511.866211	2307.857422
2510.928711	2286.165771
2509.990234	2275.137451
2509.051758	2360.004395
2508.112305	2380.926025
2507.173828	2292.666504
2506.234375	2364.177246
2505.295898	2275.948730
2504.356445	2296.870361
2503.416992	2349.717773
2502.477539	2362.638428
2501.537109	2306.389893
2500.597656	2313.993896
2499.657227	2419.990479
2498.716797	2361.100830
2497.776367	2366.033447
2496.835938	2339.067871
2495.895508	2192.519287
2494.955078	2327.677979
2494.013672	2316.672119
2493.072266	2419.890625
2492.130859	2315.917969
2491.189453	2352.717041
2490.248047	2280.648926
2489.306641	2333.369141
2488.364258	2425.884033
2487.421875	2385.683594
2486.480469	2329.576172
2485.538086	2281.445801
2484.594727	2373.908691
2483.652344	2304.570801
2482.709961	2407.605957
2481.766602	2346.238281
2480.823242	2226.575439
2479.879883	2284.518311
2478.936523	2406.038086
2477.993164	2312.917725
2477.049805	2339.030518
2476.105469	2317.461426
2475.161133	2285.306885
2474.216797	2433.203857
2473.272461	2279.268066
2472.328125	2297.424561
2471.383789	2283.818604
2470.438477	2357.532715
2469.494141	2320.111816
2468.548828	2274.767578
2467.603516	2277.041504
2466.658203	2311.045410
2465.711914	2347.682129
2464.766602	2244.208740
2463.820313	2254.414795
2462.874023	2280.472656
2461.927734	2340.868408
2460.981445	2290.296143
2460.035156	2208.045654
2459.088867	2308.035400
2458.141602	2331.422363
2457.194336	2270.324463
2456.247070	2246.199219
2455.299805	2274.862793
2454.352539	2292.962646
2453.405273	2263.568848
2452.457031	2323.868408
2451.509766	2297.116455
2450.561523	2286.194580
2449.613281	2217.273682
2448.665039	2330.262207
2447.715820	2285.077148
2446.767578	2253.082520
2445.818359	2184.211670
2444.870117	2328.743408
2443.920898	2288.855469
2442.970703	2314.817139
2442.021484	2256.512939
2441.072266	2319.327881
2440.122070	2297.892334
2439.171875	2252.778076
2438.222656	2260.304688
2437.272461	2270.459961
2436.321289	2277.981201
2435.371094	2311.800293
2434.419922	2222.016846
2433.469727	2397.809326
2432.518555	2315.927246
2431.567383	2270.868164
2430.616211	2288.893311
2429.664063	2275.382813
2428.712891	2238.233398
2427.760742	2264.134521
2426.808594	2269.017578
2425.856445	2239.764404
2424.904297	2252.525635
2423.952148	2155.037354
2423.000000	2356.769775
2422.046875	2248.800049
2421.093750	2222.197021
2420.140625	2208.718750
2419.187500	2297.532227
2418.234375	2200.131348
2417.281250	2333.489502
2416.327148	2388.159668
2415.373047	2317.001953
2414.419922	2240.626221
2413.465820	2250.741455
2412.510742	2300.149902
2411.556641	2234.291260
2410.601563	2302.018555
2409.647461	2244.036377
2408.692383	2225.343994
2407.737305	2353.244629
2406.782227	2274.344727
2405.827148	2339.392822
2404.871094	2281.451660
2403.916016	2239.224854
2402.958984	2325.170654
2402.003906	2264.644775
2401.046875	2327.026611
2400.091797	2282.205322
2399.134766	2253.081299
2398.177734	2336.341064
2397.220703	2328.121094
2396.263672	2238.916016
2395.306641	2233.326416
2394.349609	2298.253418
2393.392578	2295.267090
2392.435547	2289.670898
2391.476563	2187.492676
2390.519531	2288.923584
2389.560547	2298.988037
2388.603516	2225.558105
2387.644531	2238.238281
2386.685547	2292.645996
2385.728516	2297.487549
2384.769531	2294.505127
2383.810547	2265.453857
2382.851563	2220.772949
2381.890625	2241.259277
2380.931641	2214.836426
2379.972656	2227.501221
2379.013672	2326.121338
2378.052734	2218.960693
2377.093750	2278.490234
2376.132813	2293.739502
2375.171875	2272.540039
2374.210938	2134.225098
2373.250000	2243.172607
2372.291016	2203.778564
2371.330078	2286.664795
2370.367188	2348.715576
2369.406250	2228.705078
2368.445313	2298.545410
2367.484375	2350.164795
2366.521484	2310.791260
2365.560547	2315.611816
2364.597656	2307.438232
2363.634766	2260.296631
2362.673828	2317.074951
2361.710938	2280.335938
2360.748047	2241.011719
2359.785156	2219.875000
2358.822266	2328.541016
2357.859375	2263.273438
2356.894531	2319.995117
2355.931641	2283.291260
2354.968750	2319.237305
2354.003906	2196.949707
2353.041016	2181.030518
2352.076172	2188.453125
2351.111328	2312.537109
2350.146484	2281.053955
2349.181641	2280.681152
2348.218750	2316.586182
2347.251953	2386.160400
2346.287109	2279.563477
2345.322266	2284.371094
2344.357422	2242.564697
2343.390625	2239.610352
2342.425781	2236.656250
2341.458984	2233.701904
2340.494141	2230.747559
2339.527344	2258.844971
2338.560547	2279.172119
2337.595703	2144.296143
2336.628906	2268.082520
2335.662109	2252.197266
2334.693359	2184.610352
2333.726563	2308.329102
2332.759766	2222.663574
2331.792969	2304.990479
2330.824219	2449.297852
2329.857422	2456.647217
2328.888672	2368.430420
2327.921875	2393.866943
2326.953125	2367.656006
2325.984375	2199.468994
2325.015625	2237.826172
2324.046875	2221.976074
2323.078125	2265.477539
2322.109375	2283.166016
2321.140625	2151.241943
2320.169922	2230.839355
2319.201172	2238.210449
2318.230469	2235.266113
2317.261719	2276.144531
2316.291016	2193.298096
2315.320313	2270.246338
2314.351563	2246.686768
2313.380859	2228.286865
2312.410156	2225.346924
2311.439453	2284.212891
2310.468750	2252.941650
2309.496094	2304.060547
2308.525391	2231.613281
2307.554688	2118.012939
2306.582031	2225.737061
2305.611328	2227.945557
2304.638672	2302.177002
2303.666016	2186.067383
2302.695313	2180.566895
2301.722656	2275.337158
2300.750000	2174.712402
2299.777344	2254.031494
2298.804688	2199.698242
2297.832031	2076.010986
2296.857422	2211.822998
2295.884766	2255.125244
2294.912109	2259.892334
2293.937500	2205.602051
2292.962891	2233.480713
2291.990234	2186.912842
2291.015625	2276.378174
2290.041016	2140.009766
2289.066406	2211.494629
2288.091797	2134.179199
2287.117188	2269.759033
2286.142578	2251.437500
2285.167969	2186.972656
2284.191406	2240.447021
2283.216797	2283.651611
2282.240234	2180.773682
2281.265625	2270.093262
2280.289063	2208.239258
2279.314453	2172.019043
2278.337891	2268.978516
2277.361328	2214.836426
2276.384766	2275.916016
2275.408203	2272.983643
2274.431641	2277.730225
2273.453125	2121.268555
2272.476563	2200.232178
2271.500000	2133.364014
2270.521484	2202.069092
2269.544922	2275.865967
2268.566406	2326.628174
2267.587891	2236.776123
2266.609375	2221.074463
2265.632813	2210.488770
2264.654297	2159.025635
2263.675781	2189.327881
2262.695313	2058.703857
2261.716797	2244.794434
2260.738281	2244.426758
2259.759766	2172.576172
2258.779297	2330.478271
2257.800781	2332.648926
2256.820313	2222.542969
2255.839844	2255.345947
2254.859375	2260.078125
2253.880859	2308.166748
2252.900391	2249.137695
2251.919922	2251.318848
2250.937500	2136.235596
2249.957031	2181.763916
2248.976563	2120.245605
2247.996094	2224.364258
2247.013672	2147.573730
2246.033203	2165.051758
2245.050781	2215.631104
2244.068359	2202.536621
2243.087891	2181.808838
2242.105469	2262.905762
2241.123047	2048.751953
2240.140625	2213.816406
2239.158203	2104.052979
2238.173828	2146.952637
2237.191406	2187.294434
2236.208984	2219.994385
2235.224609	2161.152344
2234.242188	2308.240723
2233.257813	2254.486816
2232.275391	2185.502686
2231.291016	2235.961670
2230.306641	2309.268311
2229.322266	2090.447021
2228.337891	2311.051025
2227.353516	2209.104004
2226.369141	2229.052246
2225.384766	2271.839111
2224.398438	2169.948486
2223.414063	2184.817871
2222.427734	2186.996826
2221.443359	2275.422852
2220.457031	2269.977295
2219.470703	2142.811523
2218.484375	2269.232910
2217.498047	2159.854248
2216.511719	2139.222900
2215.525391	2225.035400
2214.539063	2212.001465
2213.552734	2198.971924
2212.566406	2231.539795
2211.578125	2180.522705
2210.591797	2271.322021
2209.603516	2167.149170
2208.615234	2202.231934
2207.628906	2143.660156
2206.640625	2224.283691
2205.652344	2211.268555
2204.664063	2142.605469
2203.675781	2245.952393
2202.687500	2232.939941
2201.697266	2209.818115
2200.708984	2285.294922
2199.720703	2214.148193
2198.730469	2127.861816
2197.742188	2306.910889
2196.751953	2197.900635
2195.761719	2202.591797
2194.771484	2144.144043
2193.781250	2242.270264
2192.791016	2211.606445
2191.800781	2196.098145
2190.810547	2190.689941
2189.820313	2253.416016
2188.830078	2187.447998
2187.837891	2197.179443
2186.847656	2224.562744
2185.855469	2246.893555
2184.863281	2198.619141
2183.873047	2241.114258
2182.880859	2223.102783
2181.888672	2268.099854
2180.896484	2199.695801
2179.904297	2176.661133
2178.912109	2249.351074
2177.917969	2206.168213
2176.925781	2170.553223
2175.933594	2165.161865
2174.939453	2212.633301
2173.947266	2199.686035
2172.953125	2169.128418
2171.958984	2254.315430
2170.964844	2231.305176
2169.970703	2160.514648
2168.976563	2268.293701
2167.982422	2315.693359
2166.988281	2300.229492
2165.994141	2249.581787
2165.000000	2226.594727
2164.003906	2294.071289
2163.009766	2228.375732
2162.013672	2268.199219
2161.017578	2275.361084
2160.023438	2269.965332
2159.027344	2186.742432
2158.031250	2141.199707
2157.035156	2273.866699
2156.039063	2215.777588
2155.042969	2365.951172
2154.044922	2247.660645
2153.048828	2172.047363
2152.052734	2269.491943
2151.054688	2206.436279
2150.058594	2196.046143
2149.060547	2243.308594
2148.062500	2177.781982
2147.064453	2257.605469
2146.066406	2054.309082
2145.068359	2216.786377
2144.070313	2311.590332
2143.072266	2258.626221
2142.074219	2318.341553
2141.074219	2290.425537
2140.076172	2315.076904
2139.078125	2247.132324
2138.078125	2216.739502
2137.078125	2273.910889
2136.078125	2211.008789
2135.080078	2295.670166
2134.080078	2307.794434
2133.080078	2274.916260
2132.080078	2242.048828
2131.078125	2126.722412
2130.078125	2216.325195
2129.078125	2205.967773
2128.076172	2240.574951
2127.076172	2245.201660
2126.074219	2329.731689
2125.074219	2194.531006
2124.072266	2264.063965
2123.070313	2218.767334
2122.068359	2185.962646
2121.066406	2280.412354
2120.064453	2147.825195
2119.062500	2189.872803
2118.058594	2234.400146
2117.056641	2199.125977
2116.052734	2271.059326
2115.050781	2283.148438
2114.046875	2287.757080
2113.044922	2347.181641
2112.041016	2294.478516
2111.037109	2269.192383
2110.033203	2238.933594
2109.029297	2246.035400
2108.025391	2175.955811
2107.021484	2252.764404
2106.015625	2207.594727
2105.011719	2264.465332
2104.005859	2256.628906
2103.001953	2253.770020
2101.996094	2188.732178
2100.992188	2213.239990
2099.986328	2255.144287
2098.980469	2277.146973
2097.974609	2246.945557
2096.968750	2331.070801
2095.962891	2362.989014
2094.955078	2260.742432
2093.949219	2228.079590
2092.943359	2332.020508
2091.935547	2259.626709
2090.929688	2251.806641
2089.921875	2286.188232
2088.914063	2238.656250
2087.906250	2268.065430
2086.900391	2294.983887
2085.892578	2190.418457
2084.882813	2247.103760
2083.875000	2266.572510
2082.867188	2246.364014
2081.859375	2245.994141
2080.849609	2322.461426
2079.841797	2304.731689
2078.832031	2217.629395
2077.824219	2266.812256
2076.814453	2256.531006
2075.804688	2256.159424
2074.794922	2226.073975
2073.785156	2230.658936
2072.775391	2299.601563
2071.765625	2168.051025
2070.753906	2232.031738
2069.744141	2315.784668
2068.734375	2233.770508
2067.722656	2221.036133
2066.712891	2228.089111
2065.701172	2277.172119
2064.689453	2158.136719
2063.677734	2261.592041
2062.666016	2248.863037
2061.654297	2260.847168
2060.642578	2295.061279
2059.630859	2094.608398
2058.619141	2232.563965
2057.605469	2291.458008
2056.593750	2189.858154
2055.580078	2204.308105
2054.568359	2166.924561
2053.554688	2238.128418
2052.541016	2227.890869
2051.527344	2185.588135
2050.513672	2197.560059
2049.500000	2271.177734
2048.486328	2142.593018
2047.472656	2211.264893
2046.457031	2284.843750
2045.443359	2262.287842
2044.429688	2205.244141
2043.414063	2256.615234
2042.398438	2179.885742
2041.384766	2162.287354
2040.369141	2309.671143
2039.353516	2267.437744
2038.337891	2377.832520
2037.322266	2298.684814
2036.306641	2251.552246
2035.289063	2263.482666
2034.273438	2172.093262
2033.257813	2351.278320
2032.240234	2141.868164
2031.222656	2195.605957
2030.207031	2313.241455
2029.189453	2263.702637
2028.171875	2226.467285
2027.154297	2294.898193
2026.136719	2191.340088
2025.119141	2272.035156
2024.101563	2301.130615
2023.082031	2290.929443
2022.064453	2342.107422
2021.046875	2130.622803
2020.027344	2176.901611
2019.007813	2272.241943
2017.990234	2195.811035
2016.970703	2215.072998
2015.951172	2158.297607
2014.931641	2211.890137
2013.912109	2277.724121
2012.892578	2203.806396
2011.873047	2240.207764
2010.851563	2185.925293
2009.832031	2244.369141
2008.810547	2263.597168
2007.791016	2216.685547
2006.769531	2221.217773
2005.748047	2213.505615
2004.728516	2193.555176
2003.707031	2266.625977
2002.685547	2141.436768
2001.662109	2136.189697
2000.640625	2079.566406
1999.619141	2177.069092
1998.597656	2232.961914
1997.574219	2237.484131
1996.552734	2200.440918
1995.529297	2261.190918
1994.505859	2185.049805
1993.484375	2221.344971
1992.460938	2242.968262
1991.437500	2220.611816
1990.414063	2249.555420
1989.390625	2285.815918
1988.365234	2263.463135
1987.341797	2228.911377
1986.318359	2130.907227
1985.292969	2228.175537
1984.269531	2237.567871
1983.244141	2225.000000
1982.218750	2144.136230
1981.193359	2099.882080
1980.167969	2221.459717
1979.142578	2264.978516
1978.117188	2176.847900
1977.091797	2230.108643
1976.066406	2178.565918
1975.041016	2173.333252
1974.013672	2124.252930
1972.988281	2165.308594
1971.960938	2189.303467
1970.933594	2142.679688
1969.906250	2169.104736
1968.880859	2122.499268
1967.853516	2165.954590
1966.826172	2206.962158
1965.796875	2209.030518
1964.769531	2121.097412
1963.742188	2186.412354
1962.714844	2069.332031
1961.685547	2156.515137
1960.658203	2131.850342
1959.628906	2061.015381
1958.599609	2082.545166
1957.570313	2201.253418
1956.541016	2145.017090
1955.511719	2142.233887
1954.482422	2127.309326
1953.453125	2136.669922
1952.423828	2097.474854
1951.394531	2145.672852
1950.363281	2060.379150
1949.333984	2242.020752
1948.302734	2110.644775
1947.271484	2134.552246
1946.240234	2168.152588
1945.210938	2114.447998
1944.179688	2196.529053
1943.148438	2142.837402
1942.115234	2166.719482
1941.083984	2125.166504
1940.052734	2141.774902
1939.021484	2124.463867
1937.988281	2116.846680
1936.955078	2118.918213
1935.923828	2096.776855
1934.890625	2035.909790
1933.857422	2052.516113
1932.824219	2144.137451
1931.791016	2109.908203
1930.757813	2165.201416
1929.724609	2147.911621
1928.691406	2048.401123
1927.656250	2164.127441
1926.623047	2212.121826
1925.587891	2146.491211
1924.554688	2078.465088
1923.519531	2201.358887
1922.484375	2164.754395
1921.449219	2222.371338
1920.414063	2127.810059
1919.378906	2175.754395
1918.343750	2117.448486
1917.308594	2184.690674
1916.273438	2114.334229
1915.236328	2155.009277
1914.201172	2089.506592
1913.164063	2192.895020
1912.126953	2124.995605
1911.091797	2112.585693
1910.054688	2090.535156
1909.017578	2160.103271
1907.980469	2186.260498
1906.943359	2161.798584
1905.906250	2137.344482
1904.867188	2083.987549
1903.830078	2163.134277
1902.791016	2218.170410
1901.753906	2119.073730
1900.714844	2229.474365
1899.677734	2164.109863
1898.638672	2185.413086
1897.599609	2120.077393
1896.560547	2148.599121
1895.521484	2186.733643
1894.482422	2208.019043
1893.441406	2181.200195
1892.402344	2202.479004
1891.363281	2194.902344
1890.322266	2199.346191
1889.281250	2131.690674
1888.242188	2246.675049
1887.201172	2215.071045
1886.160156	2209.900146
1885.119141	2207.132568
1884.078125	2233.181152
1883.037109	2115.168457
1881.996094	2215.638184
1880.953125	2155.269287
1879.912109	2169.310547
1878.869141	2216.936768
1877.828125	2048.647705
1876.785156	2175.428223
1875.742188	2235.020020
1874.701172	2174.707520
1873.658203	2200.717529
1872.615234	2092.492676
1871.572266	2156.851563
1870.527344	2190.039551
1869.484375	2067.495605
1868.441406	2107.873535
1867.396484	2129.078369
1866.353516	2107.175049
1865.308594	2123.584717
1864.263672	2116.051758
1863.218750	2060.654541
1862.175781	2153.637451
1861.130859	2217.878906
1860.083984	2119.433594
1859.039063	2111.907227
1857.994141	2180.906250
1856.949219	2178.153809
1855.902344	2125.200684
1854.857422	2170.261475
1853.810547	2227.255859
1852.763672	2102.639893
1851.718750	2111.847168
1850.671875	2109.108398
1849.625000	2230.555908
1848.578125	2058.265869
1847.529297	2179.681152
1846.482422	2093.388184
1845.435547	2093.041260
1844.388672	2073.604736
1843.339844	2092.347168
1842.291016	2177.874756
1841.244141	2105.963379
1840.195313	2053.152832
1839.146484	2152.949463
1838.097656	2133.521729
1837.048828	2080.732666
1836.000000	2097.068848
1834.951172	2060.981445
1833.900391	2117.813477
1832.851563	2134.135010
1831.802734	2117.110840
1830.751953	2147.713379
1829.701172	2037.846680
1828.652344	2147.000977
1827.601563	2053.829834
1826.550781	2058.248047
1825.500000	2119.762695
1824.449219	2062.322510
1823.396484	2081.006836
1822.345703	2071.149902
1821.294922	2142.131348
1820.242188	2077.593994
1819.191406	2015.454590
1818.138672	2065.022949
1817.085938	2093.191406
1816.035156	2083.341797
1814.982422	2166.125977
1813.929688	2092.149414
1812.875000	2098.925293
1811.822266	2105.698730
1810.769531	2031.768799
1809.716797	2050.416992
1808.662109	2073.804199
1807.609375	2030.757202
1806.554688	2047.024048
1805.500000	2058.542236
1804.447266	2074.798828
1803.392578	2057.858643
1802.337891	2055.146729
1801.283203	1974.224854
1800.226563	2044.985840
1799.171875	2141.784668
1798.117188	2207.756592
1797.060547	2141.073486
1796.005859	2159.662354
1794.949219	2017.244385
1793.892578	2061.887451
1792.837891	2130.184326
1791.781250	2068.302002
1790.724609	2075.056641
1789.667969	2155.145752
1788.611328	2060.175781
1787.552734	2059.833496
1786.496094	2109.146240
1785.439453	2113.524170
1784.380859	2101.354248
1783.322266	2141.181885
1782.265625	2079.389648
1781.207031	2083.769287
1780.148438	2062.163818
1779.089844	2099.609375
1778.031250	2113.428711
1776.972656	2037.526245
1775.914063	1994.697144
1774.853516	2110.015381
1773.794922	2107.304932
1772.734375	2095.157715
1771.675781	2097.168457
1770.615234	2139.275146
1769.554688	2122.412109
1768.494141	2077.260254
1767.435547	2135.851318
1766.373047	2029.428589
1765.312500	2113.931396
1764.251953	2068.810791
1763.191406	2094.381592
1762.128906	2185.897705
1761.068359	2093.685303
1760.005859	2029.760010
1758.945313	2078.863281
1757.882813	2050.270508
1756.820313	2122.889160
1755.757813	2087.239014
1754.695313	2075.128418
1753.632813	2114.773438
1752.570313	2109.717773
1751.505859	2076.444824
1750.443359	2118.420898
1749.378906	2033.439941
1748.316406	2063.656982
1747.251953	2107.964111
1746.187500	2046.523315
1745.125000	2097.866211
1744.060547	2102.214844
1742.996094	2099.516602
1741.929688	2148.476807
1740.865234	2065.950928
1739.800781	2058.565430
1738.734375	2098.120117
1737.669922	2043.801514
1736.603516	2078.653076
1735.539063	2176.827393
1734.472656	2077.961426
1733.406250	2110.444824
1732.339844	2128.850098
1731.273438	2119.119385
1730.207031	2228.923828
1729.140625	2111.384033
1728.072266	2017.312988
1727.005859	2248.894531
1725.939453	2007.272827
1724.871094	2128.713379
1723.802734	2118.993164
1722.736328	2186.530762
1721.667969	2101.903320
1720.599609	2174.101563
1719.531250	2171.399902
1718.462891	2168.698975
1717.392578	2184.711426
1716.324219	2135.235107
1715.255859	2123.187988
1714.185547	2153.227539
1713.117188	2115.468506
1712.046875	2122.127686
1710.976563	2212.907715
1709.906250	2114.411865
1708.835938	2174.795166
1707.765625	2153.412842
1706.695313	2262.808594
1705.625000	2110.668945
1704.554688	2033.281616
1703.482422	2077.289551
1702.412109	2107.281006
1701.339844	2200.260254
1700.267578	2171.899414
1699.197266	2199.527344
1698.125000	2248.134766
1697.052734	2135.838623
1695.980469	2091.187988
1694.908203	2151.443604
1693.833984	2095.152344
1692.761719	2153.056885
1691.689453	2108.432617
1690.615234	2129.045898
1689.542969	2124.032959
1688.468750	2160.936768
1687.394531	2123.325195
1686.320313	2092.709717
1685.246094	2122.617676
1684.171875	2122.263916
1683.097656	2140.523438
1682.023438	2172.734375
1680.947266	2121.202881
1679.873047	2195.265137
1678.798828	2025.166626
1677.722656	2115.493164
1676.646484	2133.735107
1675.570313	2091.548340
1674.496094	2188.789063
1673.419922	2139.637695
1672.343750	2192.704834
1671.265625	2180.727295
1670.189453	2122.313477
1669.113281	2133.567871
1668.035156	2119.284668
1666.958984	2130.535645
1665.880859	2164.987061
1664.804688	2238.868408
1663.726563	2134.109131
1662.648438	2038.662109
1661.570313	2121.802979
1660.492188	2153.908447
1659.414063	2174.412354
1658.333984	2185.638428
1657.255859	2138.926514
1656.177734	2150.154785
1655.097656	2207.710938
1654.017578	2063.737793
1652.939453	2065.709473
1651.859375	1998.217285
1650.779297	2097.430908
1649.699219	2069.304932
1648.619141	2103.673828
1647.539063	2075.556152
1646.457031	2167.750000
1645.376953	2086.429199
1644.296875	2192.466553
1643.214844	2088.045410
1642.132813	2129.312012
1641.052734	2152.072510
1639.970703	2156.335693
1638.888672	2091.273438
1637.806641	2127.890869
1636.724609	2118.295654
1635.642578	2032.485352
1634.558594	2089.877441
1633.476563	2057.204346
1632.392578	2054.552490
1631.310547	2111.912109
1630.226563	2076.943848
1629.142578	2016.606445
1628.060547	2004.734985
1626.976563	2085.129883
1625.892578	2024.821167
1624.806641	2070.598877
1623.722656	2072.558594
1622.638672	2076.822510
1621.554688	1998.118164
1620.468750	2122.213867
1619.382813	2105.732422
1618.298828	2093.863281
1617.212891	2017.511475
1616.126953	2100.072021
1615.041016	2069.791016
1613.955078	1972.763794
1612.869141	2046.084106
1611.783203	2036.537598
1610.695313	1999.384766
1609.609375	2040.458130
1608.521484	2007.916870
1607.435547	2140.960205
1606.347656	2055.530273
1605.259766	2043.692505
1604.171875	2041.052612
1603.085938	2063.692627
1601.996094	2010.500244
1600.908203	2017.056274
1599.820313	2009.828369
1598.732422	2041.644287
1597.642578	2011.452759
1596.554688	2038.666138
1595.464844	2010.780518
1594.375000	2003.559326
1593.285156	1989.456543
1592.197266	2092.365723
1591.107422	2080.546631
1590.015625	2006.807007
1588.925781	1988.126587
1587.835938	2107.016113
1586.746094	2111.248535
1585.654297	2120.063477
1584.564453	2089.918457
1583.472656	2007.085938
1582.380859	2148.780762
1581.289063	2088.870117
1580.197266	2150.352051
1579.105469	2058.406006
1578.013672	2149.633057
1576.921875	2021.095337
1575.830078	2142.048584
1574.736328	2107.368164
1573.644531	2129.893311
1572.550781	2207.307373
1571.457031	2108.597900
1570.365234	2092.239014
1569.271484	2128.468506
1568.177734	2128.112549
1567.083984	2162.038330
1565.990234	2157.106445
1564.894531	2161.314941
1563.800781	2197.502197
1562.707031	2176.579102
1561.611328	2194.483398
1560.515625	2057.126465
1559.421875	2214.293945
1558.326172	2134.039551
1557.230469	2158.784668
1556.134766	2210.900879
1555.039063	2192.280762
1553.943359	2159.981689
1552.845703	2239.437256
1551.750000	2159.258789
1550.654297	2115.582520
1549.556641	2103.831787
1548.458984	2174.127197
1547.363281	2258.070801
1546.265625	2166.564941
1545.167969	2198.091553
1544.070313	2111.181152
1542.972656	2151.814453
1541.873047	2174.220947
1540.775391	2155.646484
1539.677734	2182.596436
1538.578125	2120.791748
1537.480469	2156.839111
1536.380859	2151.928223
1535.281250	2071.964355
1534.181641	2185.317627
1533.082031	2157.668213
1531.982422	2070.923584
1530.882813	2252.405518
1529.783203	2190.671387
1528.681641	2101.692383
1527.582031	2210.382813
1526.480469	2125.973145
1525.380859	2043.862427
1524.279297	2195.648682
1523.177734	2163.498047
1522.076172	2079.152344
1520.974609	2094.690186
1519.873047	2085.262939
1518.771484	2123.480957
1517.669922	2034.661621
1516.566406	2134.108887
1515.464844	2049.852539
1514.361328	2076.714844
1513.257813	2096.767822
1512.156250	1998.961304
1511.052734	2105.128906
1509.949219	2141.026367
1508.845703	2036.465698
1507.742188	2160.692627
1506.636719	2078.808350
1505.533203	2116.949951
1504.429688	2060.001709
1503.324219	2089.079834
1502.218750	2088.729736
1501.115234	2063.490967
1500.009766	2126.487061
1498.904297	2076.369873
1497.798828	1983.301880
1496.693359	2053.062744
1495.587891	2032.372192
1494.480469	2022.990112
1493.375000	1988.751709
1492.269531	2047.166870
1491.162109	2044.564331
1490.054688	2030.668579
1488.949219	2059.687500
1487.841797	2009.664917
1486.734375	2049.965820
1485.626953	2011.248047
1484.519531	1970.286133
1483.410156	2109.860840
1482.302734	2082.432861
1481.195313	2030.200684
1480.085938	2065.946533
1478.976563	2142.270508
1477.869141	1981.831421
1476.759766	2053.635254
1475.650391	1972.150757
1474.541016	1985.340942
1473.431641	1966.982666
1472.322266	2099.564941
1471.210938	2110.474365
1470.101563	2033.552368
1468.990234	2035.462646
1467.880859	1985.593750
1466.769531	2070.793213
1465.658203	2025.435913
1464.548828	2040.846680
1463.437500	2029.255371
1462.326172	2046.909546
1461.212891	1985.843506
1460.101563	2003.498901
1458.990234	2048.126953
1457.876953	2108.474609
1456.765625	2022.717041
1455.652344	2013.389038
1454.541016	2015.297607
1453.427734	2055.393066
1452.314453	2104.458984
1451.201172	2005.300171
1450.087891	1908.419800
1448.972656	2062.991943
1447.859375	2156.912109
1446.746094	2073.519287
1445.630859	2026.053589
1444.517578	2039.173096
1443.402344	2043.316406
1442.287109	2007.092163
1441.171875	2053.840820
1440.056641	2044.528564
1438.941406	2147.290771
1437.826172	2093.144775
1436.710938	2036.776123
1435.595703	2056.596436
1434.478516	2036.091675
1433.363281	2116.373291
1432.246094	2116.017578
1431.128906	2061.930908
1430.011719	2007.862183
1428.894531	2023.191040
1427.777344	2154.873291
1426.660156	1930.782104
1425.542969	1993.091064
1424.425781	2053.142578
1423.306641	2090.812256
1422.189453	2101.639648
1421.070313	2052.107422
1419.953125	2027.176880
1418.833984	2060.355957
1417.714844	1968.403931
1416.595703	2035.090210
1415.476563	2086.119141
1414.357422	2072.369629
1413.236328	2083.184814
1412.117188	2056.045654
1410.998047	2071.324219
1409.876953	1950.466431
1408.755859	2066.165039
1407.636719	2039.046509
1406.515625	1996.323486
1405.394531	2033.900391
1404.273438	2078.153809
1403.152344	2086.721924
1402.029297	2066.309570
1400.908203	2028.074829
1399.787109	2029.961792
1398.664063	2038.531982
1397.541016	1953.542847
1396.419922	2035.618896
1395.296875	2066.451172
1394.173828	1974.820923
1393.050781	2025.687256
1391.927734	1940.771484
1390.804688	1998.302124
1389.679688	2015.765137
1388.556641	1957.588013
1387.431641	2026.207397
1386.308594	1916.901001
1385.183594	1972.163574
1384.058594	2069.645020
1382.933594	2009.284912
1381.808594	1988.946045
1380.683594	1935.285278
1379.558594	1926.073364
1378.433594	1870.219971
1377.308594	2014.256348
1376.181641	2027.239746
1375.054688	2009.138062
1373.929688	1973.285034
1372.802734	1939.663330
1371.675781	2045.844849
1370.548828	1967.851196
1369.421875	1998.574219
1368.294922	1962.752808
1367.167969	1982.379028
1366.039063	2075.161377
1364.912109	2017.178223
1363.783203	2007.973145
1362.656250	1958.884399
1361.527344	1982.925537
1360.398438	2013.604126
1359.269531	1980.042603
1358.140625	1948.706909
1357.011719	2001.516113
1355.882813	2052.093750
1354.753906	2047.321411
1353.623047	2051.402344
1352.494141	2042.206421
1351.363281	2050.710938
1350.232422	2014.976196
1349.103516	2001.367798
1347.972656	2056.307617
1346.841797	2025.011108
1345.710938	1982.673340
1344.578125	2030.958374
1343.447266	1997.472168
1342.316406	2105.387207
1341.183594	2025.513794
1340.052734	2003.087524
1338.919922	2049.119873
1337.787109	2000.204468
1336.654297	2028.562866
1335.521484	2072.360596
1334.388672	2027.878784
1333.255859	1994.443237
1332.123047	2080.135742
1330.988281	1995.976074
1329.855469	2079.434326
1328.720703	2034.988525
1327.587891	2061.097900
1326.453125	1994.629883
1325.318359	2049.384521
1324.183594	2055.648438
1323.048828	2035.475708
1321.914063	2090.195557
1320.779297	2059.012695
1319.642578	2014.629761
1318.507813	1996.678589
1317.371094	1989.738525
1316.236328	2026.814209
1315.099609	2127.685791
1313.962891	2004.130981
1312.826172	2014.790527
1311.689453	2124.409668
1310.552734	1974.531982
1309.416016	2013.770752
1308.279297	1903.527466
1307.140625	2010.893311
1306.003906	2030.329834
1304.865234	2069.532471
1303.726563	1994.499146
1302.587891	2053.460205
1301.451172	1982.846558
1300.310547	2048.375977
1299.171875	2054.615479
1298.033203	2043.295044
1296.894531	1981.507935
1295.753906	2016.277222
1294.615234	2002.775024
1293.474609	2050.688232
1292.335938	2041.570557
1291.195313	1984.220459
1290.054688	2018.959595
1288.914063	2020.810425
1287.773438	2018.277710
1286.632813	2055.184326
1285.490234	2076.743652
1284.349609	2043.538696
1283.207031	1964.356445
1282.066406	1950.887329
1280.923828	2011.854736
1279.781250	1877.997559
1278.638672	2048.378418
1277.496094	1912.372070
1276.353516	2095.815674
1275.210938	2062.651611
1274.068359	2003.255249
1272.923828	1987.610596
1271.781250	1967.598755
1270.636719	1919.177490
1269.494141	1960.377319
1268.349609	1990.637573
1267.205078	1946.606201
1266.060547	2005.255371
1264.916016	1932.844238
1263.771484	1989.291992
1262.626953	2002.055420
1261.480469	1999.534058
1260.335938	2049.394043
1259.189453	2068.687012
1258.042969	2024.701538
1256.898438	1939.283813
1255.751953	1945.499023
1254.605469	2001.867920
1253.458984	1975.365601
1252.312500	2042.609863
1251.164063	1963.799683
1250.017578	1987.438843
1248.869141	1926.095215
1247.722656	2093.511719
1246.574219	1990.786865
1245.425781	2014.405151
1244.279297	2053.257080
1243.130859	2042.024780
1241.982422	1991.616821
1240.832031	2097.916748
1239.683594	2012.702026
1238.535156	2090.680420
1237.384766	2085.976318
1236.236328	2126.944336
1235.085938	2035.258789
1233.935547	2117.528564
1232.785156	2119.343750
1231.636719	2062.479004
1230.484375	2051.265137
1229.333984	2192.135986
1228.183594	2167.870605
1227.033203	2119.722900
1225.880859	2106.335205
1224.730469	2101.636475
1223.578125	2175.086182
1222.425781	2061.858398
1221.273438	2102.739502
1220.121094	2178.321045
1218.968750	2112.874023
1217.816406	2184.090088
1216.664063	2118.664063
1215.511719	2066.269287
1214.357422	2219.833740
1213.205078	2173.941406
1212.050781	2151.902588
1210.896484	2201.372559
1209.742188	2216.164063
1208.587891	2246.112305
1207.433594	2215.413330
1206.279297	2154.411621
1205.125000	2268.784668
1203.968750	2311.690430
1202.814453	2146.824463
1201.658203	2263.304443
1200.503906	2221.816406
1199.347656	2262.537598
1198.191406	2298.919678
1197.035156	2242.310303
1195.878906	2192.205811
1194.722656	2155.087646
1193.566406	2258.460205
1192.408203	2309.937744
1191.251953	2208.004150
1190.093750	2300.514404
1188.937500	2276.367432
1187.779297	2306.212891
1186.621094	2269.118896
1185.462891	2320.541748
1184.304688	2270.508057
1183.146484	2300.333740
1181.988281	2381.930664
1180.828125	2267.196289
1179.669922	2322.889160
1178.509766	2382.875732
1177.351563	2291.916260
1176.191406	2343.264893
1175.031250	2375.197998
1173.871094	2370.485107
1172.710938	2357.155518
1171.550781	2410.612061
1170.388672	2360.663818
1169.228516	2431.329834
1168.068359	2400.773193
1166.906250	2415.435547
1165.744141	2361.215088
1164.583984	2406.008057
1163.421875	2431.420166
1162.259766	2420.251221
1161.097656	2426.293457
1159.933594	2481.797607
1158.771484	2386.765869
1157.609375	2446.557373
1156.445313	2358.012451
1155.283203	2460.771240
1154.119141	2559.197754
1152.955078	2425.561523
1151.791016	2496.035645
1150.626953	2474.135254
1149.462891	2544.576904
1148.298828	2544.145020
1147.134766	2500.781494
1145.968750	2489.625732
1144.804688	2480.619629
1143.638672	2596.055664
1142.474609	2634.227539
1141.308594	2586.595215
1140.142578	2652.632813
1138.976563	2643.606201
1137.810547	2583.134277
1136.644531	2623.418701
1135.476563	2665.832275
1134.310547	2774.651611
1133.142578	2731.335938
1131.976563	2807.979248
1130.808594	2741.115967
1129.640625	2712.815674
1128.472656	2765.874023
1127.304688	2784.667969
1126.136719	2752.094482
1124.968750	2749.487305
1123.800781	2830.314209
1122.630859	2761.386963
1121.462891	2735.254639
1120.292969	2871.636475
1119.123047	2811.288330
1117.953125	2827.910645
1116.785156	2912.915771
1115.613281	2818.402832
1114.443359	2775.195557
1113.273438	2770.451904
1112.103516	2836.187256
1110.931641	2931.794678
1109.761719	2856.572998
1108.589844	3001.239990
1107.417969	2945.239746
1106.248047	3032.227783
1105.076172	3016.777832
1103.904297	2969.335693
1102.730469	3062.673340
1101.558594	2974.723633
1100.386719	3080.820557
1099.212891	3139.984131
1098.041016	3094.692383
1096.867188	3123.999756
1095.693359	3202.301025
1094.519531	3180.454102
1093.345703	3152.224609
1092.171875	3149.559082
1090.998047	3083.019531
1089.824219	3265.571777
1088.650391	3120.282715
1087.474609	3217.643311
1086.298828	3300.076660
1085.125000	3393.118652
1083.949219	3296.827148
1082.773438	3385.584473
1081.597656	3261.685303
1080.421875	3288.767090
1079.246094	3364.726807
1078.070313	3372.655029
1076.892578	3471.947510
1075.716797	3358.760742
1074.539063	3377.305908
1073.361328	3414.958496
1072.183594	3380.403320
1071.007813	3460.502197
1069.830078	3430.196289
1068.650391	3537.849121
1067.472656	3594.538818
1066.294922	3606.656250
1065.115234	3569.981934
1063.937500	3537.561523
1062.757813	3577.248535
1061.578125	3705.966553
1060.400391	3573.910645
1059.220703	3615.690186
1058.041016	3657.455322
1056.861328	3747.935547
1055.679688	3673.156250
1054.500000	3765.720703
1053.318359	3849.783203
1052.138672	3688.218018
1050.957031	3725.693359
1049.775391	3919.777832
1048.595703	3764.631348
1047.414063	3960.758545
1046.232422	3856.427734
1045.048828	3931.913330
1043.867188	3927.014160
1042.685547	3905.201660
1041.501953	3887.624268
1040.320313	4026.461426
1039.136719	3945.471191
1037.953125	3972.266846
1036.769531	4056.091797
1035.585938	3960.352295
1034.402344	3972.348389
1033.218750	4123.696777
1032.035156	4188.438477
1030.849609	4101.184082
1029.666016	4104.705566
1028.480469	4038.595215
1027.294922	3983.055420
1026.109375	4146.902832
1024.923828	4139.868652
1023.738281	4191.877930
1022.552734	4132.132813
1021.367188	4224.174805
1020.181641	4210.809570
1018.994141	4252.234375
1017.808594	4240.975586
1016.621094	4263.422852
1015.433594	4205.832031
1014.246094	4230.383301
1013.058594	4246.504883
1011.871094	4245.780273
1010.683594	4270.312012
1009.496094	4334.816406
1008.306641	4275.166992
1007.119141	4240.780762
1005.929688	4240.057617
1004.742188	4285.596680
1003.552734	4389.989746
1002.363281	4284.134277
1001.173828	4228.757324
999.984375	4423.467285
998.794922	4376.489258
997.603516	4300.117676
996.414063	4232.172852
995.222656	4349.049316
994.033203	4371.402832
992.841797	4288.785645
991.650391	4277.559570
990.458984	4207.577148
989.267578	4232.037598
988.076172	4313.130371
986.884766	4295.614258
985.691406	4265.521484
984.500000	4237.535156
983.306641	4278.739746
982.115234	4292.681641
980.921875	4315.000977
979.728516	4196.926270
978.535156	4284.198242
977.341797	4182.925293
976.148438	4280.640625
974.953125	4185.684570
973.759766	4285.459473
972.564453	4232.397949
971.371094	4154.241211
970.175781	4207.935547
968.980469	4209.308594
967.785156	4158.387695
966.589844	4134.672363
965.394531	4194.605469
964.199219	4193.889160
963.003906	4124.191895
961.806641	4186.186035
960.611328	4087.259766
959.414063	4161.773926
958.216797	4171.507324
957.019531	4135.289551
955.822266	4021.821533
954.625000	4219.476563
953.427734	4135.257324
952.230469	4107.417969
951.031250	4250.701172
949.833984	4070.545410
948.634766	4149.118652
947.437500	3906.470947
946.238281	4201.918457
945.039063	4065.677734
943.839844	4083.743896
942.640625	4108.056641
941.439453	3973.985107
940.240234	4129.570801
939.041016	4035.121582
937.839844	4059.425537
936.638672	4012.916992
935.439453	3993.491699
934.238281	4061.506592
933.037109	3948.416260
931.835938	3966.470459
930.634766	4003.244385
929.431641	3919.346191
928.230469	3918.675781
927.027344	3905.527588
925.826172	4027.536133
924.623047	3931.217285
923.419922	4022.000977
922.216797	3931.950195
921.013672	3922.966064
919.810547	3949.302002
918.607422	4106.488281
917.404297	3918.875732
916.199219	3909.899414
914.996094	3938.294922
913.791016	3916.863770
912.585938	3953.549805
911.380859	3990.223145
910.175781	3941.823242
908.970703	3897.588379
907.765625	3971.582764
906.560547	3848.561768
905.353516	3798.145508
904.148438	3882.482666
902.941406	3877.672852
901.736328	3870.792480
900.529297	3841.124268
899.322266	3869.466797
898.115234	3843.951172
896.908203	3789.453613
895.699219	3799.156494
894.492188	3732.264648
893.285156	3725.416504
892.076172	3747.540771
890.867188	3819.312744
889.660156	3882.785400
888.451172	3677.362793
887.242188	3676.732666
886.033203	3820.831299
884.824219	3704.413574
883.613281	3637.640137
882.404297	3709.343750
881.193359	3559.946533
879.984375	3701.875244
878.773438	3647.539795
877.562500	3613.873535
876.351563	3617.383545
875.140625	3418.584717
873.929688	3568.671387
872.718750	3613.460205
871.505859	3561.258057
870.294922	3513.199951
869.082031	3522.910645
867.871094	3487.248535
866.658203	3523.764648
865.445313	3411.837646
864.232422	3435.986816
863.019531	3402.424316
861.806641	3416.264160
860.591797	3496.022949
859.378906	3410.973145
858.164063	3375.377930
856.951172	3376.858154
855.736328	3316.576416
854.521484	3394.225098
853.306641	3377.178711
852.091797	3456.847656
850.876953	3466.541260
849.662109	3455.661865
848.445313	3362.522461
847.230469	3374.282959
846.013672	3412.765625
844.796875	3321.736816
843.582031	3214.297607
842.365234	3291.829346
841.148438	3381.661133
839.929688	3463.245605
838.712891	3411.307129
837.496094	3330.638428
836.277344	3323.907471
835.060547	3360.285889
833.841797	3341.237793
832.623047	3328.352051
831.404297	3360.607178
830.185547	3380.543213
828.966797	3439.440430
827.748047	3365.028320
826.529297	3413.656494
825.308594	3476.616943
824.089844	3465.772217
822.869141	3459.029541
821.650391	3478.923828
820.429688	3500.859619
819.208984	3537.124756
817.988281	3442.319336
816.765625	3544.099609
815.544922	3400.195313
814.324219	3524.461670
813.101563	3452.232910
811.880859	3341.154785
810.658203	3506.280029
809.435547	3493.405762
808.212891	3484.625488
806.990234	3526.963867
805.767578	3587.685791
804.544922	3544.146973
803.320313	3514.927979
802.097656	3495.935059
800.873047	3630.163086
799.650391	3472.265869
798.425781	3579.903564
797.201172	3613.998779
795.976563	3566.424072
794.751953	3504.577881
793.527344	3591.727783
792.300781	3578.867920
791.076172	3566.012451
789.849609	3608.232910
788.625000	3542.353271
787.398438	3586.602295
786.171875	3594.140137
784.945313	3526.258057
783.718750	3662.194336
782.492188	3712.504395
781.265625	3612.040771
780.037109	3580.865967
778.810547	3549.701904
777.582031	3616.285889
776.353516	3507.763916
775.125000	3442.024658
773.898438	3465.854248
772.667969	3412.353271
771.439453	3487.040527
770.210938	3577.975098
768.982422	3624.135498
767.751953	3550.309570
766.523438	3592.392578
765.292969	3508.433838
764.062500	3593.188721
762.832031	3539.738281
761.601563	3533.034180
760.371094	3481.643555
759.140625	3625.241699
757.908203	3535.271240
756.677734	3617.902832
755.445313	3572.622314
754.214844	3653.189209
752.982422	3557.187744
751.750000	3649.902588
750.517578	3570.162598
749.285156	3545.209961
748.052734	3654.100830
746.818359	3460.863525
745.585938	3648.788086
744.351563	3638.025879
743.119141	3613.082520
741.884766	3681.346191
740.650391	3532.835449
739.416016	3511.973145
738.181641	3612.618652
736.947266	3559.355225
735.710938	3666.030518
734.476563	3588.488281
733.240234	3595.964600
732.005859	3666.159180
730.769531	3616.977539
729.533203	3598.151123
728.296875	3733.019775
727.060547	3623.195557
725.824219	3640.764648
724.587891	3670.454834
723.349609	3570.801758
722.113281	3659.087402
720.875000	3603.913086
719.636719	3617.430420
718.400391	3626.903809
717.162109	3630.316895
715.923828	3639.784668
714.683594	3669.432861
713.445313	3727.323486
712.207031	3520.875977
710.966797	3602.979980
709.728516	3660.851807
708.488281	3765.086182
707.248047	3774.518311
706.007813	3729.516357
704.767578	3664.373779
703.527344	3629.482178
702.287109	3628.856201
701.044922	3652.405029
699.804688	3619.547607
698.562500	3776.004883
697.320313	3789.447998
696.080078	3724.372803
694.837891	3713.666016
693.595703	3731.137451
692.353516	3627.875000
691.109375	3677.543457
689.867188	3701.046143
688.625000	3613.930420
687.380859	3611.296143
686.136719	3709.182129
684.892578	3650.250488
683.650391	3641.581787
682.406250	3618.850098
681.160156	3696.576904
679.916016	3703.973389
678.671875	3729.441895
677.425781	3712.734375
676.181641	3677.963623
674.935547	3715.466797
673.689453	3783.060791
672.443359	3802.473389
671.197266	3747.648438
669.951172	3700.865723
668.705078	3752.370850
667.458984	3665.499268
666.210938	3680.904785
664.964844	3750.426758
663.716797	3691.658203
662.468750	3691.020508
661.220703	3740.469482
659.972656	3751.842041
658.724609	3653.058105
657.476563	3706.492432
656.228516	3713.860352
654.978516	3797.291504
653.730469	3684.557373
652.480469	3623.889404
651.230469	3741.304199
649.980469	3618.636230
648.730469	3756.011230
647.480469	3603.387939
646.230469	3674.740234
644.980469	3696.093750
643.728516	3733.428711
642.478516	3646.857422
641.226563	3698.173096
639.974609	3733.490234
638.722656	3770.792480
637.470703	3776.131104
636.218750	3709.592041
634.966797	3738.893555
633.714844	3678.371094
632.460938	3817.421143
631.208984	3786.833252
629.955078	3676.463135
628.701172	3659.871338
627.447266	3776.892334
626.193359	3686.518311
624.939453	3634.051025
623.685547	3715.139404
622.431641	3971.562256
621.175781	3813.474609
619.921875	3872.576904
618.666016	3808.171631
617.410156	3851.322998
616.154297	3886.495117
614.898438	3925.636475
613.642578	3861.266113
612.386719	3926.267578
611.130859	3853.960693
609.873047	3916.951416
608.617188	3932.185303
607.359375	3863.891357
606.101563	3928.835693
604.845703	4029.540039
603.587891	4003.003906
602.328125	4149.366699
601.070313	4142.687988
599.812500	4175.741699
598.552734	4304.122559
597.294922	4221.956543
596.035156	4161.659668
594.775391	4264.168457
593.517578	4195.945801
592.257813	4340.086914
590.996094	4256.000977
589.736328	4273.117676
588.476563	4349.732910
587.214844	4390.624512
585.955078	4296.673828
584.693359	4462.453613
583.431641	4384.378906
582.169922	4415.327148
580.908203	4406.636719
579.646484	4538.604004
578.384766	4539.797852
577.123047	4529.109375
575.859375	4540.204590
574.597656	4741.345703
573.333984	4594.052734
572.070313	4436.915527
570.806641	4539.036621
569.542969	4585.729004
568.279297	4507.793457
567.015625	4586.117188
565.751953	4721.754395
564.486328	4661.627441
563.222656	4666.749023
561.957031	4691.631348
560.691406	4724.408203
559.425781	4719.637695
558.160156	4641.785645
556.894531	4718.000977
555.628906	4786.291992
554.361328	4714.390625
553.095703	4587.245605
551.828125	4730.516602
550.562500	4707.991211
549.294922	4776.223633
548.027344	4838.514648
546.759766	4683.847656
545.492188	4775.709961
544.222656	4725.594727
542.955078	4754.341309
541.687500	4792.932129
540.417969	4784.218750
539.148438	4897.653809
537.878906	4881.045898
536.611328	4828.994141
535.339844	4901.011230
534.070313	5008.440430
532.800781	4852.068848
531.531250	5158.241211
530.259766	5129.797852
528.988281	5140.711426
527.718750	5051.303223
526.447266	5142.859863
525.175781	5210.788574
523.904297	5174.496094
522.632813	5151.975098
521.359375	5294.548340
520.087891	5340.788086
518.814453	5487.207520
517.542969	5189.647461
516.269531	5351.753418
514.996094	5503.984863
513.722656	5530.514648
512.449219	5515.813477
511.175781	5540.368652
509.902344	5682.649902
508.626953	5715.014648
507.353516	5816.022949
506.078125	5860.120117
504.802734	5808.119141
503.527344	5765.938477
502.251953	5951.155273
500.976563	5928.562500
499.701172	5904.018066
498.425781	5869.686035
497.148438	5882.377441
495.873047	5983.196777
494.595703	5999.779785
493.318359	5926.297852
492.041016	5974.204590
490.763672	6067.107910
489.486328	5974.083984
488.208984	6064.998535
486.931641	5972.006348
485.652344	6013.995117
484.375000	6112.676270
483.095703	5902.418457
481.816406	6047.998047
480.537109	5919.909668
479.257813	5934.512695
477.978516	6027.259277
476.699219	5901.193848
475.417969	5863.059570
474.138672	5988.965820
472.857422	5761.448730
471.576172	5899.040527
470.296875	5825.801270
469.015625	5832.593262
467.734375	5823.773926
466.451172	5818.859375
465.169922	5710.578125
463.888672	5701.784668
462.605469	5704.691406
461.322266	5690.053223
460.041016	5583.818359
458.757813	5783.556152
457.474609	5609.150391
456.191406	5764.010742
454.908203	5683.154785
453.623047	5499.121094
452.339844	5710.380371
451.054688	5580.910156
449.771484	5665.574219
448.486328	5588.696289
447.201172	5581.886230
445.916016	5438.911133
444.630859	5696.636719
443.343750	5530.356445
442.058594	5583.831543
440.773438	5481.776367
439.486328	5449.724609
438.199219	5545.936035
436.914063	5356.510742
435.626953	5516.808105
434.339844	5477.002930
433.050781	5555.665039
431.763672	5498.393066
430.476563	5415.905273
429.187500	5517.826172
427.900391	5361.624023
426.611328	5376.210938
425.322266	5450.927246
424.033203	5372.397461
422.744141	5462.601563
421.455078	5378.279785
420.164063	5377.342285
418.875000	5411.291504
417.583984	5361.902832
416.294922	5388.092773
415.003906	5423.958984
413.712891	5486.927246
412.421875	5354.291504
411.130859	5303.019043
409.839844	5319.516113
408.546875	5248.912598
407.255859	5373.778809
405.962891	5388.319336
404.671875	5286.789551
403.378906	5214.306152
402.085938	5370.030273
400.792969	5299.490723
399.500000	5221.243164
398.207031	5241.592285
396.912109	5227.150879
395.619141	5212.714355
394.324219	5204.077637
393.029297	5228.277832
391.734375	5206.124023
390.439453	5139.570801
389.144531	5183.072754
387.849609	5205.328613
386.554688	5212.138672
385.257813	5149.489258
383.962891	5092.648438
382.666016	5114.903809
381.369141	5179.574707
380.074219	5132.397949
378.777344	5081.382324
377.478516	5120.969238
376.181641	5106.585938
374.884766	5055.600586
373.585938	5056.644043
372.289063	5007.610840
370.990234	5108.796875
369.691406	5061.696777
368.392578	5133.962402
367.093750	5133.065430
365.794922	5141.790527
364.496094	5177.448242
363.195313	4968.789063
361.896484	5077.550293
360.595703	5107.430664
359.294922	5189.211914
357.996094	5097.956543
356.695313	5118.207520
355.394531	5080.802246
354.091797	5131.789063
352.791016	5073.263672
351.490234	5153.042969
350.187500	5088.772949
348.884766	5093.643066
347.583984	5071.637207
346.281250	5095.701172
344.978516	5087.134766
343.673828	5093.919922
342.371094	5070.009766
341.068359	5090.220703
339.763672	5110.424316
338.460938	5103.778809
337.156250	5018.541016
335.851563	5098.160645
334.546875	5039.781250
333.242188	5094.461914
331.937500	4990.128418
330.632813	5075.442383
329.326172	5097.533691
328.021484	5031.545898
326.714844	5090.007813
325.408203	5002.990723
324.101563	4967.670898
322.794922	5001.240234
321.488281	4818.637695
320.181641	4997.577637
318.873047	4925.949707
317.566406	4798.901367
316.257813	4929.960449
314.951172	4898.517578
313.642578	4788.738770
312.333984	4889.160645
311.025391	4769.870117
309.716797	4950.476074
308.406250	4949.609375
307.097656	4878.101074
305.787109	4932.605469
304.478516	5002.358887
303.167969	4894.621582
301.857422	4916.659668
300.546875	4931.059082
299.236328	4972.154785
297.925781	5003.701172
296.613281	5018.077148
295.302734	4923.792969
293.990234	5052.531738
292.677734	4925.879395
291.367188	5083.150391
290.054688	4967.966309
288.742188	4965.191406
287.427734	4867.206055
286.115234	4889.199707
284.802734	5008.267578
283.488281	4910.325195
282.173828	4945.619629
280.861328	4864.845703
279.546875	4999.051270
278.232422	4990.567383
276.917969	4947.858398
275.601563	5004.027832
274.287109	5033.564941
272.970703	4983.268066
271.656250	4917.786621
270.339844	5013.819336
269.023438	4906.564941
267.707031	4928.495117
266.390625	4923.833496
265.074219	4983.723633
263.757813	4922.106445
262.439453	4945.916016
261.123047	4842.580078
259.804688	4972.639648
258.486328	4952.798828
257.167969	4940.550293
255.849609	4981.400879
254.531250	5033.612305
253.212891	5042.207031
251.894531	4942.770508
250.574219	5074.546387
249.255859	5058.499512
247.935547	5032.986816
246.615234	4893.848633
245.294922	4978.200195
243.974609	5157.184570
242.654297	5008.632813
241.332031	5144.019043
240.011719	5311.525879
238.689453	5121.402344
237.369141	5007.008789
236.046875	5170.667969
234.724609	5118.705566
233.402344	5182.086914
232.080078	5156.604004
230.755859	5233.185059
229.433594	5268.168457
228.111328	5146.331055
226.787109	5249.317871
225.462891	5197.404297
224.138672	5192.714844
222.814453	5103.070313
221.490234	5153.139160
220.166016	5325.862305
218.841797	5256.997070
217.515625	5171.176270
216.191406	5124.997559
214.865234	5161.815918
213.539063	5128.853516
212.212891	5190.166504
210.886719	5127.051270
209.560547	5276.919434
208.232422	5275.992188
206.906250	5282.601074
205.580078	5185.607910
204.251953	5331.593262
202.923828	5289.230957
201.595703	5201.700195
200.267578	5326.899902
198.939453	5425.707520
197.611328	5328.790039
196.281250	5254.482422
194.953125	5400.274414
193.623047	5521.566895
192.294922	5266.753906
190.964844	5498.945313
189.634766	5381.439941
188.304688	5461.304199
186.972656	5445.312012
185.642578	5506.350098
184.312500	5629.351074
182.980469	5538.216797
181.648438	5634.881348
180.316406	5581.324707
178.986328	5550.310547
177.652344	5571.854492
176.320313	5512.707031
174.988281	5708.718750
173.656250	5707.714355
172.322266	5701.083984
170.988281	5743.206055
169.656250	5734.696777
168.322266	5724.315430
166.988281	5689.575195
165.654297	5727.921875
164.318359	5657.598633
162.984375	5727.778320
161.648438	5766.097168
160.314453	5778.188477
158.978516	5647.999512
157.642578	5791.127930
156.306641	5674.081543
154.970703	5878.899902
153.634766	5743.171387
152.298828	5839.421387
150.960938	5836.522949
149.625000	5661.607910
148.287109	5931.677246
146.949219	5930.632324
145.611328	5929.587402
144.273438	6092.965332
142.935547	6024.640137
141.597656	6109.496094
140.257813	6156.973633
138.919922	6099.875000
137.580078	6285.479004
136.240234	6144.387207
134.900391	6249.673828
133.560547	6282.156738
132.220703	6189.641602
130.880859	6356.413574
129.539063	6286.294922
128.199219	6354.172852
126.857422	6351.188477
125.515625	6320.247559
124.175781	6365.720703
122.833984	6435.398926
121.490234	6508.778320
120.148438	6509.493164
118.806641	6562.348633
117.462891	6559.329590
116.121094	6494.880859
114.777344	6614.713379
113.433594	6686.121094
112.089844	6582.611816
110.746094	6618.654785
109.402344	6585.869141
108.058594	6686.983398
106.712891	6607.715820
105.367188	6718.084473
104.023438	6733.626465
102.677734	6585.636230
101.332031	6591.906250
99.986328	6770.929688
98.640625	6812.451660
97.292969	6818.677246
95.947266	6804.477539
94.599609	6883.096680
93.253906	6939.416504
91.906250	7017.983398
90.558594	7159.602539
89.210938	6954.291992
87.863281	6899.279297
86.515625	7111.307617
85.166016	7121.176270
83.818359	7099.528320
82.468750	7202.061523
81.119141	7160.023438
79.769531	7075.388672
78.419922	7005.602051
77.070313	7108.078125
75.720703	7214.221191
74.371094	7164.811035
73.019531	7148.737305
71.667969	7160.429199
70.318359	7107.353516
68.966797	7028.395020
67.615234	6986.458984
66.263672	6868.711426
64.912109	6821.270996
63.558594	6755.358887
62.207031	6680.228027
60.853516	6752.971680
59.500000	6727.756836
58.148438	6604.636230
56.794922	6219.266602
55.439453	6066.729980
54.085938	5908.707520
52.732422	5796.894531
51.376953	5661.125000
