#Wave		#Intensity
4002.106445	2061.781738
4001.408203	2047.463867
4000.709961	2118.712891
4000.010742	2164.890625
3999.312500	2064.365723
3998.613281	2128.423096
3997.914063	2135.234375
3997.215820	1952.513428
3996.516602	2045.161621
3995.816406	2037.683105
3995.117188	2073.098877
3994.417969	2076.339355
3993.717773	2043.847290
3993.018555	2122.115723
3992.318359	2050.334473
3991.618164	2046.433472
3990.917969	2006.825195
3990.217773	2117.181641
3989.517578	2198.944824
3988.817383	2109.363037
3988.117188	2098.318359
3987.416016	2130.093262
3986.715820	2022.728271
3986.014648	2090.173340
3985.313477	2064.873535
3984.612305	2114.461670
3983.911133	2014.298340
3983.209961	1996.151855
3982.507813	2074.238770
3981.806641	2077.468994
3981.105469	2194.708984
3980.403320	1977.057983
3979.701172	2030.165771
3978.999023	2125.989990
3978.296875	2018.831787
3977.594727	2121.746826
3976.892578	2153.440674
3976.190430	2081.917969
3975.487305	2191.889648
3974.785156	1946.056885
3974.082031	2052.457764
3973.378906	2002.336426
3972.675781	2133.585938
3971.972656	2044.358032
3971.269531	2154.229492
3970.566406	2008.158691
3969.862305	2036.265625
3969.159180	2050.150879
3968.455078	2081.794678
3967.751953	2081.460205
3967.047852	2063.368896
3966.343750	2027.529053
3965.639648	2091.108154
3964.935547	2104.971191
3964.230469	2104.633057
3963.526367	2203.654541
3962.821289	2047.189087
3962.117188	2131.998291
3961.412109	2032.344116
3960.707031	1993.008667
3960.001953	2152.245361
3959.296875	2084.542236
3958.591797	2034.583374
3957.885742	1991.728638
3957.180664	2097.711670
3956.474609	2079.660400
3955.769531	2118.291748
3955.063477	2050.658691
3954.357422	2046.788208
3953.651367	2216.407715
3952.945313	2010.730713
3952.238281	2024.565552
3951.532227	2063.168213
3950.825195	2165.447998
3950.119141	2119.109375
3949.412109	2097.546143
3948.705078	2125.502197
3947.998047	1980.183105
3947.291016	2124.819580
3946.583984	2106.803711
3945.876953	2177.152344
3945.168945	2212.140381
3944.461914	2109.322266
3943.753906	2154.907959
3943.045898	1974.426270
3942.337891	1977.640747
3941.629883	2160.931885
3940.921875	2044.082764
3940.213867	2086.112061
3939.504883	2124.598633
3938.796875	2007.811646
3938.087891	2018.073486
3937.379883	2045.969727
3936.670898	2133.815430
3935.961914	2045.312866
3935.252930	2097.872070
3934.543945	2139.838379
3933.833984	2019.654907
3933.125000	2125.054932
3932.415039	2001.388672
3931.706055	2053.912354
3930.996094	2071.194824
3930.286133	2042.687378
3929.576172	2024.752930
3928.866211	2144.133057
3928.156250	2052.264160
3927.445313	2051.934814
3926.735352	2051.605469
3926.024414	2135.719727
3925.314453	2036.875000
3924.603516	2036.548096
3923.892578	2046.771484
3923.181641	1997.215820
3922.470703	2028.536133
3921.758789	2059.846436
3921.047852	2115.748291
3920.335938	2002.961670
3919.625000	2086.961914
3918.913086	2044.472778
3918.201172	2072.242676
3917.489258	2089.468750
3916.777344	2071.577637
3916.065430	2004.543945
3915.352539	2035.812378
3914.640625	2049.523438
3913.927734	2186.041504
3913.215820	2097.982178
3912.502930	1988.904663
3911.790039	2044.700684
3911.077148	2044.372559
3910.364258	2023.007935
3909.650391	2040.210815
3908.937500	2008.338867
3908.224609	2116.652588
3907.510742	2004.190430
3906.796875	2136.992920
3906.083008	2014.055176
3905.369141	2115.294189
3904.655273	2160.475098
3903.941406	2055.097900
3903.227539	2103.774414
3902.512695	2152.435303
3901.798828	1987.621338
3901.083984	2078.270508
3900.369141	2060.445801
3899.654297	2112.579834
3898.939453	2063.281738
3898.224609	2115.398438
3897.509766	2041.643677
3896.793945	2128.701172
3896.079102	1978.081299
3895.363281	2005.718140
3894.648438	2117.195313
3893.932617	2040.006104
3893.216797	2130.486328
3892.500977	2032.367432
3891.784180	2025.058350
3891.068359	2000.296875
3890.352539	2038.369873
3889.635742	2031.063232
3888.918945	2110.989746
3888.203125	2033.900146
3887.486328	2134.729248
3886.769531	2127.411621
3886.051758	2025.947266
3885.334961	1966.352661
3884.618164	2105.472412
3883.900391	2077.251953
3883.183594	2003.738770
3882.465820	2132.332764
3881.748047	2048.383301
3881.030273	2107.267090
3880.312500	2082.551270
3879.594727	2144.892578
3878.875977	2019.217651
3878.158203	2074.587402
3877.439453	2029.010620
3876.721680	2108.718994
3876.002930	2052.713867
3875.284180	2055.863281
3874.565430	2055.533447
3873.846680	2009.996094
3873.127930	2117.458984
3872.408203	2075.402588
3871.689453	2102.876221
3870.969727	2112.964600
3870.250000	2046.606201
3869.530273	2025.432861
3868.810547	2049.423096
3868.090820	2042.148315
3867.371094	2038.348267
3866.651367	2159.538818
3865.930664	2075.879395
3865.210938	2079.017090
3864.490234	2002.338013
3863.769531	2113.047363
3863.048828	2213.313477
3862.328125	1970.157349
3861.607422	2060.010010
3860.886719	2174.106201
3860.165039	2069.750000
3859.444336	2048.619873
3858.722656	2041.359619
3858.000977	2009.844971
3857.279297	2012.987183
3856.557617	1998.807861
3855.835938	2053.904541
3855.114258	2081.279297
3854.392578	2056.708252
3853.669922	2045.992554
3852.948242	2080.278076
3852.225586	2118.013184
3851.502930	2003.485229
3850.780273	2061.978760
3850.057617	2065.107178
3849.334961	2154.698975
3848.612305	2150.895508
3847.888672	2060.656006
3847.166016	2032.670288
3846.442383	2167.142578
3845.718750	1973.269409
3844.995117	2204.455322
3844.271484	2086.641846
3843.547852	2034.494873
3842.824219	2020.354248
3842.100586	2040.748413
3841.375977	2102.565918
3840.651367	2109.132568
3839.927734	2032.864014
3839.203125	2101.554443
3838.478516	2083.966064
3837.753906	2062.933594
3837.029297	2052.255127
3836.303711	1972.607910
3835.579102	2041.252930
3834.853516	2034.030518
3834.128906	2013.022583
3833.403320	2060.949463
3832.677734	2067.510498
3831.952148	2074.069580
3831.226563	2063.402832
3830.500000	2166.397705
3829.774414	1983.537354
3829.047852	2169.145996
3828.322266	2075.849854
3827.595703	2061.749023
3826.869141	2150.895508
3826.142578	2088.614746
3825.416016	2115.802490
3824.689453	2091.384766
3823.961914	2022.264893
3823.235352	2015.063354
3822.507813	2066.312012
3821.781250	2004.104370
3821.053711	2155.011963
3820.326172	2178.721680
3819.598633	2089.038574
3818.871094	2140.234131
3818.142578	2060.890137
3817.415039	1960.965942
3816.686523	2163.240723
3815.958984	2149.161133
3815.230469	2069.866455
3814.501953	2093.559082
3813.773438	2076.065674
3813.044922	2010.544556
3812.316406	2113.134766
3811.586914	2143.664551
3810.858398	2071.305420
3810.128906	2201.266357
3809.399414	2029.502563
3808.669922	2101.158203
3807.940430	2107.675537
3807.210938	2066.218750
3806.481445	2120.703857
3805.751953	2096.385498
3805.021484	1938.503174
3804.291992	2174.473877
3803.561523	2194.668213
3802.831055	2077.925049
3802.100586	2156.314453
3801.370117	2012.237549
3800.639648	2073.504150
3799.909180	2097.119385
3799.177734	2001.008423
3798.447266	2048.567383
3797.715820	2089.271973
3796.984375	2088.937012
3796.252930	2074.928955
3795.521484	1968.644897
3794.790039	2163.111816
3794.058594	2046.597534
3793.327148	2070.182373
3792.594727	2110.837646
3791.862305	2059.273682
3791.130859	2093.088623
3790.398438	2068.855225
3789.666016	2058.283447
3788.933594	2064.779297
3788.201172	2040.562012
3787.467773	2186.940674
3786.735352	1981.917236
3786.001953	2100.972900
3785.268555	2162.018311
3784.536133	2055.974854
3783.802734	2079.508545
3783.069336	2048.498779
3782.334961	2123.145020
3781.601563	2173.915527
3780.868164	2173.567139
3780.133789	2023.341553
3779.399414	2162.653076
3778.666016	2121.444092
3777.931641	2151.745850
3777.197266	2103.743408
3776.462891	2014.913330
3775.727539	2028.202515
3774.993164	2129.951660
3774.257813	2102.394775
3773.523438	2051.037109
3772.788086	2118.725098
3772.052734	2125.186035
3771.317383	2090.847900
3770.582031	2148.299316
3769.846680	1998.413818
3769.110352	2120.425781
3768.375000	2055.531982
3767.638672	2075.584717
3766.903320	2054.873047
3766.166992	2180.193604
3765.430664	2166.262451
3764.694336	2193.074219
3763.958008	2101.076416
3763.220703	2060.014404
3762.484375	2154.694336
3761.747070	2137.385742
3761.010742	2021.710571
3760.273438	2011.211792
3759.536133	2099.056641
3758.798828	2156.358643
3758.061523	2169.572998
3757.323242	2104.826416
3756.585938	2179.044189
3755.847656	2097.375000
3755.110352	2222.386963
3754.372070	2045.894165
3753.633789	2211.514648
3752.895508	2052.010742
3752.157227	2163.407227
3751.418945	2149.520020
3750.679688	2098.407715
3749.941406	2230.046875
3749.202148	2070.667480
3748.462891	2117.696289
3747.723633	2110.592285
3746.984375	2062.908447
3746.245117	2079.484375
3745.505859	2150.146484
3744.766602	2149.802002
3744.026367	2173.114990
3743.287109	2098.426270
3742.546875	2152.146973
3741.806641	2188.960449
3741.066406	2137.947266
3740.326172	2120.719971
3739.585938	2198.037354
3738.845703	2143.671387
3738.104492	2079.196777
3737.364258	2051.865234
3736.623047	2206.751465
3735.881836	2054.581543
3735.140625	2081.237549
3734.399414	2202.318115
3733.658203	2148.011963
3732.916992	2269.042969
3732.174805	2160.807617
3731.433594	2106.533936
3730.691406	2163.484863
3729.949219	2237.264404
3729.207031	2118.996826
3728.464844	2098.447510
3727.722656	2007.181763
3726.980469	2239.197998
3726.237305	2154.672363
3725.495117	2049.976807
3724.751953	2053.013916
3724.008789	2140.176514
3723.266602	2149.927002
3722.523438	2253.865723
3721.779297	2152.601563
3721.036133	2155.619385
3720.292969	2131.737549
3719.548828	2141.481445
3718.805664	2191.557373
3718.061523	2214.731445
3717.317383	2127.011230
3716.573242	2281.215088
3715.829102	2227.103516
3715.084961	2173.009277
3714.339844	2182.735107
3713.595703	2246.178223
3712.850586	2155.179932
3712.106445	2148.121582
3711.361328	2144.421631
3710.616211	2244.738770
3709.871094	2147.089111
3709.125977	2223.893799
3708.379883	2267.136230
3707.634766	2196.355469
3706.888672	2175.887451
3706.143555	2202.355957
3705.397461	2248.925537
3704.651367	2275.373779
3703.905273	2248.204834
3703.159180	2234.444580
3702.412109	2287.677979
3701.666016	2307.404785
3700.918945	2246.764404
3700.172852	2249.752197
3699.425781	2162.361572
3698.678711	2175.402344
3697.931641	2151.630127
3697.184570	2188.087891
3696.436523	2191.082520
3695.689453	2217.488525
3694.942383	2130.186768
3694.194336	2253.557129
3693.446289	2229.794922
3692.698242	2149.218018
3691.950195	2232.422363
3691.202148	2222.040283
3690.454102	2181.593750
3689.705078	2238.030029
3688.957031	2297.788086
3688.208008	2357.526855
3687.459961	2320.423096
3686.710938	2269.978271
3685.961914	2309.666504
3685.212891	2319.307861
3684.462891	2225.511475
3683.713867	2311.892578
3682.963867	2314.857666
3682.214844	2167.747070
3681.464844	2420.818604
3680.714844	2260.402344
3679.964844	2330.041504
3679.214844	2283.008057
3678.464844	2432.596924
3677.713867	2438.870850
3676.963867	2251.929688
3676.212891	2398.120605
3675.462891	2361.104248
3674.711914	2334.088867
3673.960938	2453.563232
3673.209961	2330.012451
3672.458984	2382.887939
3671.707031	2266.042969
3670.956055	2418.721436
3670.204102	2418.333740
3669.452148	2231.694580
3668.701172	2454.138428
3667.949219	2383.923096
3667.197266	2380.216797
3666.444336	2406.425781
3665.692383	2439.272949
3664.940430	2418.945801
3664.187500	2388.658447
3663.434570	2421.492432
3662.681641	2344.718506
3661.929688	2477.166748
3661.175781	2400.408203
3660.422852	2423.260498
3659.669922	2469.338379
3658.916992	2478.898193
3658.163086	2534.906006
3657.409180	2507.960449
3656.655273	2484.340576
3655.902344	2616.596436
3655.147461	2533.281738
3654.393555	2589.235840
3653.639648	2452.916260
3652.885742	2512.179199
3652.130859	2541.599854
3651.375977	2488.182129
3650.622070	2477.845703
3649.867188	2537.066406
3649.112305	2642.630127
3648.356445	2595.852295
3647.601563	2585.504883
3646.846680	2575.160645
3646.090820	2604.533203
3645.334961	2528.010742
3644.580078	2653.324463
3643.824219	2629.744385
3643.068359	2576.405762
3642.312500	2652.049316
3641.555664	2625.174316
3640.799805	2628.059570
3640.042969	2650.774902
3639.287109	2643.740967
3638.530273	2696.183838
3637.773438	2682.537354
3637.016602	2715.138428
3636.259766	2678.375244
3635.501953	2803.423340
3634.745117	2611.487305
3633.988281	2743.107666
3633.230469	2742.668213
3632.472656	2705.929932
3631.714844	2698.897461
3630.957031	2761.143555
3630.199219	2773.894531
3629.441406	2809.725830
3628.682617	2812.572998
3627.924805	2765.968018
3627.166016	2834.745361
3626.407227	2949.640381
3625.649414	2820.656494
3624.890625	2866.329590
3624.130859	2869.164307
3623.372070	2750.135986
3622.613281	2825.435547
3621.853516	2706.452148
3621.094727	2745.522461
3620.334961	2843.826660
3619.575195	2780.843262
3618.815430	2806.720947
3618.055664	2783.242188
3617.294922	2911.081299
3616.535156	2769.195068
3615.775391	2906.860352
3615.014648	2870.229004
3614.253906	2817.173340
3613.493164	2718.120117
3612.732422	2872.135986
3611.971680	2868.390137
3611.210938	2825.223877
3610.449219	2854.332764
3609.688477	2788.193604
3608.926758	2912.522461
3608.166016	2866.093262
3607.404297	2875.481689
3606.642578	2953.788818
3605.879883	2913.937988
3605.118164	2942.999756
3604.356445	3008.136475
3603.593750	2915.817627
3602.832031	2961.261719
3602.069336	2960.787109
3601.306641	2986.539307
3600.543945	2976.227539
3599.781250	2979.028076
3599.018555	2909.739258
3598.254883	2847.025146
3597.492188	2915.358398
3596.728516	2885.415039
3595.964844	2924.248291
3595.201172	2956.520996
3594.437500	2978.962402
3593.673828	2922.843262
3592.910156	3095.819336
3592.146484	2823.746338
3591.381836	2963.968018
3590.617188	3009.286621
3589.853516	3002.263672
3589.088867	2913.495117
3588.324219	2916.297607
3587.559570	2958.325684
3586.793945	3019.950439
3586.029297	2921.431885
3585.263672	3051.655762
3584.499023	3096.901855
3583.733398	2890.631836
3582.967773	2883.637207
3582.202148	3062.761475
3581.436523	2941.477783
3580.670898	2954.062988
3579.904297	3005.808105
3579.138672	2989.010986
3578.372070	2880.866699
3577.605469	3001.101563
3576.838867	3062.590088
3576.072266	3039.272217
3575.305664	2944.230957
3574.539063	2999.178955
3573.771484	2953.065918
3573.004883	3066.655518
3572.237305	3014.029785
3571.469727	2896.262939
3570.703125	2983.747803
3569.935547	2892.078125
3569.166992	2875.333008
3568.399414	3034.406738
3567.631836	3046.941650
3566.863281	3004.141846
3566.094727	2922.304443
3565.327148	2931.597412
3564.558594	2875.823486
3563.790039	2904.636963
3563.021484	2907.423584
3562.251953	3027.268311
3561.483398	2925.998779
3560.713867	3023.047852
3559.945313	2973.812500
3559.175781	2875.849609
3558.406250	2982.606689
3557.636719	2845.691650
3556.867188	2923.187256
3556.096680	2994.163330
3555.327148	2931.991699
3554.556641	2899.057617
3553.787109	2940.790039
3553.016602	2891.637939
3552.246094	2826.277588
3551.475586	2968.575928
3550.705078	2857.810303
3549.933594	2876.812256
3549.163086	2850.408936
3548.391602	2908.313232
3547.621094	2813.836426
3546.849609	2923.587402
3546.078125	2855.064209
3545.306641	2789.802979
3544.535156	3006.414063
3543.762695	2941.149170
3542.991211	2853.234863
3542.218750	2940.207031
3541.446289	2852.320801
3540.674805	2939.264893
3539.902344	2825.514404
3539.129883	2850.950195
3538.356445	2860.199951
3537.583984	2934.146729
3536.811523	2778.421387
3536.038086	2745.636475
3535.264648	2884.234863
3534.491211	2848.210693
3533.717773	2815.430176
3532.944336	2853.761719
3532.170898	2927.626221
3531.397461	2875.463379
3530.623047	2881.463379
3529.849609	2871.312256
3529.075195	2803.036865
3528.300781	2860.706055
3527.526367	2795.682129
3526.751953	2727.451416
3525.977539	2749.605225
3525.202148	2907.273682
3524.427734	2835.831543
3523.652344	2845.054199
3522.876953	2809.121582
3522.101563	2853.816650
3521.326172	2872.704102
3520.550781	2778.759033
3519.775391	2778.313721
3519.000000	2774.645996
3518.223633	2899.862061
3517.447266	2838.187988
3516.671875	2795.859863
3515.895508	2882.365967
3515.119141	2843.263916
3514.342773	2723.687500
3513.565430	2720.031982
3512.789063	2932.014404
3512.011719	2777.083496
3511.235352	2792.725586
3510.458008	2821.230225
3509.680664	2859.375000
3508.903320	2775.303955
3508.125977	2742.705566
3507.347656	2697.258301
3506.570313	2863.971436
3505.791992	2747.815186
3505.014648	2773.081299
3504.236328	2779.062500
3503.458008	2695.098145
3502.679688	2762.113281
3501.901367	2710.290771
3501.122070	2680.959961
3500.343750	2728.683594
3499.564453	2856.634277
3498.786133	2747.064209
3498.006836	2894.223145
3497.227539	2726.935059
3496.448242	2755.366943
3495.668945	2687.575684
3494.888672	2651.872314
3494.109375	2705.951172
3493.329102	2689.489502
3492.548828	2701.878906
3491.769531	2743.105225
3490.989258	2806.746582
3490.208008	2812.704102
3489.427734	2761.004883
3488.647461	2834.220215
3487.866211	2760.120117
3487.085938	2814.103027
3486.304688	2810.451172
3485.523438	2771.595459
3484.742188	2684.752686
3483.960938	2754.709961
3483.179688	2693.489258
3482.397461	2734.636963
3481.616211	2683.032227
3480.833984	2727.365723
3480.051758	2726.928711
3479.269531	2790.418945
3478.487305	2678.117188
3477.705078	2747.985352
3476.922852	2779.493164
3476.139648	2638.498291
3475.357422	2679.594727
3474.574219	2787.737061
3473.791016	2742.591553
3473.007813	2675.114502
3472.224609	2703.411621
3471.441406	2632.770996
3470.658203	2753.596680
3469.874023	2746.775146
3469.090820	2720.817383
3468.306641	2765.030029
3467.522461	2656.171631
3466.738281	2754.579346
3465.954102	2699.947754
3465.169922	2603.900635
3464.385742	2781.935059
3463.600586	2765.558594
3462.815430	2758.744141
3462.031250	2748.746582
3461.246094	2595.445557
3460.460938	2728.761230
3459.675781	2686.937500
3458.890625	2794.730957
3458.104492	2657.433350
3457.319336	2618.822754
3456.533203	2764.753662
3455.747070	2592.535400
3454.960938	2706.618408
3454.174805	2661.664551
3453.388672	2638.981445
3452.602539	2673.527344
3451.815430	2701.705322
3451.029297	2701.272217
3450.242188	2700.839355
3449.455078	2687.698730
3448.667969	2595.151123
3447.880859	2753.531738
3447.093750	2610.196533
3446.306641	2562.154541
3445.518555	2717.289551
3444.731445	2599.419922
3443.943359	2652.950928
3443.155273	2681.081543
3442.367188	2721.892822
3441.579102	2737.315918
3440.791016	2676.621338
3440.002930	2682.534180
3439.213867	2701.126221
3438.425781	2513.673340
3437.636719	2690.752441
3436.847656	2683.983643
3436.058594	2769.097656
3435.269531	2689.458740
3434.480469	2597.176270
3433.690430	2650.595459
3432.901367	2650.170654
3432.111328	2662.408936
3431.321289	2655.651611
3430.531250	2547.624512
3429.741211	2661.128906
3428.951172	2575.281494
3428.161133	2562.215820
3427.370117	2650.361328
3426.580078	2593.016602
3425.789063	2801.273682
3424.998047	2699.666260
3424.207031	2550.680908
3423.416016	2692.480469
3422.625000	2530.905029
3421.833984	2609.478760
3421.041992	2605.901855
3420.250977	2674.963623
3419.458984	2639.800781
3418.666992	2718.306396
3417.875000	2601.074707
3417.083008	2692.185791
3416.291016	2616.019043
3415.498047	2571.427979
3414.706055	2615.180420
3413.913086	2551.678955
3413.120117	2544.962646
3412.327148	2598.157471
3411.534180	2518.926025
3410.741211	2600.476807
3409.948242	2473.996338
3409.155273	2517.714844
3408.361328	2614.979248
3407.567383	2690.161865
3406.774414	2570.046875
3405.980469	2566.485840
3405.186523	2496.806152
3404.391602	2634.920166
3403.597656	2527.481201
3402.803711	2605.752197
3402.008789	2558.136230
3401.213867	2592.332520
3400.418945	2538.442871
3399.624023	2516.020752
3398.829102	2528.195557
3398.034180	2634.686768
3397.239258	2514.811035
3396.443359	2630.699219
3395.648438	2517.147217
3394.852539	2482.181641
3394.056641	2554.038086
3393.260742	2585.038574
3392.464844	2638.012451
3391.667969	2540.250000
3390.872070	2492.750488
3390.075195	2573.964355
3389.279297	2501.366699
3388.482422	2557.449219
3387.685547	2607.238770
3386.888672	2572.313965
3386.091797	2502.899414
3385.293945	2377.059570
3384.497070	2439.387695
3383.699219	2454.671387
3382.902344	2548.311523
3382.104492	2535.366943
3381.306641	2556.894775
3380.508789	2518.889404
3379.709961	2518.485596
3378.912109	2518.081787
3378.113281	2517.678223
3377.315430	2517.274414
3376.516602	2516.870605
3375.717773	2594.715332
3374.918945	2572.393311
3374.120117	2446.823730
3373.321289	2596.595947
3372.521484	2574.284180
3371.722656	2570.743896
3370.922852	2686.027832
3370.123047	2498.011719
3369.323242	2491.359375
3368.523438	2509.712402
3367.723633	2546.809082
3366.922852	2427.672852
3366.123047	2449.150879
3365.322266	2620.546143
3364.522461	2592.019531
3363.721680	2435.483398
3362.920898	2594.310303
3362.120117	2553.315918
3361.318359	2412.465332
3360.517578	2549.376709
3359.715820	2536.488281
3358.915039	2486.170898
3358.113281	2432.750732
3357.311523	2547.741943
3356.509766	2484.975098
3355.708008	2612.390381
3354.905273	2649.374512
3354.103516	2552.340820
3353.300781	2399.251709
3352.499023	2598.253418
3351.696289	2538.653320
3350.893555	2488.415771
3350.090820	2537.839111
3349.287109	2528.092041
3348.484375	2543.250977
3347.681641	2524.168701
3346.877930	2505.092285
3346.074219	2542.027588
3345.270508	2460.736084
3344.466797	2497.666504
3343.663086	2447.507080
3342.859375	2462.661865
3342.054688	2428.068604
3341.250977	2449.438232
3340.446289	2560.930664
3339.641602	2423.793213
3338.836914	2448.259766
3338.032227	2497.570068
3337.227539	2475.427979
3336.421875	2515.401611
3335.617188	2496.368408
3334.811523	2601.519043
3334.006836	2489.359863
3333.201172	2442.408936
3332.395508	2476.149658
3331.589844	2435.420654
3330.783203	2441.233887
3329.977539	2419.132080
3329.170898	2548.984131
3328.365234	2409.054688
3327.558594	2607.065674
3326.751953	2457.873291
3325.945313	2463.677002
3325.138672	2509.758789
3324.331055	2435.005127
3323.524414	2388.152344
3322.716797	2406.351074
3321.909180	2424.543945
3321.101563	2551.090332
3320.293945	2473.293945
3319.486328	2500.752197
3318.678711	2559.146484
3317.871094	2465.916016
3317.062500	2505.735840
3316.253906	2434.194824
3315.446289	2455.451904
3314.637695	2464.333984
3313.829102	2392.833740
3313.019531	2485.180420
3312.210938	2503.324951
3311.402344	2441.122803
3310.592773	2412.925293
3309.783203	2480.497070
3308.973633	2501.718994
3308.164063	2553.814453
3307.354492	2371.239258
3306.544922	2494.341064
3305.735352	2518.633301
3304.924805	2505.885010
3304.114258	2453.028320
3303.304688	2344.656982
3302.494141	2409.057129
3301.683594	2390.166016
3300.872070	2392.866211
3300.061523	2478.808838
3299.250977	2456.833008
3298.439453	2422.535645
3297.627930	2289.637695
3296.816406	2458.731689
3296.004883	2486.062988
3295.193359	2399.420410
3294.381836	2463.707764
3293.570313	2438.679199
3292.757813	2416.737549
3291.945313	2391.724365
3291.133789	2372.874756
3290.321289	2347.876709
3289.508789	2461.336914
3288.695313	2350.199463
3287.882813	2463.622559
3287.070313	2438.625732
3286.256836	2315.246582
3285.443359	2342.542969
3284.629883	2529.663330
3283.816406	2381.742920
3283.002930	2498.124268
3282.189453	2494.651123
3281.375000	2414.385742
3280.561523	2374.072021
3279.747070	2447.389160
3278.932617	2318.045654
3278.119141	2366.789795
3277.303711	2433.934082
3276.489258	2347.617676
3275.674805	2414.743164
3274.859375	2386.745605
3274.044922	2331.150879
3273.229492	2450.382568
3272.414063	2425.458740
3271.598633	2425.069580
3270.783203	2400.157715
3269.967773	2267.984131
3269.151367	2491.317871
3268.335938	2380.619141
3267.519531	2383.300293
3266.703125	2410.483643
3265.886719	2379.472900
3265.070313	2510.752441
3264.253906	2412.384766
3263.437500	2433.423828
3262.620117	2399.368652
3261.803711	2386.743896
3260.986328	2395.539063
3260.168945	2395.154541
3259.351563	2446.763916
3258.534180	2418.849609
3257.715820	2387.886475
3256.898438	2445.585938
3256.080078	2454.362793
3255.262695	2398.960938
3254.444336	2426.075439
3253.625977	2407.355713
3252.807617	2385.587646
3251.989258	2418.799316
3251.169922	2354.286377
3250.351563	2375.279785
3249.532227	2319.952393
3248.712891	2365.361084
3247.893555	2377.187744
3247.074219	2401.215088
3246.254883	2416.082520
3245.435547	2430.945313
3244.616211	2400.058838
3243.795898	2417.968262
3242.975586	2368.801758
3242.155273	2365.373291
3241.334961	2422.899414
3240.514648	2416.416016
3239.694336	2257.600098
3238.874023	2412.593994
3238.052734	2491.395264
3237.231445	2405.729004
3236.411133	2399.253174
3235.589844	2347.115723
3234.768555	2444.139404
3233.946289	2385.924805
3233.125000	2318.600586
3232.303711	2400.370117
3231.481445	2299.605225
3230.659180	2314.442627
3229.836914	2390.091797
3229.014648	2386.667480
3228.192383	2419.722656
3227.370117	2407.176758
3226.547852	2373.362549
3225.724609	2439.826172
3224.901367	2351.335205
3224.078125	2442.080078
3223.255859	2478.131104
3222.431641	2328.947754
3221.608398	2404.472412
3220.785156	2425.334717
3219.960938	2522.064453
3219.137695	2421.521240
3218.313477	2415.064453
3217.489258	2417.710205
3216.665039	2420.354980
3215.840820	2410.868652
3215.015625	2398.353271
3214.191406	2413.125977
3213.366211	2409.707275
3212.541992	2403.259277
3211.716797	2366.511963
3210.891602	2350.983887
3210.066406	2374.839355
3209.241211	2462.288818
3208.415039	2425.555420
3207.589844	2370.667725
3206.763672	2355.151123
3205.937500	2357.799561
3205.111328	2333.211182
3204.285156	2387.299561
3203.458984	2465.572510
3202.632813	2437.953613
3201.805664	2516.193115
3200.978516	2388.790039
3200.152344	2379.336426
3199.325195	2514.980957
3198.498047	2439.018799
3197.670898	2426.539551
3196.842773	2510.747803
3196.015625	2268.674805
3195.187500	2389.125977
3194.360352	2403.841553
3193.532227	2391.377930
3192.704102	2357.785400
3191.875977	2333.259277
3191.046875	2375.135742
3190.218750	2386.824219
3189.389648	2434.712646
3188.561523	2443.371094
3187.732422	2500.283203
3186.903320	2391.322021
3186.074219	2415.058350
3185.245117	2432.757813
3184.415039	2429.353027
3183.585938	2438.003418
3182.755859	2449.664307
3181.926758	2461.321289
3181.096680	2436.828613
3180.266602	2487.635498
3179.435547	2478.202393
3178.605469	2489.846924
3177.775391	2441.283447
3176.944336	2434.871826
3176.113281	2455.545410
3175.283203	2328.782715
3174.452148	2370.524658
3173.620117	2406.237305
3172.789063	2423.894531
3171.958008	2444.552979
3171.125977	2314.887207
3170.294922	2488.855469
3169.462891	2392.283203
3168.630859	2512.094971
3167.798828	2475.638184
3166.966797	2355.083252
3166.133789	2444.808350
3165.301758	2441.412354
3164.468750	2465.040039
3163.635742	2494.664063
3162.802734	2482.257080
3161.969727	2373.820801
3161.136719	2337.432617
3160.303711	2433.059326
3159.469727	2411.671387
3158.636719	2525.250000
3157.802734	2350.923828
3156.968750	2368.534912
3156.134766	2347.170410
3155.300781	2421.722900
3154.466797	2391.366699
3153.631836	2414.952148
3152.797852	2393.593750
3151.962891	2318.327881
3151.127930	2386.834961
3150.292969	2329.559814
3149.458008	2433.968994
3148.623047	2430.584473
3147.788086	2505.014893
3146.952148	2477.681152
3146.117188	2429.412598
3145.281250	2282.443359
3144.445313	2443.586426
3143.609375	2503.002441
3142.773438	2332.172363
3141.936523	2394.576660
3141.100586	2352.345703
3140.263672	2516.336182
3139.426758	2366.529785
3138.590820	2410.962646
3137.753906	2347.846436
3136.916016	2425.120850
3136.079102	2370.980713
3135.242188	2415.384277
3134.404297	2376.188965
3133.566406	2366.852783
3132.729492	2438.093262
3131.891602	2318.352295
3131.052734	2392.560791
3130.214844	2454.814209
3129.376953	2350.039551
3128.538086	2406.316162
3127.700195	2411.891846
3126.861328	2390.638184
3126.022461	2342.568115
3125.183594	2354.111084
3124.343750	2356.711914
3123.504883	2383.143311
3122.666016	2352.975830
3121.826172	2364.509277
3120.986328	2414.746582
3120.146484	2399.473145
3119.306641	2306.814941
3118.466797	2240.970703
3117.626953	2407.242676
3116.786133	2389.005127
3115.946289	2338.052490
3115.105469	2382.288574
3114.264648	2396.773926
3113.423828	2393.415283
3112.583008	2416.812256
3111.741211	2324.284424
3110.900391	2314.995361
3110.058594	2445.359375
3109.217773	2287.513672
3108.375977	2349.522705
3107.534180	2358.054443
3106.692383	2372.521973
3105.849609	2259.322754
3105.007813	2389.569336
3104.165039	2356.537842
3103.323242	2433.312744
3102.480469	2412.152588
3101.637695	2328.702637
3100.794922	2438.071045
3099.952148	2431.747803
3099.108398	2330.544434
3098.265625	2392.426025
3097.421875	2383.148926
3096.578125	2362.020020
3095.734375	2391.271973
3094.890625	2346.447021
3094.046875	2390.502686
3093.203125	2301.266357
3092.358398	2280.167236
3091.513672	2439.682617
3090.669922	2442.250488
3089.825195	2421.138916
3088.980469	2385.237305
3088.134766	2328.635010
3087.290039	2334.177246
3086.445313	2384.086426
3085.599609	2416.234863
3084.753906	2303.481201
3083.908203	2347.458252
3083.062500	2355.948730
3082.216797	2423.547119
3081.371094	2452.708008
3080.524414	2390.266846
3079.678711	2511.001221
3078.832031	2383.590576
3077.985352	2333.003418
3077.138672	2326.722656
3076.291992	2394.249268
3075.445313	2317.118896
3074.597656	2375.771484
3073.750977	2357.684326
3072.903320	2401.559814
3072.055664	2353.976074
3071.208008	2335.901123
3070.360352	2326.678467
3069.512695	2402.963135
3068.665039	2488.066895
3067.816406	2372.715088
3066.967773	2331.075439
3066.120117	2292.395508
3065.271484	2348.001709
3064.421875	2309.331299
3063.573242	2447.379639
3062.724609	2417.539307
3061.875000	2340.602295
3061.026367	2322.563721
3060.176758	2375.167725
3059.327148	2427.754639
3058.477539	2347.922852
3057.627930	2276.942139
3056.777344	2355.991211
3055.927734	2420.310547
3055.077148	2293.485352
3054.226563	2404.832275
3053.375977	2389.748047
3052.525391	2386.424561
3051.674805	2350.778809
3050.824219	2382.718506
3049.972656	2464.585693
3049.122070	2343.769775
3048.270508	2407.997314
3047.418945	2307.782227
3046.567383	2357.316406
3045.715820	2389.223877
3044.864258	2306.667969
3044.011719	2232.941162
3043.159180	2302.991699
3042.307617	2270.354980
3041.455078	2325.712891
3040.602539	2378.120361
3039.750000	2453.965820
3038.896484	2265.962158
3038.043945	2412.143066
3037.190430	2382.450439
3036.337891	2402.576660
3035.484375	2416.837402
3034.630859	2343.222656
3033.777344	2301.845703
3032.922852	2336.612061
3032.069336	2397.715820
3031.214844	2356.349854
3030.361328	2373.530518
3029.506836	2273.657471
3028.652344	2460.538086
3027.797852	2328.505371
3026.942383	2336.904785
3026.087891	2263.420654
3025.232422	2353.695557
3024.377930	2365.010010
3023.522461	2329.554443
3022.666992	2253.196045
3021.811523	2314.194580
3020.955078	2252.470459
3020.099609	2366.027588
3019.243164	2389.011230
3018.387695	2347.745361
3017.531250	2338.608398
3016.674805	2279.849121
3015.818359	2387.472656
3014.961914	2354.988037
3014.104492	2348.773438
3013.248047	2292.967041
3012.390625	2345.100098
3011.533203	2190.157471
3010.675781	2335.597412
3009.818359	2300.236572
3008.960938	2387.313477
3008.102539	2331.554688
3007.245117	2409.856445
3006.386719	2260.879639
3005.528320	2266.341553
3004.669922	2283.451904
3003.811523	2338.414063
3002.953125	2244.865234
3002.094727	2264.881836
3001.235352	2404.230225
3000.376953	2313.625977
2999.517578	2368.538574
2998.658203	2254.695068
2997.798828	2367.775635
2996.939453	2358.669189
2996.079102	2265.237305
2995.219727	2357.909424
2994.359375	2409.854492
2993.499023	2281.581543
2992.638672	2284.119873
2991.778320	2353.484863
2990.917969	2300.814453
2990.057617	2320.776123
2989.196289	2271.031982
2988.335938	2320.028320
2987.474609	2281.913086
2986.613281	2316.378174
2985.751953	2333.418701
2984.890625	2353.355225
2984.028320	2402.298584
2983.166992	2335.191895
2982.304688	2424.727783
2981.442383	2305.440186
2980.580078	2409.449219
2979.717773	2298.899170
2978.855469	2286.934814
2977.993164	2402.488525
2977.129883	2332.559326
2976.267578	2329.286377
2975.404297	2224.631348
2974.541016	2380.666992
2973.677734	2226.810059
2972.814453	2330.680420
2971.950195	2411.359131
2971.086914	2274.937256
2970.222656	2352.704834
2969.358398	2329.178467
2968.494141	2380.875732
2967.629883	2299.503418
2966.765625	2383.000488
2965.901367	2321.894287
2965.036133	2333.084473
2964.171875	2306.693115
2963.306641	2352.563232
2962.441406	2303.059814
2961.576172	2504.932373
2960.710938	2391.868164
2959.844727	2313.499512
2958.979492	2324.677734
2958.113281	2477.331787
2957.248047	2321.041504
2956.381836	2340.872314
2955.515625	2415.529297
2954.648438	2371.857910
2953.782227	2322.430420
2952.915039	2232.635254
2952.048828	2359.174805
2951.181641	2358.794434
2950.314453	2352.647949
2949.447266	2366.682129
2948.580078	2349.007324
2947.712891	2282.348145
2946.844727	2345.368652
2945.976563	2442.938477
2945.109375	2206.355225
2944.241211	2349.994141
2943.373047	2441.757080
2942.503906	2403.936768
2941.635742	2403.549316
2940.767578	2400.283691
2939.898438	2399.896729
2939.029297	2321.827881
2938.160156	2436.519287
2937.291016	2378.602783
2936.421875	2372.467773
2935.552734	2412.338867
2934.682617	2296.958008
2933.812500	2331.079590
2932.943359	2379.559570
2932.073242	2407.909668
2931.203125	2447.742676
2930.332031	2286.489258
2929.461914	2317.712646
2928.591797	2386.256104
2927.720703	2357.160400
2926.849609	2276.402832
2925.978516	2379.361328
2925.107422	2301.495850
2924.236328	2315.470947
2923.365234	2444.192139
2922.493164	2271.699463
2921.621094	2383.178955
2920.750000	2365.590332
2919.877930	2388.144043
2919.005859	2244.436035
2918.132813	2367.311768
2917.260742	2269.501953
2916.387695	2426.714600
2915.515625	2348.978760
2914.642578	2380.105469
2913.769531	2399.767334
2912.896484	2482.413574
2912.023438	2461.973877
2911.149414	2484.475098
2910.276367	2395.357422
2909.402344	2337.743408
2908.528320	2386.001709
2907.654297	2325.547363
2906.780273	2436.711914
2905.906250	2450.616455
2905.032227	2510.261475
2904.157227	2361.208984
2903.282227	2437.997803
2902.407227	2323.297119
2901.532227	2382.924072
2900.657227	2368.255615
2899.782227	2402.149170
2898.907227	2347.500488
2898.031250	2287.158936
2897.155273	2440.955322
2896.280273	2374.908936
2895.404297	2408.773682
2894.527344	2279.975830
2893.651367	2202.574951
2892.775391	2287.797852
2891.898438	2333.063232
2891.022461	2412.534180
2890.145508	2420.698486
2889.268555	2323.381592
2888.391602	2345.809082
2887.513672	2285.583496
2886.636719	2393.491699
2885.758789	2370.313965
2884.880859	2458.234131
2884.003906	2452.141357
2883.125977	2366.318848
2882.247070	2377.325439
2881.369141	2425.334473
2880.491211	2288.326416
2879.612305	2356.254395
2878.733398	2307.504639
2877.854492	2290.063232
2876.975586	2477.420166
2876.096680	2326.294434
2875.217773	2249.146484
2874.337891	2405.146484
2873.458984	2382.018066
2872.579102	2358.897217
2871.699219	2284.635254
2870.819336	2457.575195
2869.939453	2343.551758
2869.059570	2328.972168
2868.178711	2359.833496
2867.297852	2359.452637
2866.417969	2268.229004
2865.537109	2290.569580
2864.656250	2287.362061
2863.774414	2272.805420
2862.893555	2332.015381
2862.012695	2362.840820
2861.130859	2373.803711
2860.249023	2345.063965
2859.367188	2443.916260
2858.485352	2298.951416
2857.603516	2386.442139
2856.720703	2400.225586
2855.838867	2263.837891
2854.956055	2257.806396
2854.073242	2322.587646
2853.190430	2279.732910
2852.307617	2324.668945
2851.424805	2310.138184
2850.541992	2222.016846
2849.658203	2238.638672
2848.774414	2243.936523
2847.891602	2396.352295
2847.007813	2277.156982
2846.124023	2288.102295
2845.239258	2327.322754
2844.355469	2230.815430
2843.470703	2236.108887
2842.586914	2159.432617
2841.702148	2339.949707
2840.817383	2387.606201
2839.931641	2347.668945
2839.046875	2403.782959
2838.162109	2397.746338
2837.276367	2261.819092
2836.390625	2289.686768
2835.504883	2244.151367
2834.619141	2272.012695
2833.733398	2345.015625
2832.847656	2347.458252
2831.960938	2262.448730
2831.075195	2262.083008
2830.188477	2253.257324
2829.301758	2252.893311
2828.415039	2317.370605
2827.528320	2274.715088
2826.641602	2333.531494
2825.753906	2282.433594
2824.866211	2256.708496
2823.979492	2197.188721
2823.091797	2202.466797
2822.204102	2314.750732
2821.315430	2365.056396
2820.427734	2308.372559
2819.539063	2206.672607
2818.651367	2363.910156
2817.762695	2293.185059
2816.874023	2315.320557
2815.985352	2261.502930
2815.096680	2244.263184
2814.207031	2286.079102
2813.318359	2288.520996
2812.428711	2307.828125
2811.539063	2279.349854
2810.649414	2259.310791
2809.759766	2306.709229
2808.870117	2407.467041
2807.979492	2320.007324
2807.088867	2271.891602
2806.199219	2400.684082
2805.308594	2296.423584
2804.417969	2293.245361
2803.527344	2360.229736
2802.635742	2373.878174
2801.745117	2322.994629
2800.853516	2398.356689
2799.961914	2333.462158
2799.071289	2352.714111
2798.178711	2338.315186
2797.287109	2248.232178
2796.395508	2376.798828
2795.502930	2356.797852
2794.611328	2412.455322
2793.718750	2339.227051
2792.826172	2400.471191
2791.933594	2321.667236
2791.041016	2329.692139
2790.147461	2320.916504
2789.254883	2334.537354
2788.361328	2362.147217
2787.467773	2395.344971
2786.574219	2308.224365
2785.680664	2369.393799
2784.787109	2259.929688
2783.892578	2363.034424
2782.999023	2385.020752
2782.104492	2334.314453
2781.209961	2364.683350
2780.315430	2347.532715
2779.420898	2316.416748
2778.526367	2310.454346
2777.630859	2321.254150
2776.735352	2211.956543
2775.840820	2398.691162
2774.945313	2342.463623
2774.049805	2361.625488
2773.154297	2285.884521
2772.257813	2254.818115
2771.362305	2223.761475
2770.465820	2379.625732
2769.569336	2273.248779
2768.672852	2415.110596
2767.776367	2319.915527
2766.879883	2336.267822
2765.982422	2366.551758
2765.085938	2335.511963
2764.188477	2337.920654
2763.291016	2290.178711
2762.393555	2314.878906
2761.496094	2292.222900
2760.598633	2358.686035
2759.701172	2285.912598
2758.802734	2279.975098
2757.904297	2410.426025
2757.005859	2379.423584
2756.107422	2401.298584
2755.208984	2364.743164
2754.310547	2400.521484
2753.411133	2352.853516
2752.512695	2288.516602
2751.613281	2385.455078
2750.713867	2265.537598
2749.814453	2259.612305
2748.915039	2337.055908
2748.014648	2306.114502
2747.115234	2405.749512
2746.214844	2427.580566
2745.314453	2327.211914
2744.414063	2301.845459
2743.513672	2359.773193
2742.613281	2359.391113
2741.711914	2367.335205
2740.811523	2347.528076
2739.910156	2333.276123
2739.008789	2230.261963
2738.107422	2265.956543
2737.206055	2332.143311
2736.304688	2292.949219
2735.402344	2264.856445
2734.500977	2222.914063
2733.598633	2394.372559
2732.696289	2308.089600
2731.793945	2227.375244
2730.891602	2393.209961
2729.988281	2334.663574
2729.085938	2348.130615
2728.182617	2275.767578
2727.279297	2300.312256
2726.375977	2358.061035
2725.472656	2363.213623
2724.569336	2440.301025
2723.666016	2304.355469
2722.761719	2295.684570
2721.857422	2284.251221
2720.953125	2336.416016
2720.048828	2338.802246
2719.144531	2255.500732
2718.240234	2354.626709
2717.335938	2296.218262
2716.430664	2259.930664
2715.525391	2353.483154
2714.620117	2292.341064
2713.714844	2372.050781
2712.809570	2316.447266
2711.904297	2329.874756
2710.998047	2351.577881
2710.091797	2364.995117
2709.186523	2221.135010
2708.280273	2292.502197
2707.374023	2286.614258
2706.466797	2264.181152
2705.560547	2266.571777
2704.653320	2304.801758
2703.747070	2287.889648
2702.839844	2370.200439
2701.932617	2317.459961
2701.025391	2369.432373
2700.117188	2294.671631
2699.209961	2363.156250
2698.301758	2307.697266
2697.393555	2329.350342
2696.485352	2262.902588
2695.577148	2378.140137
2694.668945	2308.954102
2693.760742	2308.579834
2692.851563	2250.431885
2691.943359	2203.305420
2691.034180	2318.458984
2690.125000	2287.835449
2689.215820	2284.715332
2688.305664	2270.600586
2687.396484	2272.981201
2686.486328	2302.841064
2685.577148	2332.691162
2684.666992	2296.600342
2683.756836	2191.854248
2682.846680	2337.049805
2681.935547	2218.601807
2681.025391	2270.403809
2680.114258	2212.392822
2679.203125	2264.178955
2678.291992	2302.228271
2677.380859	2271.675781
2676.469727	2342.628906
2675.558594	2202.372559
2674.646484	2287.024902
2673.734375	2223.593018
2672.823242	2305.472900
2671.911133	2203.685791
2670.998047	2315.687256
2670.085938	2296.131836
2669.173828	2325.895020
2668.260742	2418.648193
2667.347656	2264.889893
2666.434570	2324.763916
2665.521484	2305.222412
2664.608398	2299.374023
2663.695313	2301.738037
2662.781250	2293.155518
2661.868164	2243.535400
2660.954102	2245.907227
2660.040039	2316.656494
2659.125977	2228.770752
2658.210938	2274.891602
2657.296875	2312.795898
2656.381836	2222.219971
2655.467773	2317.511719
2654.552734	2246.091553
2653.637695	2319.492188
2652.722656	2291.800049
2651.806641	2354.244873
2650.891602	2375.708496
2649.975586	2353.481201
2649.059570	2202.959717
2648.143555	2306.318604
2647.227539	2352.336182
2646.311523	2376.511230
2645.395508	2318.836670
2644.478516	2291.184570
2643.561523	2203.543945
2642.644531	2342.249023
2641.727539	2336.416504
2640.810547	2251.536865
2639.893555	2343.834717
2638.975586	2242.631592
2638.058594	2253.165771
2637.140625	2350.866455
2636.222656	2257.881836
2635.304688	2295.640137
2634.386719	2322.495117
2633.467773	2313.951416
2632.549805	2240.085938
2631.630859	2253.329590
2630.711914	2318.267334
2629.792969	2249.877930
2628.874023	2184.230713
2627.955078	2344.335449
2627.036133	2343.955078
2626.116211	2308.230713
2625.196289	2264.363037
2624.276367	2266.713379
2623.356445	2315.259521
2622.436523	2276.845703
2621.516602	2265.610107
2620.595703	2333.145264
2619.674805	2332.766602
2618.754883	2378.547119
2617.833984	2247.850830
2616.912109	2320.773682
2615.991211	2287.830078
2615.070313	2355.295410
2614.148438	2325.069824
2613.226563	2172.787109
2612.304688	2248.374756
2611.382813	2302.244141
2610.460938	2342.539551
2609.539063	2355.713379
2608.616211	2325.516602
2607.694336	2205.901123
2606.771484	2322.052246
2605.848633	2243.112061
2604.925781	2210.244385
2604.001953	2301.964111
2603.079102	2293.467041
2602.155273	2336.411621
2601.232422	2363.101074
2600.308594	2289.643799
2599.384766	2302.802002
2598.460938	2294.311279
2597.536133	2277.708008
2596.612305	2293.566406
2595.687500	2325.644775
2594.762695	2292.821533
2593.837891	2257.305420
2592.913086	2310.997314
2591.988281	2283.597168
2591.062500	2245.397705
2590.137695	2307.169922
2589.211914	2390.531494
2588.286133	2319.924316
2587.360352	2252.040283
2586.434570	2235.475342
2585.508789	2254.008301
2584.582031	2388.590820
2583.655273	2382.805664
2582.729492	2344.645264
2581.802734	2263.334717
2580.875977	2246.783691
2579.948242	2332.715820
2579.021484	2318.855225
2578.093750	2302.302979
2577.166016	2355.838379
2576.239258	2298.860107
2575.311523	2435.910645
2574.382813	2290.030762
2573.455078	2359.695313
2572.526367	2254.273926
2571.598633	2345.464355
2570.669922	2315.466797
2569.741211	2438.920898
2568.812500	2387.385742
2567.883789	2241.678711
2566.954102	2322.034180
2566.025391	2195.216797
2565.095703	2342.797852
2564.166016	2385.446533
2563.236328	2333.969727
2562.306641	2285.197998
2561.375977	2357.403564
2560.446289	2249.516602
2559.515625	2208.843750
2558.584961	2337.447266
2557.654297	2296.773193
2556.723633	2301.771484
2555.792969	2341.678467
2554.861328	2521.191162
2553.930664	2330.179199
2552.999023	2348.589111
2552.067383	2442.135742
2551.135742	2380.024414
2550.204102	2344.761230
2549.271484	2352.427246
2548.339844	2362.772461
2547.407227	2351.662354
2546.474609	2235.994873
2545.541992	2299.966064
2544.609375	2304.952637
2543.676758	2317.976563
2542.743164	2309.561768
2541.810547	2263.645508
2540.876953	2276.669678
2539.943359	2289.689453
2539.009766	2286.639404
2538.076172	2264.850586
2537.141602	2307.309570
2536.208008	2306.934326
2535.273438	2287.828369
2534.338867	2322.236328
2533.404297	2305.809082
2532.469727	2350.900879
2531.535156	2323.777588
2530.599609	2384.893555
2529.664063	2408.564697
2528.729492	2263.843018
2527.793945	2365.023682
2526.857422	2348.607666
2525.921875	2262.738525
2524.986328	2454.685303
2524.049805	2350.132324
2523.113281	2379.122070
2522.177734	2330.679688
2521.241211	2250.221680
2520.303711	2396.643311
2519.367188	2214.799805
2518.429688	2371.851563
2517.493164	2374.133301
2516.555664	2283.064453
2515.618164	2256.026123
2514.680664	2276.989258
2513.742188	2329.935303
2512.804688	2382.864258
2511.866211	2337.172119
2510.928711	2366.101563
2509.990234	2267.145020
2509.051758	2445.241455
2508.112305	2330.324707
2507.173828	2343.259521
2506.234375	2324.241699
2505.295898	2337.173096
2504.356445	2286.224365
2503.416992	2323.107178
2502.477539	2288.140869
2501.537109	2287.768555
2500.597656	2375.168457
2499.657227	2321.595215
2498.716797	2262.721680
2497.776367	2302.230225
2496.835938	2386.912598
2495.895508	2306.796143
2494.955078	2356.906738
2494.013672	2314.015381
2493.072266	2233.949707
2492.130859	2339.820801
2491.189453	2286.331055
2490.248047	2461.189209
2489.306641	2330.714355
2488.364258	2317.064209
2487.421875	2284.842529
2486.480469	2318.963135
2485.538086	2345.114014
2484.594727	2357.994385
2483.652344	2333.742432
2482.709961	2235.255371
2481.766602	2367.447021
2480.823242	2295.493164
2479.879883	2313.671143
2478.936523	2366.290771
2477.993164	2323.515137
2477.049805	2333.732666
2476.105469	2341.298096
2475.161133	2306.491699
2474.216797	2359.069336
2473.272461	2276.620850
2472.328125	2239.194824
2471.383789	2273.232910
2470.438477	2331.073486
2469.494141	2298.947754
2468.548828	2401.731201
2467.603516	2224.148682
2466.658203	2337.487793
2465.711914	2302.737793
2464.766602	2328.796143
2463.820313	2291.415771
2462.874023	2351.819824
2461.927734	2317.089844
2460.981445	2200.480713
2460.035156	2223.892822
2459.088867	2226.171387
2458.141602	2273.334961
2457.194336	2262.404785
2456.247070	2256.757324
2455.299805	2361.951660
2454.352539	2285.046631
2453.405273	2242.463379
2452.457031	2331.781738
2451.509766	2252.281738
2450.561523	2375.849365
2449.613281	2341.187988
2448.665039	2382.983154
2447.715820	2300.890625
2446.767578	2245.177002
2445.818359	2315.949463
2444.870117	2299.765869
2443.920898	2230.909912
2442.970703	2312.183594
2442.021484	2251.247070
2441.072266	2200.860352
2440.122070	2303.156738
2439.171875	2305.413086
2438.222656	2265.567383
2437.272461	2283.614258
2436.321289	2304.285889
2435.371094	2296.020020
2434.419922	2229.905518
2433.469727	2324.192383
2432.518555	2255.466064
2431.567383	2213.045166
2430.616211	2241.591309
2429.664063	2154.519531
2428.712891	2238.233398
2427.760742	2274.640869
2426.808594	2284.774658
2425.856445	2242.390137
2424.904297	2244.649902
2423.952148	2296.781738
2423.000000	2131.065674
2422.046875	2324.896973
2421.093750	2237.938721
2420.140625	2185.110107
2419.187500	2247.699951
2418.234375	2239.466309
2417.281250	2364.952148
2416.327148	2264.950684
2415.373047	2277.686523
2414.419922	2235.385010
2413.465820	2329.347168
2412.510742	2203.218750
2411.556641	2184.523926
2410.601563	2283.686035
2409.647461	2338.301758
2408.692383	2167.746826
2407.737305	2253.774902
2406.782227	2248.172852
2405.827148	2232.105225
2404.871094	2202.961426
2403.916016	2278.463623
2402.958984	2270.245361
2402.003906	2335.251465
2401.046875	2287.807129
2400.091797	2219.464355
2399.134766	2268.763916
2398.177734	2385.994873
2397.220703	2249.733154
2396.263672	2275.490967
2395.306641	2293.404297
2394.349609	2293.030029
2393.392578	2256.098633
2392.435547	2302.724854
2391.476563	2331.063232
2390.519531	2252.384277
2389.560547	2291.159424
2388.603516	2191.639893
2387.644531	2308.672363
2386.685547	2300.470703
2385.728516	2206.213867
2384.769531	2354.475098
2383.810547	2294.130615
2382.851563	2267.690674
2381.890625	2311.624268
2380.931641	2212.230713
2379.972656	2277.001221
2379.013672	2255.790771
2378.052734	2159.059082
2377.093750	2281.094238
2376.132813	2267.703857
2375.171875	2238.699219
2374.210938	2240.936279
2373.250000	2237.968262
2372.291016	2414.529541
2371.330078	2286.664795
2370.367188	2208.260742
2369.406250	2309.323242
2368.445313	2282.944580
2367.484375	2220.177979
2366.521484	2453.753662
2365.560547	2266.232910
2364.597656	2395.786133
2363.634766	2213.531738
2362.673828	2239.146484
2361.710938	2407.598389
2360.748047	2259.189209
2359.785156	2253.627441
2358.822266	2346.712646
2357.859375	2263.273438
2356.894531	2268.093750
2355.931641	2265.128662
2354.968750	2205.091309
2354.003906	2342.202637
2353.041016	2245.864990
2352.076172	2214.382568
2351.111328	2239.946289
2350.146484	2226.619629
2349.181641	2246.989258
2348.218750	2275.126221
2347.251953	2238.482666
2346.287109	2295.105957
2345.322266	2261.061035
2344.357422	2234.795898
2343.390625	2286.213623
2342.425781	2296.194824
2341.458984	2298.407959
2340.494141	2336.850586
2339.527344	2235.557861
2338.560547	2292.107178
2337.595703	2250.346924
2336.628906	2213.772705
2335.662109	2239.268311
2334.693359	2311.291748
2333.726563	2194.592773
2332.759766	2326.043213
2331.792969	2343.751465
2330.824219	2327.866455
2329.857422	2423.065430
2328.888672	2469.159668
2327.921875	2466.173584
2326.953125	2223.066406
2325.984375	2292.404297
2325.015625	2178.460693
2324.046875	2281.332031
2323.078125	2231.934082
2322.109375	2272.846680
2321.140625	2184.774414
2320.169922	2205.049316
2319.201172	2191.795898
2318.230469	2261.047852
2317.261719	2206.545410
2316.291016	2208.761963
2315.320313	2283.130859
2314.351563	2277.604492
2313.380859	2202.526367
2312.410156	2215.044434
2311.439453	2188.929932
2310.468750	2198.871094
2309.496094	2319.506836
2308.525391	2216.169678
2307.554688	2172.057129
2306.582031	2102.228027
2305.611328	2158.483154
2304.638672	2173.563721
2303.666016	2234.932373
2302.695313	2190.852539
2301.722656	2177.639160
2300.750000	2262.112061
2299.777344	2269.452393
2298.804688	2217.686279
2297.832031	2219.892822
2296.857422	2252.925293
2295.884766	2255.125244
2294.912109	2198.259033
2293.937500	2221.008057
2292.962891	2179.569092
2291.990234	2225.414795
2291.015625	2237.882568
2290.041016	2216.988525
2289.066406	2262.805420
2288.091797	2203.437500
2287.117188	2226.159180
2286.142578	2269.387451
2285.167969	2317.729492
2284.191406	2235.320068
2283.216797	2137.559326
2282.240234	2242.276123
2281.265625	2267.531006
2280.289063	2169.812744
2279.314453	2292.402100
2278.337891	2220.321045
2277.361328	2178.989502
2276.384766	2286.156250
2275.408203	2201.312988
2274.431641	2234.222900
2273.453125	2277.357178
2272.476563	2248.841797
2271.500000	2038.718384
2270.521484	2273.681152
2269.544922	2199.151611
2268.566406	2070.954590
2267.587891	2239.332520
2266.609375	2259.412842
2265.632813	2195.156006
2264.654297	2332.769775
2263.675781	2196.991699
2262.695313	2291.138184
2261.716797	2224.364014
2260.738281	2142.291260
2259.759766	2236.400391
2258.779297	2146.694824
2257.800781	2197.385742
2256.820313	2276.129150
2255.839844	2252.794434
2254.859375	2145.288574
2253.880859	2226.552002
2252.900391	2223.637207
2251.919922	2195.227051
2250.937500	2222.908691
2249.957031	2222.544434
2248.976563	2155.922852
2247.996094	2130.090088
2247.013672	2280.045654
2246.033203	2241.465332
2245.050781	2297.125488
2244.068359	2166.888672
2243.087891	2181.808838
2242.105469	2275.632813
2241.123047	2300.710449
2240.140625	2132.388672
2239.158203	2180.378906
2238.173828	2187.653076
2237.191406	2220.358398
2236.208984	2240.337891
2235.224609	2176.407471
2234.242188	2247.229980
2233.257813	2292.612305
2232.275391	2249.034668
2231.291016	2169.899170
2230.306641	2222.893066
2229.322266	2209.828613
2228.337891	2232.322754
2227.353516	2193.868896
2226.369141	2226.513428
2225.384766	2292.145996
2224.398438	2243.549072
2223.414063	2184.817871
2222.427734	2278.333252
2221.443359	2212.005371
2220.457031	2221.787842
2219.470703	2150.419189
2218.484375	2276.839355
2217.498047	2195.344727
2216.511719	2164.569336
2215.525391	2161.680176
2214.539063	2229.738037
2213.552734	2305.373779
2212.566406	2130.221191
2211.578125	2137.469482
2210.591797	2276.386230
2209.603516	2210.188232
2208.615234	2184.512695
2207.628906	2196.808838
2206.640625	2231.875000
2205.652344	2256.809570
2204.664063	2160.312988
2203.675781	2215.601563
2202.687500	2177.306152
2201.697266	2207.289551
2200.708984	2234.735352
2199.720703	2289.975098
2198.730469	2160.714844
2197.742188	2137.619629
2196.751953	2233.269043
2195.761719	2139.444092
2194.771484	2235.061768
2193.781250	2146.317383
2192.791016	2145.965088
2191.800781	2153.185791
2190.810547	2210.880615
2189.820313	2255.939453
2188.830078	2227.816162
2187.837891	2156.817871
2186.847656	2295.183838
2185.855469	2196.458252
2184.863281	2196.097900
2183.873047	2147.839600
2182.880859	2238.225830
2181.888672	2217.697754
2180.896484	2202.215576
2179.904297	2214.450439
2178.912109	2209.049072
2177.917969	2254.018799
2176.925781	2190.697754
2175.933594	2223.067139
2174.939453	2255.426025
2173.947266	2136.766113
2172.953125	2232.038086
2171.958984	2186.384033
2170.964844	2271.554199
2169.970703	2230.938721
2168.976563	2147.586182
2167.982422	2283.007080
2166.988281	2169.506104
2165.994141	2133.960938
2165.000000	2181.359131
2164.003906	2216.178223
2163.009766	2190.691895
2162.013672	2235.545166
2161.017578	2240.200928
2160.023438	2305.119629
2159.027344	2259.550049
2158.031250	2306.872803
2157.035156	2238.729492
2156.039063	2253.418213
2155.042969	2338.352783
2154.044922	2232.609375
2153.048828	2312.503174
2152.052734	2304.600098
2151.054688	2256.582520
2150.058594	2328.911865
2149.060547	2295.944824
2148.062500	2333.158936
2147.064453	2227.537598
2146.066406	2227.171631
2145.068359	2231.815430
2144.070313	2269.015137
2143.072266	2261.130127
2142.074219	2300.816406
2141.074219	2235.355225
2140.076172	2300.060303
2139.078125	2272.156250
2138.078125	2211.735596
2137.078125	2248.895508
2136.078125	2158.484619
2135.080078	2270.662842
2134.080078	2227.784180
2133.080078	2209.918701
2132.080078	2267.043945
2131.078125	2374.131836
2130.078125	2243.810547
2129.078125	2310.894775
2128.076172	2180.626465
2127.076172	2312.632568
2126.074219	2347.210693
2125.074219	2229.483643
2124.072266	2353.927734
2123.070313	2273.675049
2122.068359	2210.916504
2121.066406	2213.047852
2120.064453	2252.597168
2119.062500	2322.063232
2118.058594	2249.362549
2117.056641	2209.099365
2116.052734	2236.158203
2115.050781	2315.551270
2114.046875	2275.296631
2113.044922	2257.480469
2112.041016	2319.391602
2111.037109	2348.900635
2110.033203	2301.195313
2109.029297	2273.426025
2108.025391	2163.507568
2107.021484	2232.850342
2106.015625	2187.684082
2105.011719	2261.977051
2104.005859	2264.092773
2103.001953	2151.778076
2101.996094	2310.604736
2100.992188	2302.764160
2099.986328	2235.253174
2098.980469	2237.371338
2097.974609	2276.772217
2096.968750	2224.209473
2095.962891	2211.419678
2094.955078	2327.819580
2093.949219	2168.465332
2092.943359	2217.778809
2091.935547	2274.525391
2090.929688	2276.633789
2089.921875	2216.684082
2088.914063	2193.982422
2087.906250	2233.324707
2086.900391	2297.464844
2085.892578	2272.280273
2084.882813	2309.109863
2083.875000	2266.572510
2082.867188	2268.678955
2081.859375	2221.204102
2080.849609	2260.496094
2079.841797	2265.080566
2078.832031	2217.629395
2077.824219	2217.264404
2076.814453	2229.284180
2075.804688	2241.300049
2074.794922	2312.739990
2073.785156	2312.359131
2072.775391	2262.471436
2071.765625	2232.399414
2070.753906	2281.522705
2069.744141	2204.448975
2068.734375	2231.296875
2067.722656	2186.409668
2066.712891	2136.591553
2065.701172	2188.162109
2064.689453	2210.050537
2063.677734	2313.497314
2062.666016	2206.851318
2061.654297	2221.313232
2060.642578	2141.892334
2059.630859	2227.991699
2058.619141	2264.669434
2057.605469	2254.419189
2056.593750	2271.329834
2055.580078	2196.902832
2054.568359	2218.752930
2053.554688	2270.207520
2052.541016	2294.505615
2051.527344	2259.592285
2050.513672	2187.694336
2049.500000	2308.167480
2048.486328	2184.508057
2047.472656	2260.568604
2046.457031	2159.140381
2045.443359	2230.251221
2044.429688	2256.987305
2043.414063	2172.854492
2042.398438	2194.664551
2041.384766	2216.467529
2040.369141	2142.232178
2039.353516	2223.122803
2038.337891	2326.140381
2037.322266	2200.239990
2036.306641	2217.102295
2035.289063	2312.688965
2034.273438	2238.510498
2033.257813	2220.925049
2032.240234	2181.213623
2031.222656	2333.292480
2030.207031	2182.952637
2029.189453	2231.750244
2028.171875	2201.892822
2027.154297	2167.130859
2026.136719	2233.103271
2025.119141	2203.260010
2024.101563	2303.586426
2023.082031	2175.523438
2022.064453	2300.371826
2021.046875	2214.080322
2020.027344	2309.430176
2019.007813	2232.980713
2017.990234	2271.867188
2016.970703	2178.277832
2015.951172	2224.518066
2014.931641	2243.768799
2013.912109	2150.230225
2012.892578	2267.542725
2011.873047	2149.520996
2010.851563	2269.245361
2009.832031	2207.616455
2008.810547	2172.955322
2007.791016	2194.641113
2006.769531	2177.136230
2005.748047	2282.065430
2004.728516	2151.936279
2003.707031	2259.282715
2002.685547	2170.805176
2001.662109	2246.302490
2000.640625	2121.157715
1999.619141	2174.623047
1998.597656	2147.361084
1997.574219	2232.593506
1996.552734	2166.211670
1995.529297	2182.966064
1994.505859	2207.047119
1993.484375	2152.920898
1992.460938	2277.174805
1991.437500	2183.968018
1990.414063	2176.280029
1989.390625	2185.689209
1988.365234	2219.512451
1987.341797	2184.967773
1986.318359	2101.616455
1985.292969	2179.365479
1984.269531	2259.528809
1983.244141	2198.163574
1982.218750	2073.396729
1981.193359	2095.004395
1980.167969	2119.043457
1979.142578	2135.760010
1978.117188	2157.346436
1977.091797	2156.990234
1976.066406	2280.914795
1975.041016	2151.405029
1974.013672	2190.026855
1972.988281	2153.130127
1971.960938	2213.656250
1970.933594	2123.200684
1969.906250	2171.539307
1968.880859	2137.103760
1967.853516	2170.822021
1966.826172	2114.498535
1965.796875	2140.910645
1964.769531	2213.530518
1963.742188	2164.523926
1962.714844	2149.576416
1961.685547	2049.540283
1960.658203	2190.190674
1959.628906	2124.206787
1958.599609	2114.135742
1957.570313	2072.482422
1956.541016	2171.738770
1955.511719	2181.095215
1954.482422	2105.453369
1953.453125	2209.510986
1952.423828	2126.606445
1951.394531	2123.827637
1950.363281	2191.427979
1949.333984	2288.123047
1948.302734	2108.218750
1947.271484	2185.490479
1946.240234	2071.143555
1945.210938	2155.670166
1944.179688	2174.709229
1943.148438	2133.141357
1942.115234	2149.753906
1941.083984	2091.241211
1940.052734	2069.090088
1939.021484	2187.446777
1937.988281	2170.131104
1936.955078	2094.701904
1935.923828	2079.828369
1934.890625	2140.004883
1933.857422	2161.435059
1932.824219	2095.737061
1931.791016	2107.488525
1930.757813	2102.301758
1929.724609	2034.227051
1928.691406	2104.024902
1927.656250	2156.873291
1926.623047	2074.317627
1925.587891	2146.491211
1924.554688	2279.061279
1923.519531	2046.707886
1922.484375	2179.250488
1921.449219	2195.799316
1920.414063	2142.301270
1919.378906	2144.361816
1918.343750	2160.907959
1917.308594	2206.416992
1916.273438	2169.847656
1915.236328	2101.918457
1914.201172	2173.955322
1913.164063	2180.833008
1912.126953	2194.944336
1911.091797	2151.171875
1910.054688	2179.750732
1909.017578	2174.568359
1907.980469	2077.791260
1906.943359	2193.128906
1905.906250	2139.754150
1904.867188	2156.264648
1903.830078	2228.172852
1902.791016	2230.212402
1901.753906	2162.418213
1900.714844	2157.245117
1899.677734	2077.449219
1898.638672	2166.158447
1897.599609	2045.477661
1896.560547	2117.320557
1895.521484	2205.979004
1894.482422	2140.672119
1893.441406	2270.179688
1892.402344	2147.176758
1891.363281	2149.225098
1890.322266	2115.218262
1889.281250	2194.175537
1888.242188	2205.826416
1887.201172	2186.241455
1886.160156	2238.725098
1885.119141	2223.944336
1884.078125	2127.525146
1883.037109	2141.578125
1881.996094	2090.813477
1880.953125	2184.070313
1879.912109	2190.907471
1878.869141	2108.968994
1877.828125	2103.822021
1876.785156	2156.240234
1875.742188	2122.309814
1874.701172	2205.877686
1873.658203	2164.758057
1872.615234	2092.492676
1871.572266	2130.489990
1870.527344	2127.740967
1869.484375	2120.201172
1868.441406	2100.687500
1867.396484	2071.600586
1866.353516	2066.468262
1865.308594	2142.737793
1864.263672	2218.981689
1863.218750	2086.981201
1862.175781	2151.244385
1861.130859	2095.859619
1860.083984	2081.159424
1859.039063	2076.031006
1857.994141	2183.297607
1856.949219	2180.544678
1855.902344	2017.625854
1854.857422	2079.435547
1853.810547	2148.393799
1852.763672	2162.373779
1851.718750	2138.125732
1850.671875	2214.205566
1849.625000	2070.548096
1848.578125	2129.899170
1847.529297	2093.735352
1846.482422	2081.453369
1845.435547	2050.082520
1844.388672	1990.087769
1843.339844	2125.748535
1842.291016	2099.156494
1841.244141	2210.903809
1840.195313	2158.075684
1839.146484	2052.812256
1838.097656	2050.087891
1837.048828	2099.800049
1836.000000	2118.516113
1834.951172	2127.695313
1833.900391	2010.612427
1832.851563	2088.879883
1831.802734	2162.358398
1830.751953	2090.568115
1829.701172	2035.466064
1828.652344	2061.311279
1827.601563	2132.365479
1826.550781	2124.873291
1825.500000	2100.729980
1824.449219	2109.896240
1823.396484	2109.546143
1822.345703	2078.283447
1821.294922	2025.633667
1820.242188	2129.890381
1819.191406	2079.625977
1818.138672	2069.775635
1817.085938	2083.687744
1816.035156	2038.206787
1814.982422	2056.869629
1813.929688	2158.642334
1812.875000	2098.925293
1811.822266	2110.446533
1810.769531	2088.734375
1809.716797	2140.597412
1808.662109	2061.940430
1807.609375	2014.150635
1806.554688	2099.207764
1805.500000	2124.946777
1804.447266	2103.253174
1803.392578	2100.533203
1802.337891	2114.406982
1801.283203	2014.515137
1800.226563	2217.968506
1799.171875	2110.984863
1798.117188	2032.462646
1797.060547	2091.336182
1796.005859	2005.739136
1794.949219	2135.627197
1793.892578	2187.352295
1792.837891	2099.414795
1791.781250	2037.537842
1790.724609	2098.717529
1789.667969	2008.472778
1788.611328	2114.577637
1787.552734	2118.956299
1786.496094	2012.201050
1785.439453	2011.866821
1784.380859	2058.807129
1783.322266	2117.548584
1782.265625	2015.590332
1781.207031	2123.932617
1780.148438	2092.871826
1779.089844	2090.162354
1778.031250	2096.899170
1776.972656	2080.023926
1775.914063	2001.778931
1774.853516	2025.048218
1773.794922	2093.145996
1772.734375	2144.705322
1771.675781	2101.886475
1770.615234	2125.123535
1769.554688	2077.605469
1768.494141	2178.647461
1767.435547	2095.774658
1766.373047	2102.497559
1765.312500	1986.671265
1764.251953	2071.166992
1763.191406	2073.178467
1762.128906	2086.966797
1761.068359	2027.742432
1760.005859	2053.307129
1758.945313	2071.800293
1757.882813	2102.056885
1756.820313	2132.303467
1755.757813	2073.120361
1754.695313	2164.532959
1753.632813	2159.468262
1752.570313	2076.790283
1751.505859	2092.906006
1750.443359	2097.260254
1749.378906	2056.947998
1748.316406	2103.614014
1747.251953	2133.814453
1746.187500	2100.564697
1745.125000	2069.675293
1744.060547	2048.191406
1742.996094	2078.380615
1741.929688	2115.604004
1740.865234	2110.556641
1739.800781	2058.565430
1738.734375	2112.201416
1737.669922	2050.841064
1736.603516	2118.537109
1735.539063	2092.381592
1734.472656	2169.429443
1733.406250	1981.473267
1732.339844	2178.085693
1731.273438	2109.742676
1730.207031	2121.110352
1729.140625	2134.817627
1728.072266	2082.916748
1727.005859	2159.875732
1725.939453	2115.014404
1724.871094	2035.040527
1723.802734	2041.726074
1722.736328	2106.935303
1721.667969	2015.299316
1720.599609	2124.956055
1719.531250	2138.641602
1718.462891	2051.724854
1717.392578	2224.476074
1716.324219	2032.332153
1715.255859	2160.601074
1714.185547	2108.806885
1713.117188	2155.206543
1712.046875	2096.418945
1710.976563	2018.957031
1709.906250	2147.121094
1708.835938	2151.435547
1707.765625	2097.358643
1706.695313	2085.333496
1705.625000	2110.668945
1704.554688	2150.002686
1703.482422	2156.646729
1702.412109	2149.286621
1701.339844	2074.264404
1700.267578	2106.579102
1699.197266	2094.565674
1698.125000	2266.791504
1697.052734	2107.858154
1695.980469	2142.476807
1694.908203	2032.566406
1693.833984	2078.838379
1692.761719	2076.162109
1691.689453	2206.282715
1690.615234	2119.728271
1689.542969	2077.453369
1688.468750	2018.892334
1687.394531	2148.935547
1686.320313	2074.087158
1685.246094	2108.653076
1684.171875	2108.301758
1683.097656	2114.930176
1682.023438	2147.145508
1680.947266	2232.845215
1679.873047	2141.778809
1678.798828	2208.849854
1677.722656	2150.363770
1676.646484	2115.140381
1675.570313	2091.548340
1674.496094	2130.700195
1673.419922	2195.393555
1672.343750	2097.470947
1671.265625	2136.601807
1670.189453	2036.399414
1669.113281	2156.783936
1668.035156	2186.600342
1666.958984	2098.043701
1665.880859	2090.732422
1664.804688	2139.105225
1663.726563	2164.265137
1662.648438	2073.451660
1661.570313	2059.192383
1660.492188	2181.730713
1659.414063	2155.867188
1658.333984	2074.386475
1657.255859	2143.561279
1656.177734	2096.864258
1655.097656	2089.564697
1654.017578	2068.370361
1652.939453	2107.394287
1651.859375	2144.089600
1650.779297	2120.581299
1649.699219	2027.641235
1648.619141	2152.273682
1647.539063	2121.833984
1646.457031	2126.106934
1645.376953	2181.266846
1644.296875	2141.586670
1643.214844	2092.669922
1642.132813	2120.064209
1641.052734	2138.203125
1639.970703	2052.332275
1638.888672	2054.300537
1637.806641	2123.270020
1636.724609	2102.125488
1635.642578	2201.089111
1634.558594	2126.825684
1633.476563	2144.941650
1632.392578	2100.722168
1631.310547	2077.290527
1630.226563	2106.944092
1629.142578	2071.982422
1628.060547	2113.161377
1626.976563	2078.210205
1625.892578	2087.087891
1624.806641	2086.739502
1623.722656	1994.174805
1622.638672	2097.567627
1621.554688	2044.210815
1620.468750	2050.782227
1619.382813	2066.566650
1618.298828	2054.704102
1617.212891	2153.394043
1616.126953	2047.109741
1615.041016	2058.279541
1613.955078	2103.974609
1612.869141	2080.607422
1611.783203	2054.947021
1610.695313	2010.888794
1609.609375	2070.363281
1608.521484	2155.118164
1607.435547	2136.361084
1606.347656	2046.333252
1605.259766	2089.669922
1604.171875	2018.067749
1603.085938	2022.326782
1601.996094	1971.439087
1600.908203	2042.326904
1599.820313	1973.077148
1598.732422	2004.899292
1597.642578	2121.669434
1596.554688	2001.933472
1595.464844	2075.052002
1594.375000	2168.801270
1593.285156	1934.385132
1592.197266	2005.183838
1591.107422	2071.371094
1590.015625	2015.980957
1588.925781	2056.919922
1587.835938	1923.597900
1586.746094	2076.863281
1585.654297	2055.888428
1584.564453	2057.836426
1583.472656	1965.844482
1582.380859	2098.382813
1581.289063	2033.899902
1580.197266	2001.499146
1579.105469	1998.874878
1578.013672	2023.722656
1576.921875	2101.206543
1575.830078	2116.874756
1574.736328	2070.758057
1573.644531	2093.289307
1572.550781	2060.916016
1571.457031	2097.163086
1570.365234	2096.812256
1569.271484	2064.454346
1568.177734	2137.255859
1567.083984	2139.183594
1565.990234	2129.685547
1564.894531	2053.934570
1563.800781	1980.493042
1562.707031	2096.641846
1561.611328	2160.230225
1560.515625	2077.675049
1559.421875	2145.810547
1558.326172	2122.627686
1557.230469	2078.914063
1556.134766	2183.521240
1555.039063	2160.343262
1553.943359	2057.342773
1552.845703	2214.351807
1551.750000	2125.057129
1550.654297	2193.093018
1549.556641	2053.686279
1548.458984	2117.153320
1547.363281	2155.534668
1546.265625	2070.880615
1545.167969	2168.479980
1544.070313	2090.684082
1542.972656	2099.442383
1541.873047	2153.730957
1540.775391	2182.962158
1539.677734	2080.180664
1538.578125	2059.352539
1537.480469	2170.489990
1536.380859	2060.937744
1535.281250	2110.628906
1534.181641	2121.645508
1533.082031	2128.111084
1531.982422	2109.568604
1530.882813	2143.308105
1529.783203	2115.679443
1528.681641	2019.896851
1527.582031	2135.416260
1526.480469	2064.646973
1525.380859	2159.681396
1524.279297	2048.061279
1523.177734	2111.283691
1522.076172	2124.548828
1520.974609	2065.187500
1519.873047	2094.339111
1518.771484	2080.376221
1517.669922	2059.612793
1516.566406	2047.928101
1515.464844	2029.444702
1514.361328	2015.501587
1513.257813	2087.700684
1512.156250	2069.219482
1511.052734	2016.754395
1509.949219	2000.556885
1508.845703	2077.240234
1507.742188	2076.892090
1506.636719	2024.460449
1505.533203	2182.609375
1504.429688	2035.100464
1503.324219	2037.022705
1502.218750	2063.836914
1501.115234	1993.350220
1500.009766	2051.833740
1498.904297	2022.085815
1497.798828	2026.269653
1496.693359	2014.624390
1495.587891	2111.496826
1494.480469	2009.428223
1493.375000	2033.950562
1492.269531	2017.792480
1491.162109	1936.123291
1490.054688	1985.492310
1488.949219	2064.204346
1487.841797	2016.439087
1486.734375	1970.947388
1485.626953	1979.645874
1484.519531	1936.432495
1483.410156	2017.342896
1482.302734	2010.235962
1481.195313	2012.154419
1480.085938	2043.392456
1478.976563	1957.358765
1477.869141	1972.812866
1476.759766	1936.413574
1475.650391	2014.974609
1474.541016	1949.284790
1473.431641	2039.082886
1472.322266	2095.059326
1471.210938	2128.493408
1470.101563	2130.388184
1468.990234	2028.707764
1467.880859	2073.392090
1466.769531	2091.051025
1465.658203	2052.441650
1464.548828	2013.845337
1463.437500	2013.507324
1462.326172	2004.171875
1461.212891	2030.822998
1460.101563	2048.470947
1458.990234	1989.673218
1457.876953	2014.065430
1456.765625	2002.489868
1455.652344	2017.883179
1454.541016	2057.985107
1453.427734	2151.985352
1452.314453	2034.834351
1451.201172	2038.983765
1450.087891	1915.155396
1448.972656	2009.116211
1447.859375	1970.623169
1446.746094	2086.983887
1445.630859	2088.876953
1444.517578	2057.119629
1443.402344	2079.203369
1442.287109	2047.458252
1441.171875	1991.059692
1440.056641	2001.934204
1438.941406	2037.460693
1437.826172	1985.574097
1436.710938	2018.850708
1435.595703	1993.868164
1434.478516	2096.569580
1433.363281	2033.509888
1432.246094	2017.494019
1431.128906	2023.871338
1430.011719	2001.146973
1428.894531	2027.667114
1427.777344	1946.770264
1426.660156	2080.680664
1425.542969	1970.721924
1424.425781	2097.873291
1423.306641	2046.088989
1422.189453	1936.191528
1421.070313	2011.869995
1419.953125	2027.176880
1418.833984	2067.060059
1417.714844	2026.495361
1416.595703	2014.984985
1415.476563	2052.616211
1414.357422	2052.270996
1413.236328	2009.503174
1412.117188	2051.580811
1410.998047	1986.506958
1409.876953	1997.331177
1408.755859	1945.675781
1407.636719	1978.812134
1406.515625	1989.631958
1405.394531	2009.368652
1404.273438	1975.583984
1403.152344	2053.280762
1402.029297	1961.545166
1400.908203	2003.559570
1399.787109	2041.103271
1398.664063	1989.518066
1397.541016	1975.818115
1396.419922	1982.167114
1395.296875	2037.503052
1394.173828	1945.877686
1393.050781	1941.098145
1391.927734	1925.191895
1390.804688	1918.192017
1389.679688	1991.291138
1388.556641	1968.710693
1387.431641	1948.361938
1386.308594	1943.586426
1385.183594	2005.514648
1384.058594	1896.248413
1382.933594	1922.601074
1381.808594	2017.835693
1380.683594	1946.394897
1379.558594	1921.630249
1378.433594	1907.979736
1377.308594	1972.061401
1376.181641	1907.337280
1375.054688	1966.957275
1373.929688	1900.036011
1372.802734	1935.224731
1371.675781	1983.715088
1370.548828	1919.043213
1369.421875	1958.647095
1368.294922	1933.921387
1367.167969	1966.857056
1366.039063	1962.091675
1364.912109	2010.528076
1363.783203	2056.731934
1362.656250	1992.123413
1361.527344	1925.321045
1360.398438	1922.781494
1359.269531	1968.968628
1358.140625	1966.422363
1357.011719	2008.158325
1355.882813	1998.965210
1354.753906	2091.587891
1353.623047	2004.930420
1352.494141	1993.529663
1351.363281	1951.161987
1350.232422	1924.291138
1349.103516	1928.389771
1347.972656	1972.286377
1346.841797	2033.853882
1345.710938	2029.090454
1344.578125	1964.659424
1343.447266	2012.939209
1342.316406	1970.624756
1341.183594	2023.304932
1340.052734	2000.879028
1338.919922	2066.784912
1337.787109	1986.958008
1336.654297	1957.927368
1335.521484	1904.629517
1334.388672	1994.779541
1333.255859	1930.462158
1332.123047	2022.783203
1330.988281	2013.620117
1329.855469	2024.306152
1328.720703	1993.098145
1327.587891	2010.397095
1326.453125	1963.773682
1325.318359	1925.980591
1324.183594	2009.379883
1323.048828	2002.432251
1321.914063	2010.904541
1320.779297	2014.969604
1319.642578	2052.060059
1318.507813	1926.233398
1317.371094	1958.924072
1316.236328	1996.004883
1315.099609	2017.671021
1313.962891	2012.930664
1312.826172	2036.786133
1311.689453	1990.259644
1310.552734	1934.953491
1309.416016	1967.603516
1308.279297	1987.054077
1307.140625	1940.567017
1306.003906	1962.212769
1304.865234	2012.411499
1303.726563	1954.960571
1302.587891	2071.030029
1301.451172	1965.279907
1300.310547	1896.888428
1299.171875	1966.811401
1298.033203	1916.000610
1296.894531	1955.175537
1295.753906	2018.471191
1294.615234	1945.740845
1293.474609	1962.958374
1292.335938	2002.098633
1291.195313	1957.910400
1290.054688	1957.579712
1288.914063	1926.564331
1287.773438	2005.129395
1286.632813	1932.486694
1285.490234	1973.782837
1284.349609	1962.498047
1283.207031	1883.329468
1282.066406	1850.168091
1280.923828	1950.557739
1279.781250	1923.962524
1278.638672	1976.160034
1277.496094	1875.174927
1276.353516	1964.553833
1275.210938	1964.221802
1274.068359	1963.889893
1272.923828	1985.423950
1271.781250	1899.825928
1270.636719	1997.868164
1269.494141	2004.086914
1268.349609	1940.380005
1267.205078	1957.529907
1266.060547	1950.645996
1264.916016	1921.924194
1263.771484	1862.641113
1262.626953	1956.206787
1261.480469	1973.339233
1260.335938	1870.426880
1259.189453	1937.757568
1258.042969	1919.975586
1256.898438	1967.642212
1255.751953	1921.507446
1254.605469	1953.892822
1253.458984	1936.119873
1252.312500	1955.411987
1251.164063	1918.028564
1250.017578	1978.722046
1248.869141	1941.347046
1247.722656	1980.231201
1246.574219	2053.951904
1245.425781	1970.850464
1244.279297	1983.581299
1243.130859	2055.086670
1241.982422	1978.557007
1240.832031	1941.225830
1239.683594	2075.802979
1238.535156	1971.026489
1237.384766	1985.919067
1236.236328	2026.904053
1235.085938	1941.758667
1233.935547	2002.303589
1232.785156	1991.096436
1231.636719	2084.212158
1230.484375	2038.227417
1229.333984	2013.984131
1228.183594	2037.537598
1227.033203	1922.084839
1225.880859	2084.620605
1224.730469	2114.663330
1223.578125	2001.426514
1222.425781	2081.391602
1221.273438	2163.499756
1220.121094	2085.026367
1218.968750	2043.457153
1217.816406	2064.800293
1216.664063	2062.281982
1215.511719	2092.287354
1214.357422	2098.436523
1213.205078	2059.067139
1212.050781	2169.239258
1210.896484	2149.371582
1209.742188	2094.849121
1208.587891	2055.506836
1207.433594	2089.808350
1206.279297	2169.568115
1205.125000	2145.387207
1203.968750	2106.062744
1202.814453	2259.359619
1201.658203	2155.115967
1200.503906	2154.750732
1199.347656	2154.385742
1198.191406	2210.250244
1197.035156	2231.498779
1195.878906	2250.578125
1194.722656	2111.856201
1193.566406	2206.591309
1192.408203	2206.217529
1191.251953	2281.460205
1190.093750	2252.992188
1188.937500	2237.492188
1187.779297	2178.809814
1186.621094	2284.231934
1185.462891	2197.499023
1184.304688	2251.083496
1183.146484	2235.596436
1181.988281	2302.101318
1180.828125	2230.524170
1179.669922	2303.477783
1178.509766	2229.768066
1177.351563	2311.321045
1176.191406	2291.527832
1175.031250	2340.712158
1173.871094	2314.455566
1172.710938	2307.599121
1171.550781	2294.282227
1170.388672	2321.893799
1169.228516	2360.263428
1168.068359	2448.142822
1166.906250	2406.824463
1165.744141	2432.245361
1164.583984	2251.059326
1163.421875	2373.324463
1162.259766	2334.197754
1161.097656	2402.632813
1159.933594	2496.851807
1158.771484	2360.963135
1157.609375	2392.810547
1156.445313	2519.225586
1155.283203	2465.069580
1154.119141	2340.021973
1152.955078	2451.342529
1151.791016	2459.518799
1150.626953	2461.249023
1149.462891	2503.777832
1148.298828	2516.234619
1147.134766	2502.927979
1145.968750	2502.503174
1144.804688	2602.934082
1143.638672	2518.817627
1142.474609	2494.793457
1141.308594	2547.989258
1140.142578	2618.322266
1138.976563	2544.980225
1137.810547	2542.404541
1136.644531	2631.991943
1135.476563	2655.117676
1134.310547	2712.516602
1133.142578	2694.918213
1131.976563	2621.637207
1130.808594	2734.691406
1129.640625	2676.416260
1128.472656	2740.184814
1127.304688	2645.541504
1126.136719	2775.634766
1124.968750	2728.090332
1123.800781	2706.233887
1122.630859	2744.275391
1121.462891	2801.551025
1120.292969	2745.481201
1119.123047	2781.358398
1117.953125	2815.085693
1116.785156	2818.881836
1115.613281	2841.907227
1114.443359	2903.380127
1113.273438	2806.764648
1112.103516	3015.584717
1110.931641	2980.906982
1109.761719	2871.517578
1108.589844	2999.105225
1107.417969	2928.165771
1106.248047	2946.873047
1105.076172	3016.777832
1103.904297	2975.735352
1102.730469	2973.096680
1101.558594	3034.431396
1100.386719	3119.197754
1099.212891	3157.037842
1098.041016	3015.833252
1096.867188	3100.559082
1095.693359	3080.856445
1094.519531	3176.193604
1093.345703	3032.951416
1092.171875	3147.429688
1090.998047	3108.569580
1089.824219	3280.473145
1088.650391	3160.723145
1087.474609	3268.717041
1086.298828	3266.033447
1085.125000	3263.350342
1083.949219	3209.620605
1082.773438	3319.659180
1081.597656	3289.326660
1080.421875	3356.795898
1079.246094	3349.848145
1078.070313	3302.524170
1076.892578	3369.956299
1075.716797	3299.276123
1074.539063	3343.320557
1073.361328	3434.072021
1072.183594	3414.377197
1071.007813	3422.288086
1069.830078	3428.073730
1068.650391	3414.756592
1067.472656	3575.441406
1066.294922	3600.291504
1065.115234	3493.618652
1063.937500	3586.340820
1062.757813	3598.453369
1061.578125	3549.077881
1060.400391	3618.425781
1059.220703	3630.525879
1058.041016	3668.050537
1056.861328	3627.171143
1055.679688	3732.468994
1054.500000	3854.674805
1053.318359	3720.610107
1052.138672	3859.713623
1050.957031	3738.394775
1049.775391	3932.477051
1048.595703	3921.226318
1047.414063	3867.663818
1046.232422	3826.811768
1045.048828	3938.258545
1043.867188	3929.128906
1042.685547	3991.889893
1041.501953	3955.271973
1040.320313	4022.234131
1039.136719	4055.361084
1037.953125	3980.718506
1036.769531	4020.178467
1035.585938	4084.971191
1034.402344	4006.137451
1033.218750	4193.375488
1032.035156	3998.438721
1030.849609	4031.529297
1029.666016	4296.750977
1028.480469	4061.805664
1027.294922	4101.196777
1026.109375	4218.619141
1024.923828	4127.215332
1023.738281	4158.140625
1022.552734	4176.405762
1021.367188	4167.262207
1020.181641	4259.282227
1018.994141	4269.091797
1017.808594	4207.266602
1016.621094	4248.677734
1015.433594	4245.847168
1014.246094	4268.286133
1013.058594	4219.135254
1011.871094	4313.140137
1010.683594	4221.905273
1009.496094	4360.067383
1008.306641	4270.958984
1007.119141	4289.162598
1005.929688	4294.740723
1004.742188	4237.231445
1003.552734	4314.300293
1002.363281	4250.500488
1001.173828	4296.014160
999.984375	4324.700684
998.794922	4368.084961
997.603516	4384.145020
996.414063	4353.992188
995.222656	4372.148926
994.033203	4281.119629
992.841797	4292.984375
991.650391	4246.075684
990.458984	4335.588379
989.267578	4334.848633
988.076172	4317.325684
986.884766	4278.834473
985.691406	4160.666016
984.500000	4344.469727
983.306641	4163.437988
982.115234	4330.410156
980.921875	4273.087402
979.728516	4249.309570
978.535156	4229.729004
977.341797	4233.195801
976.148438	4236.661621
974.953125	4221.280762
973.759766	4245.682129
972.564453	4205.187012
971.371094	4233.768066
970.175781	4239.322266
968.980469	4073.322021
967.785156	4277.617188
966.589844	4180.682617
965.394531	4317.976563
964.199219	4212.705078
963.003906	4172.269531
961.806641	4169.466797
960.611328	4168.753906
959.414063	4126.256836
958.216797	4154.796387
957.019531	4162.440430
955.822266	4132.494629
954.625000	4173.544434
953.427734	4066.370850
952.230469	3996.801514
951.031250	4119.236328
949.833984	4151.914551
948.634766	4111.570313
947.437500	4154.666504
946.238281	4185.235840
945.039063	4172.010742
943.839844	4044.136475
942.640625	4247.701660
941.439453	4069.844238
940.240234	4044.145996
939.041016	3920.546631
937.839844	4021.934570
936.638672	4102.462891
935.439453	4078.858154
934.238281	4084.406006
933.037109	4052.486328
931.835938	4051.793213
930.634766	4119.762695
929.431641	3990.077393
928.230469	3937.395508
927.027344	3999.110596
925.826172	4029.615234
924.623047	4068.425293
923.419922	4026.157959
922.216797	4067.033203
921.013672	4070.492920
919.810547	4017.859131
918.607422	4075.331299
917.404297	4039.328613
916.199219	3938.969238
914.996094	4015.109375
913.791016	3956.302246
912.585938	3980.529541
911.380859	3925.898193
910.175781	4035.182129
908.970703	3941.148438
907.765625	3876.181885
906.560547	3821.605225
905.353516	3883.147461
904.148438	3930.158691
902.941406	3821.715088
901.736328	3872.864502
900.529297	3762.395752
899.322266	3776.251709
898.115234	3848.093262
896.908203	3845.363525
895.699219	3782.593262
894.492188	3721.914551
893.285156	3731.625488
892.076172	3822.036377
890.867188	3794.485107
889.660156	3787.629395
888.451172	3602.905518
887.242188	3662.257324
886.033203	3707.115967
884.824219	3683.741699
883.613281	3654.174805
882.404297	3601.886475
881.193359	3657.054688
879.984375	3561.402344
878.773438	3655.801514
877.562500	3682.020752
876.351563	3545.118408
875.140625	3581.669434
873.929688	3614.079590
872.718750	3561.868652
871.505859	3567.447998
870.294922	3455.437256
869.082031	3584.788330
867.871094	3604.796143
866.658203	3525.826416
865.445313	3382.976074
864.232422	3493.699707
863.019531	3486.918213
861.806641	3447.171387
860.591797	3405.377686
859.378906	3307.984619
858.164063	3459.813965
856.951172	3376.858154
855.736328	3444.216309
854.521484	3348.941162
853.306641	3356.598877
852.091797	3460.962891
850.876953	3431.567139
849.662109	3430.978516
848.445313	3432.446289
847.230469	3380.451660
846.013672	3447.715820
844.796875	3430.679932
843.582031	3339.663330
842.365234	3343.199951
841.148438	3340.571777
839.929688	3288.645508
838.712891	3302.457520
837.496094	3353.226074
836.277344	3381.393311
835.060547	3425.972412
833.841797	3437.698486
832.623047	3463.784424
831.404297	3323.677490
830.185547	3378.491943
828.966797	3332.791016
827.748047	3319.915283
826.529297	3518.218994
825.308594	3447.918457
824.089844	3455.524414
822.869141	3471.324707
821.650391	3431.800537
820.429688	3443.502197
819.208984	3451.103271
817.988281	3477.131592
816.765625	3480.629150
815.544922	3486.172607
814.324219	3516.274658
813.101563	3556.598145
811.880859	3529.388672
810.658203	3434.681641
809.435547	3548.629395
808.212891	3484.625488
806.990234	3555.588379
805.767578	3567.243164
804.544922	3525.751709
803.320313	3435.229248
802.097656	3491.848633
800.873047	3564.791504
799.650391	3566.221436
798.425781	3581.945557
797.201172	3540.493896
795.976563	3517.429199
794.751953	3631.126465
793.527344	3636.624512
792.300781	3550.302246
791.076172	3533.371582
789.849609	3581.716797
788.625000	3581.101074
787.398438	3602.914307
786.171875	3647.145020
784.945313	3628.173096
783.718750	3550.107178
782.492188	3665.639648
781.265625	3593.705566
780.037109	3426.061768
778.810547	3606.725342
777.582031	3504.294922
776.353516	3627.878906
775.125000	3551.941406
773.898438	3628.666016
772.667969	3585.310791
771.439453	3643.692871
770.210938	3415.247314
768.982422	3546.853271
767.751953	3507.608398
766.523438	3470.409912
765.292969	3660.886230
764.062500	3566.768066
762.832031	3529.578369
761.601563	3654.932861
760.371094	3611.646729
759.140625	3515.570313
757.908203	3644.923584
756.677734	3589.479492
755.445313	3580.741943
754.214844	3574.036865
752.982422	3597.771729
751.750000	3493.680908
750.517578	3584.362061
749.285156	3583.744873
748.052734	3648.017334
746.818359	3533.851807
745.585938	3523.107666
744.351563	3542.768555
743.119141	3651.584229
741.884766	3592.199707
740.650391	3524.732422
739.416016	3605.139648
738.181641	3584.268555
736.947266	3561.379883
735.710938	3659.957520
734.476563	3622.895752
733.240234	3731.546875
732.005859	3564.995850
730.769531	3590.679688
729.533203	3620.399414
728.296875	3633.931152
727.060547	3631.282959
725.824219	3640.764648
724.587891	3551.205566
723.349609	3591.010010
722.113281	3762.131836
720.875000	3595.832520
719.636719	3647.727051
718.400391	3760.186523
717.162109	3700.984863
715.923828	3704.384277
714.683594	3546.311035
713.445313	3612.295166
712.207031	3611.672119
710.966797	3709.899414
709.728516	3689.089600
708.488281	3640.053955
707.248047	3683.784668
706.007813	3713.388672
704.767578	3615.999268
703.527344	3548.871826
702.287109	3663.109619
701.044922	3640.317627
699.804688	3659.831787
698.562500	3717.602539
697.320313	3672.663818
696.080078	3732.425293
694.837891	3663.345215
693.595703	3652.650879
692.353516	3728.481445
691.109375	3707.720215
689.867188	3777.480713
688.625000	3746.662598
687.380859	3621.349854
686.136719	3638.818359
684.892578	3809.044434
683.650391	3635.552490
682.406250	3675.112061
681.160156	3801.045410
679.916016	3709.999268
678.671875	3687.267334
677.425781	3666.551025
676.181641	3698.040039
674.935547	3554.884766
673.689453	3728.873779
672.443359	3826.552490
671.197266	3745.642090
669.951172	3757.030762
668.705078	3712.259766
667.458984	3751.722656
666.210938	3718.997070
664.964844	3690.291504
663.716797	3773.828857
662.468750	3699.035889
661.220703	3746.479980
659.972656	3807.929443
658.724609	3817.285400
657.476563	3770.570068
656.228516	3799.949707
654.978516	3853.340088
653.730469	3788.629639
652.480469	3667.912354
651.230469	3809.328125
649.980469	3722.654541
648.730469	3822.011475
647.480469	3691.372803
646.230469	3714.726563
644.980469	3708.087646
643.728516	3723.435547
642.478516	3680.828125
641.226563	3678.193848
639.974609	3749.470947
638.722656	3774.786865
637.470703	3774.134277
636.218750	3837.371338
634.966797	3764.844238
633.714844	3812.093750
632.460938	3753.564697
631.208984	3669.118408
629.955078	3756.256104
628.701172	3715.716797
627.447266	3780.880371
626.193359	3724.400391
624.939453	3669.933105
623.685547	3880.566895
622.431641	3881.888184
621.175781	3861.292480
619.921875	3868.592773
618.666016	3828.088867
617.410156	3899.115967
616.154297	3962.154297
614.898438	3937.580566
613.642578	3855.294922
612.386719	3926.267578
611.130859	4019.101807
609.873047	3992.545166
608.617188	4037.600342
607.359375	4074.685303
606.101563	4018.308105
604.845703	4077.250488
603.587891	4267.353027
602.328125	4258.665527
601.070313	4158.583008
599.812500	4197.594238
598.552734	4061.804688
597.294922	4138.550293
596.035156	4235.124512
594.775391	4313.797852
593.517578	4356.717285
592.257813	4232.924316
590.996094	4343.303223
589.736328	4372.308105
588.476563	4419.153809
587.214844	4452.101563
585.955078	4403.743652
584.693359	4450.559082
583.431641	4582.587891
582.169922	4449.017090
580.908203	4559.204590
579.646484	4433.607910
578.384766	4557.624512
577.123047	4570.697266
575.859375	4526.344727
574.597656	4575.052246
573.333984	4483.209473
572.070313	4634.815430
570.806641	4572.673828
569.542969	4751.907715
568.279297	4743.171875
567.015625	4657.311523
565.751953	4573.458008
564.486328	4685.351074
563.222656	4716.164063
561.957031	4667.916016
560.691406	4682.914063
559.425781	4638.639648
558.160156	4732.645996
556.894531	4672.578613
555.628906	4851.451660
554.361328	4822.971191
553.095703	4772.788574
551.828125	4864.715820
550.562500	4717.856934
549.294922	4870.919434
548.027344	4789.202148
546.759766	4869.229492
545.492188	4947.256836
544.222656	4903.026367
542.955078	4870.637695
541.687500	4903.295410
540.417969	4900.474121
539.148438	4935.085449
537.878906	4930.289551
536.611328	4966.852539
535.339844	4985.681152
534.070313	5018.284180
532.800781	5062.686035
531.531250	5091.327637
530.259766	5066.831543
528.988281	5144.646484
527.718750	5196.862793
526.447266	5233.327148
525.175781	5171.461914
523.904297	5288.523926
522.632813	5238.463867
521.359375	5445.877441
520.087891	5411.526855
518.814453	5416.480957
517.542969	5541.254883
516.269531	5481.374023
514.996094	5613.946777
513.722656	5622.788086
512.449219	5690.513672
511.175781	5738.589355
509.902344	5816.082031
508.626953	5793.490723
507.353516	5776.791504
506.078125	5940.530273
504.802734	5966.950195
503.527344	6012.966309
502.251953	5988.398926
500.976563	5954.040527
499.701172	5915.774902
498.425781	6071.480957
497.148438	6138.984863
495.873047	6130.083496
494.595703	6123.143555
493.318359	6127.952637
492.041016	6093.610352
490.763672	6139.521973
489.486328	6136.497559
488.208984	6051.303223
486.931641	6230.213379
485.652344	6100.048828
484.375000	6059.879395
483.095703	6072.511230
481.816406	6108.595703
480.537109	5902.319824
479.257813	6004.858887
477.978516	6056.565430
476.699219	5926.587891
475.417969	5980.242188
474.138672	5946.005859
472.857422	5915.686035
471.576172	5928.320801
470.296875	5839.463379
469.015625	6097.977051
467.734375	6016.924316
466.451172	5816.908691
465.169922	5765.187500
463.888672	5861.684082
462.605469	5811.922363
461.322266	5949.312500
460.041016	5747.532227
458.757813	5943.344238
457.474609	5653.961426
456.191406	5647.133301
454.908203	5743.531250
453.623047	5769.792969
452.339844	5755.160156
451.054688	5608.162598
449.771484	5766.779785
448.486328	5687.938477
447.201172	5700.567383
445.916016	5689.848145
444.630859	5694.691895
443.343750	5639.251953
442.058594	5614.938965
440.773438	5623.680664
439.486328	5488.595703
438.199219	5672.245117
436.914063	5620.742188
435.626953	5608.107422
434.339844	5636.263672
433.050781	5532.362793
431.763672	5649.831543
430.476563	5602.258789
429.187500	5506.181152
427.900391	5542.091309
426.611328	5607.091309
425.322266	5662.369141
424.033203	5519.798828
422.744141	5513.019531
421.455078	5541.140625
420.164063	5447.127930
418.875000	5521.765625
417.583984	5559.559082
416.294922	5502.403320
415.003906	5613.797363
413.712891	5413.329102
412.421875	5416.257813
411.130859	5355.293945
409.839844	5518.901367
408.546875	5409.554199
407.255859	5546.002930
405.962891	5465.709961
404.671875	5443.478027
403.378906	5523.760254
402.085938	5377.765137
400.792969	5336.225586
399.500000	5286.967773
398.207031	5336.296387
396.912109	5269.663574
395.619141	5442.630371
394.324219	5360.547852
393.029297	5311.327637
391.734375	5385.711914
390.439453	5348.088379
389.144531	5300.825684
387.849609	5317.270996
386.554688	5219.857422
385.257813	5247.887207
383.962891	5183.312988
382.666016	5219.053223
381.369141	5221.999023
380.074219	5184.454590
378.777344	5287.644531
377.478516	5226.973633
376.181641	5202.936523
374.884766	5298.361816
373.585938	5187.635254
372.289063	5171.321289
370.990234	5128.053223
369.691406	5148.336426
368.392578	5237.912109
367.093750	5265.867188
365.794922	5162.958008
364.496094	5196.687988
363.195313	5284.268066
361.896484	5110.246582
360.595703	5130.506348
359.294922	5158.449707
357.996094	5153.703613
356.695313	5193.164551
355.394531	5096.175293
354.091797	5216.326660
352.791016	5165.469727
351.490234	5137.678223
350.187500	5188.627930
348.884766	5118.602539
347.583984	5077.395996
346.281250	5205.100586
344.978516	5175.406250
343.673828	5172.583008
342.371094	5200.452637
341.068359	5201.461426
339.763672	5141.105957
338.460938	5180.469727
337.156250	5258.158203
335.851563	5126.909668
334.546875	5127.929199
333.242188	5117.453125
331.937500	5208.506348
330.632813	5224.833008
329.326172	5105.193359
328.021484	5129.189941
326.714844	5149.349609
325.408203	5014.474121
324.101563	5155.202148
322.794922	5018.459473
321.488281	5155.311523
320.181641	5135.283203
318.873047	5017.737793
317.566406	5060.833496
316.257813	5136.411133
314.951172	5064.795898
313.642578	4949.254883
312.333984	4988.510742
311.025391	5033.483398
309.716797	5045.971680
308.406250	5092.827637
307.097656	5076.662109
305.787109	4913.516602
304.478516	5067.250000
303.167969	5112.160645
301.857422	4979.620117
300.546875	4919.613770
299.236328	4975.969238
297.925781	5158.159668
296.613281	5174.415527
295.302734	4954.292969
293.990234	4947.707520
292.677734	4984.951660
291.367188	4987.889160
290.054688	5019.398438
288.742188	5026.137207
287.427734	5122.372559
286.115234	5022.472656
284.802734	5065.374512
283.488281	5074.002930
282.173828	5046.473145
280.861328	5005.635254
279.546875	5037.095703
278.232422	5083.760254
276.917969	4926.941406
275.601563	5232.175293
274.287109	5012.655273
272.970703	5006.074707
271.656250	5045.102051
270.339844	5042.317383
269.023438	5176.302246
267.707031	5086.130859
266.390625	5049.160156
265.074219	5067.260742
263.757813	5053.084473
262.439453	5021.832031
261.123047	5034.233887
259.804688	5133.904297
258.486328	4920.551270
257.167969	5063.827148
255.849609	5025.014160
254.531250	5062.050781
253.212891	5063.058105
251.894531	5100.074707
250.574219	5135.183105
249.255859	5185.435547
247.935547	5093.602051
246.615234	5236.645020
245.294922	5052.049805
243.974609	5227.234375
242.654297	5148.708008
241.332031	5242.433105
240.011719	5258.542969
238.689453	5261.403809
237.369141	5328.577148
236.046875	5251.991699
234.724609	5177.324219
233.402344	5231.242188
232.080078	5268.128418
230.755859	5236.964844
229.433594	5217.149414
228.111328	5339.035156
226.787109	5192.650391
225.462891	5233.287598
224.138672	5241.809570
222.814453	5312.630371
221.490234	5383.425781
220.166016	5295.666016
218.841797	5300.396484
217.515625	5282.485840
216.191406	5311.738281
214.865234	5427.733398
213.539063	5306.100586
212.212891	5316.479980
210.886719	5328.740723
209.560547	5416.380859
208.232422	5479.495117
206.906250	5320.279785
205.580078	5311.810547
204.251953	5292.043945
202.923828	5502.005371
201.595703	5371.136719
200.267578	5462.425293
198.939453	5427.589355
197.611328	5420.990234
196.281250	5457.663574
194.953125	5625.991211
193.623047	5391.802246
192.294922	5520.595703
190.964844	5562.864746
189.634766	5731.055176
188.304688	5553.391113
186.972656	5674.548828
185.642578	5703.608887
184.312500	5616.202637
182.980469	5677.188965
181.648438	5706.232910
180.316406	5769.058594
178.986328	5655.423340
177.652344	5787.672363
176.320313	5743.498047
174.988281	5855.048340
173.656250	5726.471191
172.322266	5830.483398
170.988281	5799.457031
169.656250	5869.674805
168.322266	5846.149414
166.988281	5734.552246
165.654297	5769.143555
164.318359	5927.364746
162.984375	5853.272461
161.648438	5794.187988
160.314453	5901.766113
158.978516	5876.390625
157.642578	5789.256348
156.306641	5861.221680
154.970703	5852.705078
153.634766	6048.102051
152.298828	5916.108398
150.960938	6105.814453
149.625000	6022.470215
148.287109	5830.728516
146.949219	5958.668457
145.611328	6036.106934
144.273438	6064.938477
142.935547	6159.143555
141.597656	6187.942871
140.257813	6212.997070
138.919922	6378.075684
137.580078	6391.886230
136.240234	6416.890137
134.900391	6283.264160
133.560547	6476.200195
132.220703	6402.305176
130.880859	6505.625000
129.539063	6528.721191
128.199219	6579.775879
126.857422	6565.566895
125.515625	6556.954102
124.175781	6725.376465
122.833984	6718.601563
121.490234	6777.027832
120.148438	6630.556641
118.806641	6700.150391
117.462891	6702.692871
116.121094	6723.849121
114.777344	6705.912598
113.433594	6738.225586
112.089844	6407.720215
110.746094	6769.332520
109.402344	6792.316895
108.058594	6941.743164
106.712891	6908.911621
105.367188	6835.195313
104.023438	6926.918457
102.677734	6723.146973
101.332031	6850.157227
99.986328	6798.793457
98.640625	6998.178223
97.292969	6917.094727
95.947266	6993.851563
94.599609	7048.305664
93.253906	7125.011719
91.906250	7199.834961
90.558594	7048.284668
89.210938	7124.949219
87.863281	7184.894531
86.515625	7044.552246
85.166016	7254.663574
83.818359	7349.772949
82.468750	7450.408691
81.119141	7184.112793
79.769531	7253.246094
78.419922	7318.649414
77.070313	7337.729492
75.720703	7291.992676
74.371094	7194.433105
73.019531	7344.947754
71.667969	7212.249512
70.318359	7173.967285
68.966797	7235.602051
67.615234	7186.230469
66.263672	7177.562988
64.912109	6985.839355
63.558594	6845.948242
62.207031	6853.980469
60.853516	6884.187012
59.500000	6943.946777
58.148438	6563.992188
56.794922	6315.317383
55.439453	6123.980957
54.085938	5932.711914
52.732422	5931.663086
51.376953	5806.944336
