#Wave		#Intensity
4002.106445	1177.649658
4001.408203	1145.434326
4000.709961	1148.829102
4000.010742	1152.222778
3999.312500	1080.482544
3998.613281	1008.765259
3997.914063	1101.594849
3997.215820	1104.993896
3996.516602	1069.061768
3995.816406	1133.237793
3995.117188	982.934753
3994.417969	1022.087891
3993.717773	1054.082031
3993.018555	1061.057861
3992.318359	1100.179443
3991.618164	1103.574097
3990.917969	1106.967651
3990.217773	1174.625244
3989.517578	1103.042236
3988.817383	1152.832886
3988.117188	1127.667725
3987.416016	1109.646484
3986.715820	1038.119751
3986.014648	1141.391602
3985.313477	1159.039551
3984.612305	1176.681885
3983.911133	1112.320435
3983.209961	1115.706299
3982.507813	1097.707153
3981.806641	1129.601440
3981.105469	1140.108521
3980.403320	1125.676270
3979.701172	1118.372070
3978.999023	1096.825562
3978.296875	1103.770508
3977.594727	1128.513062
3976.892578	1103.415894
3976.190430	1170.856445
3975.487305	1031.896118
3974.785156	1113.557251
3974.082031	1134.721069
3973.378906	1084.747070
3972.675781	1116.576660
3971.972656	1095.064819
3971.269531	1038.011597
3970.566406	1126.701416
3969.862305	1076.768677
3969.159180	1076.595703
3968.455078	1140.368774
3967.751953	1083.353882
3967.047852	1171.965088
3966.343750	1256.996948
3965.639648	1128.985352
3964.935547	1082.657959
3964.230469	1064.738403
3963.526367	1124.892944
3962.821289	1170.836060
3962.117188	1106.794434
3961.412109	1113.710449
3960.707031	1124.170410
3960.001953	1092.078369
3959.296875	1095.448120
3958.591797	1088.183105
3957.885742	1158.888306
3957.180664	1059.486084
3956.474609	1066.401733
3955.769531	1115.822510
3955.063477	1087.309570
3954.357422	1094.217285
3953.651367	1125.906738
3952.945313	1097.405762
3952.238281	1054.756226
3951.532227	1036.892334
3950.825195	1040.264160
3950.119141	1128.540771
3949.412109	1036.392944
3948.705078	1131.714966
3947.998047	1202.254028
3947.291016	1120.745117
3946.583984	1131.169800
3945.876953	1014.355042
3945.168945	1113.137695
3944.461914	1148.291016
3943.753906	1123.378174
3943.045898	1119.665771
3942.337891	1084.170898
3941.629883	1165.208374
3940.921875	1048.519165
3940.213867	1111.887207
3939.504883	1065.828613
3938.796875	1104.472778
3938.087891	1033.733521
3937.379883	1008.874756
3936.670898	1061.617310
3935.961914	1110.816406
3935.252930	1047.173096
3934.543945	1054.055542
3933.833984	1149.053223
3933.125000	1127.723999
3932.415039	1106.401489
3931.706055	1056.901733
3930.996094	1088.434082
3930.286133	1063.606201
3929.576172	1126.818970
3928.866211	1077.347656
3928.156250	1179.259888
3927.445313	1235.384399
3926.735352	1108.500366
3926.024414	1108.322388
3925.314453	1062.411499
3924.603516	1090.379761
3923.892578	1040.969727
3923.181641	1107.610840
3922.470703	1110.948730
3921.758789	1072.104370
3921.047852	1043.816040
3920.335938	997.966858
3919.625000	1082.128296
3918.913086	1127.621582
3918.201172	1060.707275
3917.489258	1134.282959
3916.777344	1095.478271
3916.065430	1098.813110
3915.352539	979.295959
3914.640625	1108.988770
3913.927734	1056.177246
3913.215820	996.366150
3912.502930	1094.423706
3911.790039	1118.798462
3911.077148	1062.512695
3910.364258	1090.390747
3909.650391	1034.127441
3908.937500	1146.120117
3908.224609	1079.352661
3907.510742	1138.744507
3906.796875	1201.620605
3906.083008	1106.854736
3905.369141	1092.668457
3904.655273	1095.994751
3903.941406	1053.806641
3903.227539	1081.641113
3902.512695	1119.966431
3901.798828	1126.785278
3901.083984	1074.122925
3900.369141	1038.968384
3899.654297	1080.773438
3898.939453	1010.658325
3898.224609	1080.426636
3897.509766	1157.164551
3896.793945	1003.181030
3896.079102	996.030334
3895.363281	1093.710449
3894.648438	1027.154175
3893.932617	1068.907349
3893.216797	1023.331970
3892.500977	1152.373291
3891.784180	1106.799072
3891.068359	1106.621460
3890.352539	1043.617432
3889.635742	1050.429565
3888.918945	1071.196533
3888.203125	1123.354858
3887.486328	1102.245850
3886.769531	1168.332642
3886.051758	1039.126099
3885.334961	1063.364502
3884.618164	976.046814
3883.900391	1171.068237
3883.183594	1045.428955
3882.465820	1121.913696
3881.748047	1027.675293
3881.030273	1069.307373
3880.312500	1086.548462
3879.594727	1079.410156
3878.875977	1075.755615
3878.158203	1120.834106
3877.439453	1002.324341
3876.721680	1099.596069
3876.002930	1019.398621
3875.284180	1109.679077
3874.565430	1081.676636
3873.846680	984.133057
3873.127930	990.929016
3872.408203	1084.632446
3871.689453	1046.224365
3870.969727	1049.531860
3870.250000	1018.091003
3869.530273	1024.875977
3868.810547	1170.602783
3868.090820	1139.157593
3867.371094	1048.690186
3866.651367	1138.792114
3865.930664	1131.666748
3865.210938	1145.368408
3864.490234	1086.190308
3863.769531	1120.713013
3863.048828	1075.434448
3862.328125	1030.170288
3861.607422	1026.536987
3860.886719	1092.254395
3860.165039	1043.542358
3859.444336	1071.105835
3858.722656	1154.113281
3858.000977	1081.157959
3857.279297	1112.166748
3856.557617	1101.595947
3855.835938	1077.174194
3855.114258	1156.651001
3854.392578	1062.978760
3853.669922	1208.208740
3852.948242	1055.715088
3852.225586	1114.379517
3851.502930	1072.677734
3850.780273	1120.941406
3850.057617	1113.843384
3849.334961	1020.282898
3848.612305	1040.867432
3847.888672	1120.222412
3847.166016	1037.076660
3846.442383	1064.561279
3845.718750	1064.390503
3844.995117	1040.032959
3844.271484	1143.507324
3843.547852	1132.961548
3842.824219	1067.161499
3842.100586	1087.708618
3841.375977	1125.511475
3840.651367	1125.330933
3839.927734	1087.185303
3839.203125	1076.658447
3838.478516	1179.994019
3837.753906	1086.662354
3837.029297	1024.403076
3836.303711	1041.481812
3835.579102	996.489990
3834.853516	1075.622925
3834.128906	1113.366943
3833.403320	1009.796265
3832.677734	1078.551392
3831.952148	954.347656
3831.226563	1043.758057
3830.500000	1071.144165
3829.774414	1026.205078
3829.047852	1180.979492
3828.322266	1063.743896
3827.595703	1053.247314
3826.869141	1097.817139
3826.142578	1042.586914
3825.416016	1032.098755
3824.689453	1104.168579
3823.961914	1021.450134
3823.235352	1090.059814
3822.507813	1141.456909
3821.781250	1069.084839
3821.053711	1096.409546
3820.326172	1058.432617
3819.598633	1020.467834
3818.871094	1092.446899
3818.142578	1047.619141
3817.415039	1068.056763
3816.686523	1091.921509
3815.958984	1050.548462
3815.230469	1053.812622
3814.501953	985.002380
3813.773438	1080.926758
3813.044922	1142.510864
3812.316406	1101.162720
3811.586914	1070.117432
3810.858398	1052.799194
3810.128906	1069.774292
3809.399414	1069.602783
3808.669922	1021.443970
3807.940430	1004.144592
3807.210938	1137.619629
3806.481445	979.840515
3805.751953	1072.171021
3805.021484	1219.270630
3804.291992	1023.886108
3803.561523	1078.503052
3802.831055	972.208801
3802.100586	1119.229980
3801.370117	1064.295776
3800.639648	1026.487305
3799.909180	1067.375610
3799.177734	1139.035522
3798.447266	1094.393188
3797.715820	1083.959473
3796.984375	1032.502441
3796.252930	1049.428589
3795.521484	1114.198242
3794.790039	1155.026489
3794.058594	1134.341187
3793.327148	1171.736938
3792.594727	952.951050
3791.862305	1167.946289
3791.130859	1034.593506
3790.398438	1061.739258
3789.666016	1105.943359
3788.933594	1078.463135
3788.201172	1068.053345
3787.467773	1020.117493
3786.735352	1122.290405
3786.001953	1108.467896
3785.268555	1057.138306
3784.536133	1128.569946
3783.802734	1053.390381
3783.069336	1090.714844
3782.334961	1001.933655
3781.601563	1008.587830
3780.868164	1107.224609
3780.133789	1134.297607
3779.399414	991.074097
3778.666016	1079.450684
3777.931641	1028.207642
3777.197266	1092.721069
3776.462891	1147.003052
3775.727539	1122.998047
3774.993164	1030.951050
3774.257813	1034.187744
3773.523438	1102.049805
3772.788086	1163.088257
3772.052734	1166.302124
3771.317383	1121.918457
3770.582031	1138.734619
3769.846680	1070.578857
3769.110352	1060.212891
3768.375000	1104.211426
3767.638672	1022.505737
3766.903320	1066.496094
3766.166992	1066.325195
3765.430664	1042.386475
3764.694336	1062.588501
3763.958008	1103.149902
3763.220703	1075.822998
3762.484375	1082.437012
3761.747070	1099.226929
3761.010742	1122.795654
3760.273438	1126.007324
3759.536133	1139.390991
3758.798828	1159.551392
3758.061523	1105.126221
3757.323242	1152.400879
3756.585938	1077.661011
3755.847656	1063.935059
3755.110352	1134.907959
3754.372070	1185.534668
3753.633789	1168.411255
3752.895508	1107.273071
3752.157227	1151.108643
3751.418945	1083.222778
3750.679688	1079.664551
3749.941406	1126.867432
3749.202148	1157.137817
3748.462891	1106.208862
3747.723633	1109.413818
3746.984375	1021.308838
3746.245117	1132.727295
3745.505859	1149.449341
3744.766602	1112.083008
3744.026367	1159.219971
3743.287109	1125.243042
3742.546875	1013.570007
3741.806641	1155.284668
3741.066406	1175.364380
3740.326172	1138.029663
3739.585938	1077.072144
3738.845703	1181.551147
3738.104492	1123.981323
3737.364258	1049.556152
3736.623047	1180.983154
3735.881836	1082.956665
3735.140625	1106.395264
3734.399414	1062.374023
3733.658203	1089.180298
3732.916992	1142.950317
3732.174805	1075.347290
3731.433594	1149.324951
3730.691406	1149.140747
3729.949219	1128.740356
3729.207031	1101.608765
3728.464844	1162.061646
3727.722656	1185.449707
3726.980469	1141.485840
3726.237305	1181.703125
3725.495117	1080.529663
3724.751953	1211.614746
3724.008789	1130.659180
3723.266602	1221.320068
3722.523438	1207.668457
3721.779297	1157.023315
3721.036133	1123.208862
3720.292969	1160.014893
3719.548828	1230.427246
3718.805664	1163.004395
3718.061523	1149.375122
3717.317383	1179.432739
3716.573242	1115.410034
3715.829102	1172.336548
3715.084961	1111.694092
3714.339844	1175.318970
3713.595703	1165.058105
3712.850586	1151.443481
3712.106445	1194.892700
3711.361328	1184.633545
3710.616211	1164.311523
3709.871094	1190.963501
3709.125977	1224.315552
3708.379883	1203.996948
3707.634766	1354.698608
3706.888672	1160.026245
3706.143555	1297.278198
3705.397461	1219.983398
3704.651367	1213.085815
3703.905273	1212.891479
3703.159180	1195.947144
3702.412109	1138.814819
3701.666016	1172.121460
3700.918945	1158.540161
3700.172852	1171.745850
3699.425781	1265.282837
3698.678711	1261.733276
3697.931641	1341.840820
3697.184570	1278.057495
3696.436523	1257.781738
3695.689453	1294.371094
3694.942383	1220.593750
3694.194336	1253.833740
3693.446289	1233.574707
3692.698242	1280.171753
3691.950195	1343.463745
3691.202148	1346.589844
3690.454102	1322.988037
3689.705078	1289.372559
3688.957031	1315.884521
3688.208008	1278.941650
3687.459961	1305.446655
3686.710938	1308.575684
3685.961914	1301.690674
3685.212891	1374.899048
3684.462891	1361.332397
3683.713867	1394.474854
3682.963867	1370.902710
3682.214844	1360.678101
3681.464844	1387.135742
3680.714844	1480.263550
3679.964844	1506.693481
3679.214844	1379.803467
3678.464844	1379.582397
3677.713867	1429.338257
3676.963867	1435.771729
3676.212891	1422.218750
3675.462891	1435.311646
3674.711914	1475.037598
3673.960938	1451.497437
3673.209961	1398.007446
3672.458984	1497.625122
3671.707031	1517.350342
3670.956055	1453.894409
3670.204102	1550.128662
3669.452148	1519.947021
3668.701172	1589.536743
3667.949219	1496.186035
3667.197266	1502.594971
3666.444336	1598.744263
3665.692383	1635.043945
3664.940430	1641.427490
3664.187500	1614.586914
3663.434570	1674.118164
3662.681641	1640.638672
3661.929688	1647.016968
3661.175781	1676.633789
3660.422852	1696.282349
3659.669922	1676.096558
3658.916992	1699.057373
3658.163086	1731.964478
3657.409180	1688.560669
3656.655273	1787.796509
3655.902344	1810.724487
3655.147461	1773.960449
3654.393555	1853.243042
3653.639648	1823.113403
3652.885742	1773.107910
3652.130859	1815.901855
3651.375977	1716.216187
3650.622070	1884.885254
3649.867188	1841.526001
3649.112305	1880.969727
3648.356445	1887.290527
3647.601563	1867.125122
3646.846680	1962.815308
3646.090820	1952.572510
3645.334961	1962.186401
3644.580078	1925.479858
3643.824219	1892.092773
3643.068359	1997.624023
3642.312500	2023.758423
3641.555664	1987.065308
3640.799805	1904.103516
3640.042969	2019.480713
3639.287109	2022.461792
3638.530273	2032.050293
3637.773438	2044.939209
3637.016602	2077.642334
3636.259766	2100.427490
3635.501953	2123.205322
3634.745117	2185.593506
3633.988281	2122.524902
3633.230469	2145.288086
3632.472656	2260.441406
3631.714844	2111.606934
3630.957031	2256.418213
3630.199219	2147.211914
3629.441406	2226.015137
3628.682617	2245.442139
3627.924805	2212.114990
3627.166016	2224.945557
3626.407227	2297.094238
3625.649414	2313.201904
3624.890625	2362.250977
3624.130859	2375.048828
3623.372070	2226.457520
3622.613281	2262.324219
3621.853516	2436.465576
3621.094727	2393.279297
3620.334961	2346.815186
3619.575195	2441.876465
3618.815430	2398.709961
3618.055664	2473.993164
3617.294922	2473.596680
3616.535156	2450.178711
3615.775391	2492.533936
3615.014648	2393.501465
3614.253906	2495.022705
3613.493164	2514.343262
3612.732422	2454.789063
3611.971680	2487.252441
3611.210938	2440.862061
3610.449219	2493.024902
3609.688477	2522.182373
3608.926758	2587.449463
3608.166016	2495.109863
3607.404297	2468.450195
3606.642578	2543.540283
3605.879883	2497.192383
3605.118164	2595.220459
3604.356445	2578.402588
3603.593750	2650.146973
3602.832031	2666.119141
3602.069336	2514.865723
3601.306641	2596.420654
3600.543945	2537.004639
3599.781250	2585.757080
3599.018555	2644.323975
3598.254883	2722.529297
3597.492188	2587.790039
3596.728516	2534.973145
3595.964844	2704.847900
3595.201172	2586.546631
3594.437500	2589.405762
3593.673828	2579.171875
3592.910156	2552.578369
3592.146484	2669.961914
3591.381836	2679.348633
3590.617188	2620.041992
3589.853516	2593.458740
3589.088867	2557.074219
3588.324219	2687.440186
3587.559570	2742.580566
3586.793945	2663.700928
3586.029297	2588.114258
3585.263672	2711.856934
3584.499023	2564.417480
3583.733398	2675.059326
3582.967773	2563.595947
3582.202148	2690.528320
3581.436523	2712.949951
3580.670898	2565.628174
3579.904297	2676.180908
3579.138672	2626.805420
3578.372070	2672.060791
3577.605469	2691.205078
3576.838867	2651.635498
3576.072266	2638.166504
3575.305664	2699.693359
3574.539063	2614.501465
3573.771484	2646.677246
3573.004883	2734.244385
3572.237305	2753.356934
3571.469727	2687.758057
3570.703125	2697.099365
3569.935547	2647.814697
3569.166992	2764.618164
3568.399414	2751.152100
3567.631836	2698.626709
3566.863281	2675.411133
3566.094727	2632.677490
3565.327148	2778.672852
3564.558594	2722.923340
3563.790039	2628.159668
3563.021484	2630.990723
3562.251953	2711.860107
3561.483398	2737.434570
3560.713867	2675.234619
3559.945313	2668.305908
3559.175781	2775.113525
3558.406250	2722.684570
3557.636719	2696.260254
3556.867188	2526.933105
3556.096680	2640.189453
3555.327148	2701.458496
3554.556641	2590.647217
3553.787109	2788.232422
3553.016602	2632.007324
3552.246094	2696.482910
3551.475586	2751.204834
3550.705078	2825.372070
3549.933594	2717.890137
3549.163086	2646.113525
3548.391602	2622.993652
3547.621094	2700.375488
3546.849609	2628.635742
3546.078125	2712.473145
3545.306641	2572.710205
3544.535156	2663.008789
3543.762695	2633.429932
3542.991211	2629.769287
3542.218750	2671.443604
3541.446289	2696.916260
3540.674805	2712.669678
3539.902344	2679.869385
3539.129883	2621.191406
3538.356445	2627.242432
3537.583984	2503.891357
3536.811523	2655.510986
3536.038086	2693.893066
3535.264648	2522.088867
3534.491211	2702.728760
3533.717773	2699.063232
3532.944336	2714.790283
3532.170898	2575.406250
3531.397461	2594.378906
3530.623047	2600.423828
3529.849609	2580.628174
3529.075195	2622.195801
3528.300781	2666.978760
3527.526367	2518.051025
3526.751953	2585.430420
3525.977539	2507.562500
3525.202148	2555.561523
3524.427734	2597.092529
3523.652344	2551.516846
3522.876953	2557.558350
3522.101563	2753.852295
3521.326172	2534.169922
3520.550781	2588.565430
3519.775391	2533.357910
3519.000000	2532.952148
3518.223633	2625.986328
3517.447266	2451.601807
3516.671875	2583.271484
3515.895508	2563.534424
3515.119141	2476.183594
3514.342773	2527.298584
3513.565430	2597.710938
3512.789063	2549.018066
3512.011719	2419.891846
3511.235352	2577.157959
3510.458008	2551.009766
3509.680664	2483.056885
3508.903320	2556.624268
3508.125977	2504.768799
3507.347656	2497.937744
3506.570313	2622.896484
3505.791992	2529.275391
3505.014648	2493.523926
3504.236328	2425.655762
3503.458008	2447.752930
3502.679688	2456.996094
3501.901367	2581.840820
3501.122070	2530.055664
3500.343750	2449.394775
3499.564453	2516.406006
3498.786133	2509.584473
3498.006836	2528.434326
3497.227539	2425.368164
3496.448242	2485.924805
3495.668945	2459.869385
3494.888672	2395.342773
3494.109375	2590.531250
3493.329102	2493.948486
3492.548828	2365.345947
3491.769531	2278.443848
3490.989258	2444.689209
3490.208008	2444.297363
3489.427734	2488.748047
3488.647461	2430.704102
3487.866211	2359.870850
3487.085938	2490.753418
3486.304688	2439.138672
3485.523438	2400.342529
3484.742188	2326.359131
3483.960938	2425.168701
3483.179688	2402.387695
3482.397461	2360.423340
3481.616211	2414.409424
3480.833984	2468.377930
3480.051758	2327.320068
3479.269531	2378.088867
3478.487305	2237.090820
3477.705078	2335.787598
3476.922852	2373.750977
3476.139648	2287.124268
3475.357422	2251.625977
3474.574219	2442.862305
3473.791016	2407.350342
3473.007813	2279.274170
3472.224609	2365.086182
3471.441406	2364.707031
3470.658203	2421.761230
3469.874023	2351.188477
3469.090820	2341.242432
3468.306641	2315.353760
3467.522461	2337.303467
3466.738281	2419.821289
3465.954102	2349.305176
3465.169922	2297.934326
3464.385742	2348.552246
3463.600586	2395.967773
3462.815430	2226.746094
3462.031250	2235.944580
3461.246094	2197.371094
3460.460938	2375.327637
3459.675781	2304.908447
3458.890625	2339.552734
3458.104492	2256.431396
3457.319336	2316.528564
3456.533203	2236.618896
3455.747070	2395.311768
3454.960938	2242.263184
3454.174805	2219.643799
3453.388672	2228.826416
3452.602539	2349.270752
3451.815430	2329.823486
3451.029297	2170.551758
3450.242188	2198.801025
3449.455078	2350.942139
3448.667969	2128.214600
3447.880859	2156.456787
3447.093750	2321.233154
3446.306641	2203.389404
3445.518555	2298.268311
3444.731445	2301.073975
3443.943359	2211.850342
3443.155273	2224.187256
3442.367188	2303.140137
3441.579102	2153.693359
3440.791016	2204.089844
3440.002930	2178.369873
3439.213867	2197.042725
3438.425781	2209.369873
3437.636719	2177.322510
3436.847656	2094.584473
3436.058594	2151.278320
3435.269531	2081.241943
3434.480469	2141.086914
3433.690430	2093.241943
3432.901367	2149.899414
3432.111328	2152.720459
3431.321289	2196.689209
3430.531250	2095.064941
3429.741211	2142.192871
3428.951172	2151.340820
3428.161133	2198.444336
3427.370117	2166.464844
3426.580078	2242.010742
3425.789063	2115.182861
3424.998047	2042.136230
3424.207031	2161.915283
3423.416016	2190.010498
3422.625000	2237.054688
3421.833984	2116.647461
3421.041992	2122.625488
3420.250977	2037.014893
3419.458984	2128.260498
3418.666992	2064.776123
3417.875000	2017.095581
3417.083008	2057.802002
3416.291016	2082.717285
3415.498047	2076.073242
3414.706055	2082.049561
3413.913086	2037.558228
3413.120117	2049.845947
3412.327148	2002.220947
3411.534180	2077.562256
3410.741211	2036.252075
3409.948242	1960.287598
3409.155273	2123.829590
3408.361328	2073.079834
3407.567383	2079.047607
3406.774414	2037.770020
3405.980469	2059.486816
3405.186523	2084.345215
3404.391602	2046.234375
3403.597656	2074.234375
3402.803711	1973.196411
3402.008789	2073.569336
3401.213867	1956.833618
3400.418945	2025.721558
3399.624023	2041.121948
3398.829102	2012.494019
3398.034180	2034.179443
3397.239258	2062.145020
3396.443359	2002.097168
3395.648438	1951.496216
3394.852539	2001.455322
3394.056641	1900.606567
3393.260742	1941.134766
3392.464844	1887.435181
3391.667969	1905.972534
3390.872070	1955.898682
3390.075195	1952.446167
3389.279297	1964.687012
3388.482422	1889.060669
3387.685547	1970.332031
3386.888672	1894.728882
3386.091797	1922.653320
3385.293945	1900.393311
3384.497070	1896.953125
3383.699219	1846.489746
3382.902344	1952.765137
3382.104492	1930.514282
3381.306641	1923.937866
3380.508789	1795.178589
3379.709961	1954.645508
3378.912109	1976.255615
3378.113281	1878.864136
3377.315430	1897.348511
3376.516602	1906.435547
3375.717773	1846.661133
3374.918945	1896.436035
3374.120117	1839.811157
3373.321289	1892.699463
3372.521484	1879.884277
3371.722656	1873.328003
3370.922852	1951.200684
3370.123047	1800.819580
3369.323242	1834.915894
3368.523438	1928.384277
3367.723633	1806.203247
3366.922852	1924.641479
3366.123047	1858.730591
3365.322266	1952.135010
3364.522461	1864.380371
3363.721680	1895.305542
3362.920898	1782.612793
3362.120117	1794.812622
3361.318359	1850.701172
3360.517578	1856.645264
3359.715820	1871.947021
3358.915039	1818.616821
3358.113281	1774.660522
3357.311523	1793.086304
3356.509766	1789.680908
3355.708008	1926.559937
3354.905273	1873.263550
3354.103516	1791.936401
3353.300781	1754.258179
3352.499023	1744.630615
3351.696289	1794.189331
3350.893555	1821.931396
3350.090820	1746.905273
3349.287109	1771.532471
3348.484375	1783.699951
3347.681641	1752.289795
3346.877930	1823.582764
3346.074219	1770.396240
3345.270508	1785.666870
3344.466797	1847.588867
3343.663086	1800.643799
3342.859375	1837.668091
3342.054688	1737.887817
3341.250977	1902.355591
3340.446289	1824.352295
3339.641602	1879.993408
3338.836914	1851.729492
3338.032227	1742.707397
3337.227539	1829.394043
3336.421875	1894.314697
3335.617188	1782.233154
3334.811523	1707.440796
3334.006836	1849.948242
3333.201172	1772.065430
3332.395508	1737.648804
3331.589844	1659.808960
3330.783203	1712.275879
3329.977539	1687.189575
3329.170898	1739.635132
3328.365234	1720.753418
3327.558594	1822.776001
3326.751953	1751.196045
3325.945313	1902.764404
3325.138672	1744.437378
3324.331055	1716.275757
3323.524414	1719.098022
3322.716797	1783.858765
3321.909180	1755.704224
3321.101563	1764.710571
3320.293945	1823.241699
3319.486328	1699.149658
3318.678711	1788.617432
3317.871094	1822.364502
3317.062500	1682.864624
3316.253906	1707.338623
3315.446289	1765.822388
3314.637695	1731.526978
3313.829102	1737.432251
3313.019531	1712.425415
3312.210938	1736.874878
3311.402344	1693.335815
3310.592773	1770.302490
3309.783203	1702.059692
3308.973633	1707.963745
3308.164063	1750.922363
3307.354492	1698.153076
3306.544922	1728.751221
3305.735352	1657.482910
3304.924805	1654.130981
3304.114258	1656.951172
3303.304688	1684.451050
3302.494141	1678.011597
3301.683594	1764.096802
3300.872070	1760.730103
3300.061523	1652.539307
3299.250977	1630.695923
3298.439453	1593.448975
3297.627930	1636.335938
3296.816406	1623.748901
3296.004883	1651.213989
3295.193359	1731.032471
3294.381836	1715.356445
3293.570313	1782.822388
3292.757813	1733.277954
3291.945313	1631.420776
3291.133789	1680.401611
3290.321289	1723.212280
3289.508789	1646.019043
3288.695313	1738.040161
3287.882813	1645.490845
3287.070313	1632.926025
3286.256836	1703.381958
3285.443359	1580.140503
3284.629883	1696.687988
3283.816406	1558.120972
3283.002930	1699.216187
3282.189453	1612.921021
3281.375000	1667.953491
3280.561523	1612.403442
3279.747070	1673.559692
3278.932617	1618.026489
3278.119141	1639.255249
3277.303711	1642.061401
3276.489258	1626.453979
3275.674805	1724.378296
3274.859375	1635.135376
3274.044922	1604.199951
3273.229492	1677.546021
3272.414063	1520.894531
3271.598633	1560.506104
3270.783203	1609.301025
3269.967773	1655.015503
3269.151367	1550.561890
3268.335938	1516.610596
3267.519531	1602.141479
3266.703125	1660.078979
3265.886719	1589.377686
3265.070313	1656.484253
3264.253906	1610.297363
3263.437500	1628.404419
3262.620117	1554.692993
3261.803711	1563.623169
3260.986328	1551.134521
3260.168945	1557.003418
3259.351563	1624.039551
3258.534180	1608.489014
3257.715820	1577.656128
3256.898438	1620.200684
3256.080078	1610.771118
3255.262695	1634.960571
3254.444336	1567.476929
3253.625977	1649.710815
3252.807617	1475.337891
3251.989258	1615.586792
3251.169922	1572.577759
3250.351563	1731.084473
3249.532227	1599.546143
3248.712891	1599.289307
3247.893555	1583.774658
3247.074219	1598.775879
3246.254883	1580.215576
3245.435547	1671.465576
3244.616211	1561.410522
3243.795898	1591.651245
3242.975586	1530.422729
3242.155273	1545.417847
3241.334961	1484.216309
3240.514648	1605.865356
3239.694336	1587.327393
3238.874023	1553.564331
3238.052734	1538.086304
3237.231445	1601.789185
3236.411133	1644.158325
3235.589844	1570.832397
3234.768555	1613.192871
3233.946289	1576.414551
3233.125000	1518.348633
3232.303711	1597.204468
3231.481445	1651.700562
3230.659180	1548.030518
3229.836914	1605.557739
3229.014648	1620.501709
3228.192383	1532.085815
3227.370117	1556.154663
3226.547852	1577.177002
3225.724609	1552.616577
3224.901367	1531.102051
3224.078125	1579.454834
3223.255859	1618.681152
3222.431641	1545.546753
3221.608398	1478.507690
3220.785156	1502.553955
3219.960938	1535.697388
3219.137695	1520.278442
3218.313477	1507.898315
3217.489258	1659.331787
3216.665039	1571.107544
3215.840820	1598.148193
3215.015625	1525.122314
3214.191406	1624.918945
3213.366211	1494.321655
3212.541992	1560.754761
3211.716797	1539.293335
3210.891602	1520.868408
3210.066406	1535.769897
3209.241211	1529.465942
3208.415039	1568.586426
3207.589844	1580.445190
3206.763672	1543.865112
3205.937500	1628.364746
3205.111328	1410.215820
3204.285156	1458.401001
3203.458984	1606.403564
3202.632813	1600.096069
3201.805664	1536.329468
3200.978516	1617.724854
3200.152344	1560.022339
3199.325195	1499.315552
3198.498047	1490.007690
3197.670898	1510.921265
3196.842773	1549.956299
3196.015625	1555.749023
3195.187500	1486.030273
3194.360352	1515.990601
3193.532227	1512.727661
3192.704102	1494.371094
3191.875977	1533.370850
3191.046875	1493.890991
3190.218750	1496.668579
3189.389648	1517.547119
3188.561523	1589.699463
3187.732422	1517.059570
3186.903320	1459.520630
3186.074219	1528.632446
3185.245117	1525.372314
3184.415039	1573.352661
3183.585938	1422.419800
3182.755859	1563.807861
3181.926758	1452.089111
3181.096680	1500.050293
3180.266602	1508.844238
3179.435547	1544.736084
3178.605469	1475.241821
3177.775391	1447.912964
3176.944336	1519.913818
3176.113281	1585.873047
3175.283203	1495.355347
3174.452148	1492.106812
3173.620117	1497.882690
3172.789063	1479.598145
3171.958008	1491.387817
3171.125977	1482.129150
3170.294922	1499.926147
3169.462891	1454.604492
3168.630859	1415.307007
3167.798828	1478.172363
3166.966797	1538.013550
3166.133789	1486.707764
3165.301758	1546.528198
3164.468750	1549.282104
3163.635742	1531.021240
3162.802734	1464.741699
3161.969727	1467.507446
3161.136719	1440.266602
3160.303711	1470.035889
3159.469727	1472.799316
3158.636719	1451.568848
3157.802734	1538.295776
3156.968750	1493.076416
3156.134766	1507.824707
3155.300781	1402.681030
3154.466797	1558.284058
3153.631836	1456.162231
3152.797852	1458.923950
3151.962891	1380.812866
3151.127930	1479.418457
3150.292969	1359.408936
3149.458008	1547.800659
3148.623047	1511.631958
3147.788086	1421.603516
3146.952148	1487.207153
3146.117188	1448.073486
3145.281250	1435.875122
3144.445313	1483.499146
3143.609375	1405.509155
3142.773438	1474.052490
3141.936523	1393.099487
3141.100586	1482.545654
3140.263672	1398.628662
3139.426758	1392.427856
3138.590820	1437.017456
3137.753906	1454.708984
3136.916016	1373.836914
3136.079102	1373.616089
3135.242188	1433.108032
3134.404297	1441.833130
3133.566406	1483.386963
3132.729492	1507.022095
3131.891602	1542.584473
3131.052734	1396.157715
3130.214844	1500.329956
3129.376953	1356.939087
3128.538086	1428.284302
3127.700195	1338.614868
3126.861328	1386.093262
3126.022461	1487.202881
3125.183594	1397.567139
3124.343750	1373.507202
3123.504883	1423.928223
3122.666016	1453.483765
3121.826172	1369.866821
3120.986328	1494.701294
3120.146484	1399.196533
3119.306641	1458.502319
3118.466797	1339.225586
3117.626953	1398.521729
3116.786133	1353.670410
3115.946289	1374.275146
3115.105469	1415.692139
3114.264648	1364.912231
3113.423828	1361.719604
3112.583008	1394.200439
3111.741211	1411.809570
3110.900391	1420.497803
3110.058594	1354.901367
3109.217773	1351.712646
3108.375977	1345.554688
3107.534180	1375.036743
3106.692383	1425.294800
3105.849609	1344.905640
3105.007813	1421.868042
3104.165039	1350.409058
3103.323242	1409.540894
3102.480469	1326.238892
3101.637695	1326.025635
3100.794922	1355.472534
3099.952148	1411.599976
3099.108398	1438.058594
3098.265625	1428.933472
3097.421875	1310.139038
3096.578125	1437.364868
3095.734375	1413.428345
3094.890625	1312.469727
3094.046875	1371.502808
3093.203125	1338.703125
3092.358398	1427.325562
3091.513672	1341.233276
3090.669922	1444.628174
3089.825195	1402.958252
3088.980469	1370.179688
3088.134766	1405.465820
3087.290039	1396.364624
3086.445313	1336.981445
3085.599609	1416.617554
3084.753906	1345.422363
3083.908203	1386.596802
3083.062500	1344.989502
3082.216797	1288.617798
3081.371094	1385.927734
3080.524414	1409.341553
3079.678711	1370.711304
3078.832031	1361.629883
3077.985352	1370.270264
3077.138672	1367.097168
3076.291992	1387.542725
3075.445313	1354.850342
3074.597656	1401.852661
3073.750977	1419.331909
3072.903320	1324.693359
3072.055664	1359.878296
3071.208008	1321.317749
3070.360352	1327.002930
3069.512695	1418.190552
3068.665039	1341.315674
3067.816406	1411.839233
3066.967773	1311.414063
3066.120117	1414.331421
3065.271484	1331.614502
3064.421875	1296.053345
3063.573242	1342.966431
3062.724609	1378.085815
3061.875000	1401.417236
3061.026367	1330.543457
3060.176758	1350.931763
3059.327148	1336.000732
3058.477539	1403.457764
3057.627930	1414.999023
3056.777344	1320.649292
3055.927734	1343.963501
3055.077148	1290.820557
3054.226563	1325.891602
3053.375977	1410.921387
3052.525391	1290.197510
3051.674805	1319.374634
3050.824219	1304.472290
3049.972656	1313.074829
3049.122070	1353.982300
3048.270508	1359.637573
3047.418945	1356.482666
3046.567383	1326.907959
3045.715820	1323.759155
3044.864258	1352.893066
3044.011719	1361.477905
3043.159180	1375.927490
3042.307617	1346.373291
3041.455078	1354.954956
3040.602539	1299.022583
3039.750000	1313.472778
3038.896484	1342.575195
3038.043945	1292.533569
3037.190430	1333.351685
3036.337891	1359.506836
3035.484375	1444.243408
3034.630859	1224.333862
3033.777344	1323.707642
3032.922852	1335.206909
3032.069336	1332.064331
3031.214844	1249.889893
3030.361328	1317.002075
3029.506836	1322.642456
3028.652344	1234.657715
3027.797852	1260.786255
3026.942383	1281.056763
3026.087891	1242.834351
3025.232422	1318.654297
3024.377930	1274.591309
3023.522461	1315.306763
3022.666992	1323.862305
3021.811523	1320.727173
3020.955078	1340.964966
3020.099609	1311.538818
3019.243164	1308.407104
3018.387695	1258.555054
3017.531250	1328.422974
3016.674805	1275.664551
3015.818359	1336.751221
3014.961914	1281.090210
3014.104492	1318.814331
3013.248047	1371.112671
3012.390625	1324.223267
3011.533203	1341.507935
3010.675781	1253.816284
3009.818359	1262.360474
3008.960938	1253.412476
3008.102539	1343.558350
3007.245117	1273.406616
3006.386719	1331.471558
3005.528320	1258.431274
3004.669922	1272.791382
3003.811523	1231.817139
3002.953125	1374.288452
3002.094727	1289.643433
3001.235352	1248.686157
3000.376953	1204.831665
2999.517578	1297.749634
2998.658203	1274.266357
2997.798828	1306.058105
2996.939453	1241.864136
2996.079102	1253.295532
2995.219727	1270.538086
2994.359375	1284.868164
2993.499023	1238.157593
2992.638672	1246.676147
2991.778320	1284.247314
2990.917969	1284.040405
2990.057617	1333.211792
2989.196289	1292.339111
2988.335938	1207.924683
2987.474609	1213.536499
2986.613281	1309.130981
2985.751953	1297.311035
2984.890625	1320.316406
2984.028320	1241.767822
2983.166992	1282.179810
2982.304688	1284.873657
2981.442383	1209.268555
2980.580078	1281.560181
2979.717773	1261.060791
2978.855469	1324.625122
2977.993164	1333.105835
2977.129883	1245.963379
2976.267578	1216.791382
2975.404297	1274.528320
2974.541016	1277.219238
2973.677734	1326.240601
2972.814453	1291.283813
2971.950195	1340.287231
2971.086914	1273.501831
2970.222656	1287.765869
2969.358398	1339.639282
2968.494141	1209.241943
2967.629883	1243.756470
2966.765625	1315.855835
2965.901367	1226.006470
2965.036133	1280.739014
2964.171875	1260.298462
2963.306641	1225.413818
2962.441406	1309.016479
2961.576172	1248.132446
2960.710938	1207.489014
2959.844727	1267.947998
2958.979492	1233.089966
2958.113281	1276.201172
2957.248047	1273.108643
2956.381836	1339.290649
2955.515625	1292.899780
2954.648438	1203.241821
2953.782227	1229.012939
2952.915039	1263.429321
2952.048828	1300.718628
2951.181641	1280.323608
2950.314453	1245.519531
2949.447266	1228.022583
2948.580078	1245.117920
2947.712891	1201.690918
2946.844727	1334.036377
2945.976563	1232.992554
2945.109375	1339.367065
2944.241211	1365.070190
2943.373047	1235.275757
2942.503906	1263.866211
2941.635742	1237.755859
2940.767578	1246.190430
2939.898438	1317.928833
2939.029297	1326.347656
2938.160156	1288.737427
2937.291016	1291.405884
2936.421875	1334.333374
2935.552734	1336.993530
2934.682617	1285.031616
2933.812500	1333.687988
2932.943359	1330.599121
2932.073242	1310.270752
2931.203125	1301.440552
2930.332031	1335.700439
2929.461914	1243.580688
2928.591797	1297.939453
2927.720703	1291.988037
2926.849609	1257.332153
2925.978516	1294.441528
2925.107422	1328.669067
2924.236328	1279.677856
2923.365234	1299.552856
2922.493164	1350.972778
2921.621094	1367.961914
2920.750000	1347.669678
2919.877930	1307.315430
2919.005859	1338.635498
2918.132813	1295.429688
2917.260742	1355.396973
2916.387695	1320.797485
2915.515625	1357.824341
2914.642578	1340.420410
2913.769531	1428.978394
2912.896484	1328.535156
2912.023438	1414.203613
2911.149414	1339.555664
2910.276367	1456.674927
2909.402344	1413.519287
2908.528320	1364.655762
2907.654297	1398.760986
2906.780273	1378.515381
2905.906250	1278.209473
2905.032227	1289.430420
2904.157227	1300.651245
2903.282227	1311.872192
2902.407227	1323.093140
2901.532227	1334.313965
2900.657227	1345.534912
2899.782227	1342.461426
2898.907227	1236.578735
2898.031250	1293.486816
2897.155273	1259.019043
2896.280273	1327.322876
2895.404297	1295.714722
2894.527344	1224.167236
2893.651367	1258.206665
2892.775391	1223.772217
2891.898438	1306.287231
2891.022461	1326.038330
2890.145508	1305.865601
2889.268555	1228.683960
2888.391602	1214.234131
2887.513672	1242.536743
2886.636719	1199.595215
2885.758789	1236.437744
2884.880859	1142.238525
2884.003906	1201.862549
2883.125977	1270.009888
2882.247070	1301.122925
2881.369141	1232.593628
2880.491211	1289.318237
2879.612305	1263.498657
2878.733398	1155.174927
2877.854492	1200.505249
2876.975586	1302.707642
2876.096680	1248.463623
2875.217773	1214.141113
2874.337891	1179.829590
2873.458984	1154.056519
2872.579102	1230.605469
2871.699219	1156.525513
2870.819336	1233.049316
2869.939453	1230.009521
2869.059570	1215.609863
2868.178711	1249.490723
2867.297852	1158.431519
2866.417969	1161.083374
2865.537109	1087.098145
2864.656250	1183.411865
2863.774414	1205.920410
2862.893555	1234.095703
2862.012695	1131.780884
2861.130859	1216.680664
2860.249023	1216.484253
2859.367188	1182.265747
2858.485352	1199.083130
2857.603516	1227.232056
2856.720703	1198.695923
2855.838867	1232.502441
2854.956055	1232.303345
2854.073242	1226.439575
2853.190430	1209.249634
2852.307617	1200.559814
2851.424805	1242.831787
2850.541992	1160.543823
2849.658203	1242.430298
2848.774414	1219.592285
2847.891602	1143.006226
2847.007813	1207.883301
2846.124023	1182.233398
2845.239258	1179.214600
2844.355469	1193.161133
2843.470703	1198.622192
2842.586914	1260.611206
2841.702148	1215.191162
2840.817383	1226.297241
2839.931641	1155.471313
2839.046875	1220.251709
2838.162109	1169.218994
2837.276367	1123.850220
2836.390625	1199.897461
2835.504883	1205.349243
2834.619141	1154.351807
2833.733398	1261.398193
2832.847656	1128.585693
2831.960938	1229.959595
2831.075195	1215.658081
2830.188477	1218.281860
2829.301758	1187.068970
2828.415039	1223.526611
2827.528320	1141.585693
2826.641602	1296.406372
2825.753906	1138.399048
2824.866211	1236.822754
2823.979492	1211.270752
2823.091797	1188.543457
2822.204102	1185.535400
2821.315430	1117.770752
2820.427734	1120.405151
2819.539063	1173.702148
2818.651367	1170.698364
2817.762695	1178.950317
2816.874023	1164.693481
2815.985352	1119.500122
2815.096680	1167.129395
2814.207031	1197.871704
2813.318359	1175.186523
2812.428711	1163.752563
2811.539063	1261.933472
2810.649414	1191.477295
2809.759766	1151.949829
2808.870117	1244.466553
2807.979492	1171.238525
2807.088867	1182.282349
2806.199219	1187.706909
2805.308594	1198.744385
2804.417969	1206.971313
2803.527344	1181.518066
2802.635742	1158.879028
2801.745117	1127.830688
2800.853516	1152.894165
2799.961914	1124.661377
2799.071289	1225.430420
2798.178711	1188.783691
2797.287109	1163.361938
2796.395508	1196.807861
2795.502930	1140.566895
2794.611328	1218.836304
2793.718750	1190.624512
2792.826172	1162.421875
2791.933594	1198.641235
2791.041016	1190.047119
2790.147461	1114.263916
2789.254883	1189.662231
2788.361328	1203.463623
2787.467773	1175.286011
2786.574219	1169.500366
2785.680664	1141.337280
2784.787109	1213.873169
2783.892578	1222.066406
2782.999023	1202.296509
2782.104492	1160.168213
2781.209961	1185.136841
2780.315430	1145.819580
2779.420898	1159.605469
2778.526367	1159.417847
2777.630859	1159.230347
2776.735352	1178.593018
2775.840820	1220.288696
2774.945313	1169.835815
2774.049805	1197.561890
2773.154297	1091.307495
2772.257813	1107.874756
2771.362305	1160.708618
2770.465820	1146.572388
2769.569336	1129.651245
2768.672852	1199.188843
2767.776367	1235.243530
2766.879883	1081.708740
2765.982422	1173.519775
2765.085938	1159.394897
2764.188477	1175.926758
2763.291016	1092.153320
2762.393555	1197.831421
2761.496094	1153.074463
2760.598633	1183.520142
2759.701172	1236.230469
2758.802734	1177.569458
2757.904297	1182.945801
2757.005859	1143.793091
2756.107422	1199.257935
2755.208984	1157.333130
2754.310547	1159.927490
2753.411133	1106.897949
2752.512695	1167.894287
2751.613281	1162.144775
2750.713867	1159.176880
2749.814453	1133.975098
2748.915039	1114.339355
2748.014648	1150.278809
2747.115234	1194.540771
2746.214844	1144.351440
2745.314453	1177.491455
2744.414063	1241.163940
2743.513672	1093.824219
2742.613281	1157.489624
2741.711914	1232.235474
2740.811523	1165.439453
2739.910156	1148.604370
2739.008789	1151.192383
2738.107422	1156.553101
2737.206055	1131.408325
2736.304688	1133.997803
2735.402344	1111.636963
2734.500977	1166.891235
2733.598633	1219.356445
2732.696289	1105.555542
2731.793945	1152.472778
2730.891602	1155.056152
2729.988281	1179.794434
2729.085938	1157.451172
2728.182617	1171.106689
2727.279297	1154.308350
2726.375977	1120.909302
2725.472656	1140.098389
2724.569336	1203.549805
2723.666016	1131.430176
2722.761719	1147.842285
2721.857422	1133.829346
2720.953125	1114.290771
2720.048828	1080.935791
2719.144531	1083.524902
2718.240234	1216.004395
2717.335938	1177.122803
2716.430664	1138.253662
2715.525391	1115.970825
2714.620117	1154.456055
2713.714844	1101.802368
2712.809570	1065.731445
2711.904297	1079.361328
2710.998047	1153.708374
2710.091797	1134.204224
2709.186523	1120.224609
2708.280273	1144.871704
2707.374023	1141.927979
2706.466797	1213.446655
2705.560547	1089.167725
2704.653320	1077.963501
2703.747070	1127.405762
2702.839844	1105.174805
2701.932617	1116.018188
2701.025391	1151.654419
2700.117188	1170.750732
2699.209961	1239.417603
2698.301758	1115.295166
2697.393555	1189.455444
2696.485352	1054.369507
2695.577148	1197.327515
2694.668945	1128.332764
2693.760742	1100.634033
2692.851563	1141.722778
2691.943359	1149.789917
2691.034180	1130.351807
2690.125000	1102.670654
2689.215820	1110.740112
2688.305664	1146.295898
2687.396484	1170.846313
2686.486328	1088.216064
2685.577148	1121.010620
2684.666992	1148.300171
2683.756836	1145.367432
2682.846680	1150.674316
2681.935547	1029.672852
2681.025391	1087.158325
2680.114258	1045.808594
2679.203125	1095.039307
2678.291992	1067.421753
2677.380859	1144.068604
2676.469727	1097.250122
2675.558594	1124.499023
2674.646484	1151.739136
2673.734375	1157.036011
2672.823242	1126.693604
2671.911133	1167.624512
2670.998047	1115.366577
2670.085938	1098.745728
2669.173828	1093.088379
2668.260742	1131.259033
2667.347656	1068.085938
2666.434570	1163.751099
2665.521484	1190.940308
2664.608398	1168.848511
2663.695313	1100.236328
2662.781250	1187.624756
2661.868164	1083.463379
2660.954102	1140.734863
2660.040039	1140.549927
2659.125977	1058.324341
2658.210938	1153.851196
2657.296875	1131.793701
2656.381836	1093.343140
2655.467773	1142.358398
2654.552734	1098.453613
2653.637695	1125.595703
2652.722656	1043.465576
2651.806641	1190.778076
2650.891602	1092.279785
2649.975586	1152.168335
2649.059570	1121.953491
2648.143555	1124.500854
2647.227539	1132.505249
2646.311523	1102.308228
2645.395508	1093.945313
2644.478516	1107.405884
2643.561523	1153.588013
2642.644531	1128.860352
2641.727539	1128.677246
2640.810547	1136.671753
2639.893555	1120.135010
2638.975586	1049.104614
2638.058594	1187.884155
2637.140625	1070.556763
2636.222656	1086.724854
2635.304688	1086.548584
2634.386719	1113.599609
2633.467773	1148.808838
2632.549805	1066.966797
2631.630859	1077.679321
2630.711914	1126.481934
2629.792969	1120.858154
2628.874023	1079.874878
2627.955078	1177.607056
2627.036133	1071.366943
2626.116211	1122.849609
2625.196289	1141.695679
2624.276367	1065.409668
2623.356445	1141.325073
2622.436523	1171.026855
2621.516602	1105.639404
2620.595703	1113.608398
2619.674805	1045.535767
2618.754883	1132.253540
2617.833984	1110.351440
2616.912109	1178.030151
2615.991211	1139.844116
2615.070313	1088.103149
2614.148438	1093.352539
2613.226563	1201.678833
2612.304688	1196.059448
2611.382813	1076.549927
2610.460938	1163.135864
2609.539063	1032.827148
2608.616211	1170.889526
2607.694336	1089.400879
2606.771484	1086.514526
2605.848633	1072.792725
2604.925781	1137.625732
2604.001953	1102.234497
2603.079102	1107.471069
2602.155273	1123.535156
2601.232422	1120.645874
2600.308594	1182.711914
2599.384766	1561.359253
2598.460938	1406.889038
2597.536133	1163.200073
2596.612305	1160.306519
2595.687500	1108.737549
2594.762695	1211.301880
2593.837891	1173.258179
2592.913086	1143.335571
2591.988281	1089.100220
2591.062500	1140.262207
2590.137695	1088.746460
2589.211914	1058.856812
2588.286133	1123.502319
2587.360352	1112.518677
2586.434570	1158.235474
2585.508789	1195.839111
2584.582031	1068.793091
2583.655273	1109.097534
2582.729492	1211.445068
2581.802734	1103.341919
2580.875977	1146.318237
2579.948242	1094.893188
2579.021484	1207.961792
2578.093750	1143.063843
2577.166016	1080.882324
2576.239258	1177.727783
2575.311523	1134.422974
2574.382813	1128.850464
2573.455078	1155.604126
2572.526367	1158.109741
2571.598633	1104.064697
2570.669922	1117.347290
2569.741211	1160.237305
2568.812500	1116.984253
2567.883789	1095.274048
2566.954102	1097.786743
2566.025391	1215.977905
2565.095703	1127.017578
2564.166016	1140.281128
2563.236328	1156.229248
2562.306641	1094.206543
2561.375977	1083.276611
2560.446289	1091.163330
2559.515625	1123.231934
2558.584961	1029.014160
2557.654297	1128.239380
2556.723633	1119.998535
2555.792969	1119.816406
2554.861328	1130.374390
2553.930664	1122.136963
2552.999023	1135.375122
2552.067383	1070.782593
2551.135742	1118.906616
2550.204102	1118.724731
2549.271484	1043.436890
2548.339844	1169.317627
2547.407227	1059.186646
2546.474609	1107.273315
2545.541992	1080.287109
2544.609375	1114.953857
2543.676758	1087.975098
2542.743164	1095.836182
2541.810547	1119.767822
2540.876953	1141.013184
2539.943359	1178.319702
2539.009766	1154.030029
2538.076172	1102.976929
2537.141602	1068.000610
2536.208008	1035.711792
2535.273438	1155.955444
2534.338867	1080.856567
2533.404297	1179.654053
2532.469727	1109.924683
2531.535156	1117.766479
2530.599609	1096.195557
2529.664063	1026.513672
2528.729492	1151.967285
2527.793945	1101.005371
2526.857422	1124.873535
2525.921875	1159.419678
2524.986328	1143.204956
2524.049805	1092.277466
2523.113281	1142.833008
2522.177734	1099.931396
2521.241211	1057.043579
2520.303711	1059.540527
2519.367188	1166.105469
2518.429688	1112.555786
2517.493164	1091.034302
2516.555664	1146.866577
2515.618164	1109.346191
2514.680664	1101.166870
2513.742188	1096.990967
2512.804688	1092.815063
2511.866211	1088.639160
2510.928711	1084.463257
2509.990234	1089.614990
2509.051758	1060.137329
2508.112305	1105.239746
2507.173828	1163.641357
2506.234375	1115.529541
2505.295898	1165.924683
2504.356445	1112.505005
2503.416992	1128.290283
2502.477539	1048.287842
2501.537109	1093.340576
2500.597656	1063.905151
2499.657227	1098.303345
2498.716797	1082.171143
2497.776367	1092.628906
2496.835938	1111.057251
2495.895508	1094.930908
2494.955078	1041.609253
2494.013672	1110.514771
2493.072266	1081.114746
2492.130859	1126.088501
2491.189453	1048.897583
2490.248047	1093.861816
2489.306641	1040.592285
2488.364258	1104.122314
2487.421875	1019.023865
2486.480469	1074.576782
2485.538086	1103.583130
2484.594727	1100.750977
2483.652344	1036.924194
2482.709961	1108.347168
2481.766602	1028.633301
2480.823242	1092.082153
2479.879883	1044.199829
2478.936523	1099.676025
2477.993164	1054.457275
2477.049805	1080.775146
2476.105469	1099.138916
2475.161133	1120.144653
2474.216797	1114.666870
2473.272461	1045.657227
2472.328125	1109.010254
2471.383789	1082.365845
2470.438477	1106.003052
2469.494141	1121.695923
2468.548828	1118.868164
2467.603516	1113.396606
2466.658203	1010.090820
2465.711914	1065.445801
2464.766602	1067.915649
2463.820313	1049.241211
2462.874023	1109.847656
2461.927734	1056.825562
2460.981445	1146.468872
2460.035156	1085.534424
2459.088867	1124.969116
2458.141602	1108.943848
2457.194336	1069.164429
2456.247070	1037.316528
2455.299805	1097.845703
2454.352539	1068.641968
2453.405273	1084.296997
2452.457031	1039.278320
2451.509766	1078.668945
2450.561523	1094.314575
2449.613281	1065.135010
2448.665039	1064.961426
2447.715820	1109.593384
2446.767578	1035.627319
2445.818359	1069.710449
2444.870117	979.968994
2443.920898	1098.334595
2442.970703	1066.553955
2442.021484	1055.848022
2441.072266	1097.797607
2440.122070	1089.722168
2439.171875	1097.439819
2438.222656	1128.836792
2437.272461	1107.605591
2436.321289	1123.207764
2435.371094	1054.643799
2434.419922	1107.063965
2433.469727	1172.612915
2432.518555	1048.870605
2431.567383	1069.726196
2430.616211	1048.528564
2429.664063	1045.730225
2428.712891	1029.797485
2427.760742	1105.801147
2426.808594	1116.125610
2425.856445	1081.808838
2424.904297	1097.384399
2423.952148	1044.707520
2423.000000	1055.035034
2422.046875	1060.111084
2421.093750	1180.624146
2420.140625	1104.359375
2419.187500	1049.101440
2418.234375	1151.201050
2417.281250	1048.759277
2416.327148	1027.616455
2415.373047	998.617371
2414.419922	1027.281250
2413.465820	1053.315552
2412.510742	1113.398315
2411.556641	1058.210693
2410.601563	1013.516663
2409.647461	1029.062256
2408.692383	1021.040161
2407.737305	1031.344116
2406.782227	1033.793091
2405.827148	1025.774048
2404.871094	1017.757690
2403.916016	1064.678101
2402.958984	1061.888916
2402.003906	1064.330811
2401.046875	1158.284058
2400.091797	1024.770264
2399.134766	1152.678467
2398.177734	993.075623
2397.220703	990.300659
2396.263672	1086.801758
2395.306641	997.813721
2394.349609	1096.893677
2393.392578	1020.989075
2392.435547	1018.211670
2391.476563	1078.084106
2390.519531	1059.638550
2389.560547	1038.589355
2388.603516	1046.247192
2387.644531	991.294312
2386.685547	1069.379883
2385.728516	1045.734985
2384.769531	1050.779053
2383.810547	1050.607544
2382.851563	1011.337891
2381.890625	990.323853
2380.931641	982.345093
2379.972656	1013.447937
2379.013672	997.653442
2378.052734	1046.974365
2377.093750	999.931702
2376.132813	1012.786255
2375.171875	1015.224060
2374.210938	1043.688110
2373.250000	994.074219
2372.291016	957.485840
2371.330078	965.133789
2370.367188	1043.006592
2369.406250	1022.031555
2368.445313	1003.663513
2367.484375	990.500916
2366.521484	985.140503
2365.560547	945.996277
2364.597656	992.614197
2363.634766	997.648132
2362.673828	953.325684
2361.710938	934.989624
2360.748047	1012.739990
2359.785156	1009.978210
2358.822266	1017.601013
2357.859375	955.142883
2356.894531	1012.078430
2355.931641	1014.507751
2354.968750	1003.965149
2354.003906	954.518921
2353.041016	969.923218
2352.076172	1000.880249
2351.111328	964.421265
2350.146484	920.197876
2349.181641	951.147766
2348.218750	945.809814
2347.251953	981.927002
2346.287109	971.404907
2345.322266	1030.815918
2344.357422	934.833557
2343.390625	973.517944
2342.425781	968.181396
2341.458984	1004.259338
2340.494141	980.804382
2339.527344	998.756226
2338.560547	910.634033
2337.595703	959.630737
2336.628906	982.749512
2335.662109	969.660095
2334.693359	972.086914
2333.726563	953.833618
2332.759766	1049.303955
2331.792969	1077.557251
2330.824219	1160.057739
2329.857422	1188.283691
2328.888672	1208.751831
2327.921875	1079.435181
2326.953125	1035.365356
2325.984375	1006.799255
2325.015625	955.012329
2324.046875	947.114136
2323.078125	910.835510
2322.109375	954.544006
2321.140625	889.902222
2320.169922	936.178833
2319.201172	936.025757
2318.230469	910.091064
2317.261719	943.452881
2316.291016	938.143982
2315.320313	922.529175
2314.351563	909.495911
2313.380859	963.444336
2312.410156	976.164917
2311.439453	981.155701
2310.468750	901.176697
2309.496094	944.793579
2308.525391	936.917236
2307.554688	941.911011
2306.582031	946.903137
2305.611328	926.166809
2304.638672	902.864929
2303.666016	1000.447266
2302.695313	879.426758
2301.722656	874.140869
2300.750000	927.980042
2299.777344	876.425049
2298.804688	932.815918
2297.832031	817.043884
2296.857422	922.235107
2295.884766	940.063599
2294.912109	919.365295
2293.937500	914.079590
2292.962891	926.766113
2291.990234	931.748047
2291.015625	893.099915
2290.041016	931.443115
2289.066406	846.627930
2288.091797	913.182434
2287.117188	895.080139
2286.142578	1007.761963
2285.167969	902.478760
2284.191406	894.640686
2283.216797	850.922913
2282.240234	914.848694
2281.265625	924.947632
2280.289063	891.493347
2279.314453	904.154114
2278.337891	909.127991
2277.361328	855.208557
2276.384766	916.510620
2275.408203	936.837891
2274.431641	918.769775
2273.453125	872.560425
2272.476563	951.728271
2271.500000	915.760620
2270.521484	849.113770
2269.544922	935.917969
2268.566406	879.516541
2267.587891	889.597839
2266.609375	920.122925
2265.632813	914.861267
2264.654297	876.385559
2263.675781	904.343079
2262.695313	860.773193
2261.716797	916.815918
2260.738281	873.258240
2259.759766	850.138489
2258.779297	849.999268
2257.800781	880.485596
2256.820313	819.100220
2255.839844	887.851074
2254.859375	854.544250
2253.880859	900.312561
2252.900391	928.215515
2251.919922	907.666443
2250.937500	869.279663
2249.957031	838.551758
2248.976563	866.446472
2247.996094	889.236145
2247.013672	894.185547
2246.033203	881.303406
2245.050781	888.799133
2244.068359	855.551819
2243.087891	893.599609
2242.105469	867.998718
2241.123047	885.671692
2240.140625	880.437317
2239.158203	877.748840
2238.173828	841.992065
2237.191406	933.415222
2236.208984	897.660950
2235.224609	894.971313
2234.242188	922.787903
2233.257813	869.260986
2232.275391	861.494690
2231.291016	841.026550
2230.306641	932.344849
2229.322266	840.750854
2228.337891	886.326111
2227.353516	799.848022
2226.369141	936.811218
2225.384766	936.657654
2224.398438	867.979431
2223.414063	875.449707
2222.427734	877.843323
2221.443359	854.869019
2220.457031	831.902283
2219.470703	872.339844
2218.484375	839.235901
2217.498047	897.404175
2216.511719	899.791687
2215.525391	808.412598
2214.539063	856.422119
2213.552734	874.015320
2212.566406	863.740112
2211.578125	812.947510
2210.591797	931.824402
2209.603516	873.442078
2208.615234	863.173645
2207.628906	820.007019
2206.640625	880.603760
2205.652344	888.049500
2204.664063	860.077820
2203.675781	791.647644
2202.687500	839.565186
2201.697266	897.580566
2200.708984	882.265442
2199.720703	846.734741
2198.730469	856.704407
2197.742188	899.518433
2196.751953	788.212646
2195.761719	843.653320
2194.771484	835.938416
2193.781250	838.326294
2192.791016	820.516113
2191.800781	865.817993
2190.810547	812.675354
2189.820313	865.533813
2188.830078	885.575867
2187.837891	779.481567
2186.847656	902.940491
2185.855469	930.531738
2184.863281	821.960876
2183.873047	859.640015
2182.880859	778.842163
2181.888672	786.274658
2180.896484	871.815308
2179.904297	869.152893
2178.912109	793.444092
2177.917969	848.719910
2176.925781	798.219727
2175.933594	833.335510
2174.939453	850.819214
2173.947266	843.129150
2172.953125	837.957947
2171.958984	842.852295
2170.964844	794.918213
2169.970703	835.030090
2168.976563	842.437195
2167.982422	854.870483
2166.988281	786.854492
2165.994141	847.049255
2165.000000	799.161499
2164.003906	859.334473
2163.009766	791.362305
2162.013672	733.459778
2161.017578	826.262451
2160.023438	856.259033
2159.027344	820.969849
2158.031250	830.875793
2157.035156	843.288269
2156.039063	865.734131
2155.042969	805.376831
2154.044922	852.906982
2153.048828	805.112244
2152.052734	852.626770
2151.054688	839.950134
2150.058594	864.881165
2149.060547	872.258545
2148.062500	897.176025
2147.064453	851.926636
2146.066406	881.849731
2145.068359	886.714478
2144.070313	806.427002
2143.072266	883.919128
2142.074219	876.263062
2141.074219	851.087036
2140.076172	825.919373
2139.078125	883.338257
2138.078125	763.098816
2137.078125	777.553833
2136.078125	792.008850
2135.080078	806.463867
2134.080078	820.918945
2133.080078	835.373962
2132.080078	849.828979
2131.078125	832.195679
2130.078125	812.069519
2129.078125	789.451660
2128.076172	811.802551
2127.076172	851.628174
2126.074219	858.979248
2125.074219	876.314392
2124.072266	811.268799
2123.070313	803.648071
2122.068359	783.552795
2121.066406	893.203125
2120.064453	818.219116
2119.062500	828.061218
2118.058594	855.356323
2117.056641	842.748962
2116.052734	860.060852
2115.050781	805.083984
2114.046875	814.920044
2113.044922	814.786011
2112.041016	822.125854
2111.037109	846.899475
2110.033203	844.269714
2109.029297	866.541382
2108.025391	804.157593
2107.021484	848.831665
2106.015625	798.915344
2105.011719	836.110291
2104.005859	801.140564
2103.001953	840.810425
2101.996094	845.646484
2100.992188	808.205566
2099.986328	832.936401
2098.980469	832.799377
2097.974609	790.407837
2096.968750	810.158997
2095.962891	854.750977
2094.955078	842.188721
2093.949219	819.694824
2092.943359	844.395081
2091.935547	814.458862
2090.929688	859.013367
2089.921875	789.367920
2088.914063	858.730652
2087.906250	836.256042
2086.900391	826.194153
2085.892578	811.174255
2084.882813	803.599976
2083.875000	805.947571
2082.867188	810.773743
2081.859375	798.245178
2080.849609	820.421326
2079.841797	790.547791
2078.832031	792.895447
2077.824219	787.810120
2076.814453	765.387573
2075.804688	799.933594
2074.794922	787.421082
2073.785156	826.903564
2072.775391	794.587830
2071.765625	769.707581
2070.753906	769.580811
2069.744141	838.729736
2068.734375	858.381348
2067.722656	826.086914
2066.712891	803.694702
2065.701172	825.814880
2064.689453	798.485840
2063.677734	758.807373
2062.666016	795.751587
2061.654297	812.916565
2060.642578	788.078064
2059.630859	800.298523
2058.619141	785.348816
2057.605469	772.873230
2056.593750	819.653809
2055.580078	792.366028
2054.568359	760.151184
2053.554688	752.623108
2052.541016	750.031921
2051.527344	821.445618
2050.513672	752.251160
2049.500000	826.106934
2048.486328	764.331238
2047.472656	830.765076
2046.457031	818.304321
2045.443359	746.702881
2044.429688	766.291504
2043.414063	795.727844
2042.398438	830.080811
2041.384766	736.359802
2040.369141	760.861816
2039.353516	758.274475
2038.337891	782.764709
2037.322266	777.713501
2036.306641	792.349548
2035.289063	779.917419
2034.273438	750.270020
2033.257813	755.065369
2032.240234	764.777222
2031.222656	779.403259
2030.207031	735.025757
2029.189453	761.941162
2028.171875	764.273010
2027.154297	771.518188
2026.136719	800.870911
2025.119141	842.495178
2024.101563	734.298889
2023.082031	758.732239
2022.064453	704.596252
2021.046875	719.207886
2020.027344	792.716187
2019.007813	772.954834
2017.990234	770.373962
2016.970703	777.605957
2015.951172	752.951599
2014.931641	765.088440
2013.912109	828.709045
2012.892578	791.801392
2011.873047	759.807922
2010.851563	786.639038
2009.832031	766.907776
2008.810547	734.934143
2007.791016	683.375977
2006.769531	732.242676
2005.748047	751.710449
2004.728516	722.208435
2003.707031	751.462402
2002.685547	719.522766
2001.662109	829.516907
2000.640625	743.750854
1999.619141	794.997131
1998.597656	731.276672
1997.574219	740.937378
1996.552734	755.484680
1995.529297	762.693604
1994.505859	774.788391
1993.484375	767.329346
1992.460938	740.326172
1991.437500	710.888977
1990.414063	742.524292
1989.390625	747.285950
1988.365234	744.720886
1987.341797	688.447937
1986.318359	781.088562
1985.292969	685.780151
1984.269531	751.549561
1983.244141	739.226990
1982.218750	775.694336
1981.193359	682.888489
1980.167969	746.176392
1979.142578	775.310181
1978.117188	714.240112
1977.091797	740.932251
1976.066406	709.130554
1975.041016	786.980530
1974.013672	725.948853
1972.988281	669.808594
1971.960938	701.356445
1970.933594	701.240601
1969.906250	764.420776
1968.880859	766.728577
1967.853516	703.326843
1966.826172	698.344177
1965.796875	681.198853
1964.769531	737.032654
1963.742188	663.949463
1962.714844	712.472717
1961.685547	688.042542
1960.658203	731.684082
1959.628906	697.536987
1958.599609	724.152222
1957.570313	745.899353
1956.541016	706.908264
1955.511719	735.937500
1954.482422	721.245300
1953.453125	689.561646
1952.423828	750.138550
1951.394531	694.188232
1950.363281	711.061340
1949.333984	706.090942
1948.302734	676.861938
1947.271484	749.518860
1946.240234	705.740906
1945.210938	727.447693
1944.179688	695.809937
1943.148438	676.302734
1942.115234	698.003540
1941.083984	739.082947
1940.052734	707.464111
1939.021484	690.390198
1937.988281	738.716492
1936.955078	765.232178
1935.923828	694.890259
1934.890625	714.141968
1933.857422	697.080933
1932.824219	726.005920
1931.791016	728.305481
1930.757813	723.346619
1929.724609	766.765747
1928.691406	703.760010
1927.656250	735.077881
1926.623047	727.703491
1925.587891	788.013611
1924.554688	737.130066
1923.519531	722.509644
1922.484375	715.142090
1921.449219	683.620728
1920.414063	717.320740
1919.378906	738.935486
1918.343750	702.596924
1917.308594	724.206909
1916.273438	695.123596
1915.236328	709.487915
1914.201172	706.957764
1913.164063	716.490479
1912.126953	641.599121
1911.091797	757.251099
1910.054688	713.723633
1909.017578	744.946350
1907.980469	677.330994
1906.943359	653.118591
1905.906250	686.745422
1904.867188	698.677917
1903.830078	645.567932
1902.791016	732.164795
1901.753906	758.532043
1900.714844	698.215515
1899.677734	657.176819
1898.638672	700.391235
1897.599609	649.739990
1896.560547	721.813782
1895.521484	716.882996
1894.482422	704.738098
1893.441406	666.143799
1892.402344	694.886963
1891.363281	677.943542
1890.322266	711.482483
1889.281250	706.558167
1888.242188	713.649780
1887.201172	675.092163
1886.160156	696.598999
1885.119141	674.868652
1884.078125	681.960693
1883.037109	746.671326
1881.996094	662.531006
1880.953125	705.622681
1879.912109	691.107727
1878.869141	657.403320
1877.828125	676.485535
1876.785156	661.982544
1875.742188	649.882446
1874.701172	755.273315
1873.658203	719.188782
1872.615234	697.497498
1871.572266	723.743469
1870.527344	668.513184
1869.484375	682.776672
1868.441406	720.988525
1867.396484	653.811462
1866.353516	677.648315
1865.308594	629.653625
1864.263672	708.542175
1863.218750	674.918213
1862.175781	725.057922
1861.130859	696.227356
1860.083984	727.209778
1859.039063	679.254395
1857.994141	657.619751
1856.949219	690.984009
1855.902344	621.543518
1854.857422	702.705750
1853.810547	645.235046
1852.763672	690.526001
1851.718750	671.299805
1850.671875	652.079956
1849.625000	685.406311
1848.578125	637.537109
1847.529297	623.107117
1846.482422	658.808655
1845.435547	668.245789
1844.388672	632.342041
1843.339844	679.953186
1842.291016	660.757202
1841.244141	648.722595
1840.195313	689.153442
1839.146484	669.965454
1838.097656	638.864624
1837.048828	669.743225
1836.000000	707.760681
1834.951172	643.312073
1833.900391	676.556824
1832.851563	669.299011
1831.802734	616.796082
1830.751953	652.409607
1829.701172	668.966064
1828.652344	640.291870
1827.601563	597.347961
1826.550781	663.874207
1825.500000	666.143188
1824.449219	687.440857
1823.396484	644.517517
1822.345703	680.079041
1821.294922	649.058655
1820.242188	648.950989
1819.191406	639.336426
1818.138672	605.961853
1817.085938	655.755737
1816.035156	669.900085
1814.982422	662.663513
1813.929688	681.551514
1812.875000	636.325745
1811.822266	645.715942
1810.769531	676.465088
1809.716797	626.516296
1808.662109	635.903381
1807.609375	652.404480
1806.554688	652.296204
1805.500000	604.756042
1804.447266	590.428467
1803.392578	680.421021
1802.337891	647.122314
1801.283203	656.494934
1800.226563	627.950439
1799.171875	632.584656
1798.117188	582.734009
1797.060547	618.163940
1796.005859	651.213989
1794.949219	655.841187
1793.892578	553.939880
1792.837891	608.285950
1791.781250	610.551392
1790.724609	586.789124
1789.667969	660.028137
1788.611328	638.630798
1787.552734	645.619446
1786.496094	650.241272
1785.439453	669.046204
1784.380859	730.392029
1783.322266	649.917236
1782.265625	711.245789
1781.207031	675.689392
1780.148438	548.020630
1779.089844	632.953125
1778.031250	647.016174
1776.972656	639.825745
1775.914063	642.080017
1774.853516	606.570374
1773.794922	606.469604
1772.734375	677.151184
1771.675781	582.677856
1770.615234	658.057068
1769.554688	589.558899
1768.494141	693.206055
1767.435547	662.443970
1766.373047	622.263794
1765.312500	608.020386
1764.251953	582.000305
1763.191406	610.174133
1762.128906	673.671021
1761.068359	642.942749
1760.005859	623.998169
1758.945313	619.185791
1757.882813	649.683899
1756.820313	600.151611
1755.757813	661.233582
1754.695313	562.307983
1753.632813	604.557007
1752.570313	616.216370
1751.505859	625.520203
1750.443359	608.957886
1749.378906	644.118530
1748.316406	618.156982
1747.251953	655.654419
1746.187500	653.195740
1745.125000	615.499329
1744.060547	643.583069
1742.996094	629.385315
1741.929688	612.844177
1740.865234	664.391052
1739.800781	687.753296
1738.734375	612.538391
1737.669922	600.703979
1736.603516	614.680725
1735.539063	647.418518
1734.472656	652.001465
1733.406250	656.582886
1732.339844	644.750854
1731.273438	597.760437
1730.207031	590.629639
1729.140625	625.682007
1728.072266	590.433105
1727.005859	587.992249
1725.939453	606.632019
1724.871094	627.607422
1723.802734	578.332947
1722.736328	596.965027
1721.667969	667.085144
1720.599609	580.384460
1719.531250	617.725830
1718.462891	659.733643
1717.392578	587.112000
1716.324219	598.707764
1715.255859	607.961304
1714.185547	626.563477
1713.117188	624.121643
1712.046875	598.309143
1710.976563	600.546265
1709.906250	553.718933
1708.835938	567.642578
1707.765625	623.602173
1706.695313	567.453552
1705.625000	618.724854
1704.554688	611.618591
1703.482422	562.502014
1702.412109	574.076538
1701.339844	590.313721
1700.267578	599.546875
1699.197266	545.799988
1698.125000	606.343445
1697.052734	601.578979
1695.980469	599.147461
1694.908203	585.062134
1693.833984	550.006592
1692.761719	591.857605
1691.689453	631.364929
1690.615234	605.636658
1689.542969	568.272034
1688.468750	575.163086
1687.394531	593.692932
1686.320313	621.527832
1685.246094	530.654419
1684.171875	621.320679
1683.097656	546.764160
1682.023438	565.283142
1680.947266	588.447754
1679.873047	590.675171
1678.798828	562.675476
1677.722656	634.647888
1676.646484	553.190552
1675.570313	604.225098
1674.496094	625.036377
1673.419922	629.578491
1672.343750	589.986267
1671.265625	610.789429
1670.189453	582.823547
1669.113281	554.866943
1668.035156	554.774414
1666.958984	598.777954
1665.880859	584.755371
1664.804688	568.417358
1663.726563	612.396545
1662.648438	596.059387
1661.570313	600.597778
1660.492188	586.586487
1659.414063	537.807739
1658.333984	556.260071
1657.255859	644.227112
1656.177734	569.976379
1655.097656	581.464233
1654.017578	606.845459
1652.939453	562.743713
1651.859375	599.696716
1650.779297	604.226807
1649.699219	578.664734
1648.619141	610.968018
1647.539063	573.843872
1646.457031	583.002136
1645.376953	587.531067
1644.296875	552.742126
1643.214844	561.899231
1642.132813	633.476135
1641.052734	552.465454
1639.970703	619.397583
1638.888672	589.253845
1637.806641	584.534668
1636.724609	582.127075
1635.642578	575.100952
1634.558594	614.262329
1633.476563	551.820251
1632.392578	632.525146
1631.310547	588.565674
1630.226563	574.621094
1629.142578	537.607910
1628.060547	606.726501
1626.976563	585.866150
1625.892578	608.830078
1624.806641	590.282104
1623.722656	578.656494
1622.638672	564.729736
1621.554688	571.549377
1620.468750	617.538879
1619.382813	571.358459
1618.298828	532.103882
1617.212891	621.835754
1616.126953	571.072266
1615.041016	591.697815
1613.955078	568.579529
1612.869141	584.595459
1611.783203	586.799011
1610.695313	563.693054
1609.609375	558.998108
1608.521484	563.504761
1607.435547	551.912415
1606.347656	556.418701
1605.259766	517.244995
1604.171875	537.844910
1603.085938	537.755066
1601.996094	585.917236
1600.908203	544.467346
1599.820313	546.673279
1598.732422	564.954468
1597.642578	567.156189
1596.554688	546.399292
1595.464844	548.603333
1594.375000	498.021057
1593.285156	575.955688
1592.197266	585.036499
1591.107422	557.412170
1590.015625	529.797058
1588.925781	554.932678
1587.835938	543.376282
1586.746094	552.454834
1585.654297	529.442871
1584.564453	549.978516
1583.472656	556.760132
1582.380859	506.269226
1581.289063	529.088806
1580.197266	554.190857
1579.105469	503.725616
1578.013672	535.691284
1576.921875	494.401550
1575.830078	556.108765
1574.736328	576.608887
1573.644531	528.469727
1572.550781	539.818176
1571.457031	551.162781
1570.365234	583.083008
1569.271484	578.413025
1568.177734	528.027893
1567.083984	546.223206
1565.990234	507.285614
1564.894531	516.339478
1563.800781	541.380493
1562.707031	497.895325
1561.611328	552.617004
1560.515625	538.825623
1559.421875	554.714844
1558.326172	593.422791
1557.230469	520.299011
1556.134766	588.660889
1555.039063	629.624878
1553.943359	581.621277
1552.845703	565.560547
1551.750000	615.628174
1550.654297	503.818695
1549.556641	549.321167
1548.458984	587.971558
1547.363281	608.380310
1546.265625	562.714539
1545.167969	560.342529
1544.070313	596.687622
1542.972656	564.708984
1541.873047	591.934509
1540.775391	555.414734
1539.677734	539.390381
1538.578125	548.402161
1537.480469	518.733398
1536.380859	573.240906
1535.281250	568.596191
1534.181641	552.582886
1533.082031	538.848633
1531.982422	509.206238
1530.882813	568.215332
1529.783203	545.395325
1528.681641	499.862000
1527.582031	533.854065
1526.480469	522.407898
1525.380859	594.991089
1524.279297	560.832703
1523.177734	572.089722
1522.076172	551.565552
1520.974609	560.550842
1519.873047	542.304504
1518.771484	517.258179
1517.669922	501.293427
1516.566406	555.639404
1515.464844	555.546326
1514.361328	505.575775
1513.257813	523.625244
1512.156250	564.332581
1511.052734	521.183716
1509.949219	541.487061
1508.845703	534.600525
1507.742188	545.835327
1506.636719	538.950317
1505.533203	491.313507
1504.429688	534.242188
1503.324219	500.202240
1502.218750	495.592407
1501.115234	547.549133
1500.009766	529.359558
1498.904297	547.365479
1497.798828	506.567413
1496.693359	517.787903
1495.587891	508.658234
1494.480469	517.614258
1493.375000	483.628235
1492.269531	490.325836
1491.162109	544.464111
1490.054688	503.714203
1488.949219	481.045441
1487.841797	539.674072
1486.734375	480.884064
1485.626953	507.890900
1484.519531	489.750397
1483.410156	546.081604
1482.302734	460.256042
1481.195313	509.805939
1480.085938	516.486633
1478.976563	487.084686
1477.869141	507.294739
1476.759766	545.532104
1475.650391	502.616730
1474.541016	468.729736
1473.431641	450.626038
1472.322266	538.407776
1471.210938	497.774658
1470.101563	502.195099
1468.990234	497.607574
1467.880859	486.267853
1466.769531	504.193115
1465.658203	497.357025
1464.548828	506.273956
1463.437500	517.437622
1462.326172	535.345581
1461.212891	490.276215
1460.101563	483.448120
1458.990234	517.090210
1457.876953	451.816010
1456.765625	519.164063
1455.652344	568.512756
1454.541016	498.769318
1453.427734	505.424561
1452.314453	521.061340
1451.201172	527.710571
1450.087891	563.545105
1448.972656	451.209351
1447.859375	505.000244
1446.746094	511.647644
1445.630859	500.343231
1444.517578	486.799286
1443.402344	522.604553
1442.287109	500.091125
1441.171875	517.944580
1440.056641	542.517456
1438.941406	535.701965
1437.826172	468.380341
1436.710938	497.430450
1435.595703	499.587189
1434.478516	501.743164
1433.363281	481.502899
1432.246094	476.943634
1431.128906	523.878174
1430.011719	494.690704
1428.894531	485.655365
1427.777344	485.573761
1426.660156	494.441284
1425.542969	565.939453
1424.425781	503.221222
1423.306641	500.900482
1422.189453	505.287842
1421.070313	494.025848
1419.953125	529.703369
1418.833984	518.440979
1417.714844	487.073853
1416.595703	516.032776
1415.476563	491.377136
1414.357422	538.190796
1413.236328	562.660889
1412.117188	544.707031
1410.998047	533.455261
1409.876953	562.377075
1408.755859	493.112793
1407.636719	472.951721
1406.515625	497.407990
1405.394531	504.014771
1404.273438	512.849121
1403.152344	517.221619
1402.029297	537.195923
1400.908203	494.761108
1399.787109	474.623352
1398.664063	474.543488
1397.541016	554.654724
1396.419922	496.655365
1395.296875	505.478912
1394.173828	549.921936
1393.050781	463.014221
1391.927734	469.613281
1390.804688	460.633118
1389.679688	496.154114
1388.556641	451.579956
1387.431641	484.866302
1386.308594	533.707947
1385.183594	491.373322
1384.058594	460.168121
1382.933594	493.430573
1381.808594	466.680084
1380.683594	482.154877
1379.558594	502.067566
1378.433594	455.338593
1377.308594	444.157959
1376.181641	535.120239
1375.054688	446.228455
1373.929688	446.153320
1372.802734	510.437714
1371.675781	497.038239
1370.548828	499.173065
1369.421875	505.743530
1368.294922	483.480347
1367.167969	465.659515
1366.039063	434.542328
1364.912109	481.019409
1363.783203	465.424255
1362.656250	507.448547
1361.527344	438.680725
1360.398438	476.264984
1359.269531	478.399567
1358.140625	491.605591
1357.011719	458.311768
1355.882813	522.431641
1354.753906	480.290558
1353.623047	422.672974
1352.494141	427.026886
1351.363281	471.198975
1350.232422	484.390533
1349.103516	482.097443
1347.972656	459.905365
1346.841797	501.831329
1345.710938	537.112183
1344.578125	486.192413
1343.447266	446.337799
1342.316406	437.425659
1341.183594	455.022705
1340.052734	472.613800
1338.919922	450.453094
1337.787109	461.415802
1336.654297	472.374817
1335.521484	474.502136
1334.388672	476.628754
1333.255859	496.404572
1332.123047	423.527130
1330.988281	441.099701
1329.855469	469.691956
1328.720703	443.155670
1327.587891	469.533508
1326.453125	456.230255
1325.318359	462.764221
1324.183594	508.954773
1323.048828	438.376251
1321.914063	451.517456
1320.779297	444.834839
1319.642578	539.436401
1318.507813	418.267822
1317.371094	462.218018
1316.236328	424.728699
1315.099609	431.257935
1313.962891	411.385834
1312.826172	512.495850
1311.689453	417.844543
1310.552734	455.153809
1309.416016	415.505096
1308.279297	441.811798
1307.140625	441.737213
1306.003906	448.254639
1304.865234	426.209412
1303.726563	476.658936
1302.587891	430.457977
1301.451172	419.406097
1300.310547	428.117188
1299.171875	452.191040
1298.033203	449.919952
1296.894531	414.734222
1295.753906	425.634125
1294.615234	458.466553
1293.474609	473.741913
1292.335938	449.540222
1291.195313	451.656830
1290.054688	425.274872
1288.914063	416.435974
1287.773438	451.428040
1286.632813	433.823547
1285.490234	442.512909
1284.349609	435.867310
1283.207031	503.681122
1282.066406	440.099152
1280.923828	444.403168
1279.781250	396.174316
1278.638672	382.976746
1277.496094	433.237610
1276.353516	450.666016
1275.210938	452.777191
1274.068359	468.009399
1272.923828	391.399658
1271.781250	448.175262
1270.636719	472.143890
1269.494141	432.725433
1268.349609	447.948090
1267.205078	463.165558
1266.060547	439.059174
1264.916016	465.193024
1263.771484	434.543488
1262.626953	469.402283
1261.480469	419.116302
1260.335938	434.323151
1259.189453	414.610291
1258.042969	423.267365
1256.898438	466.824219
1255.751953	403.494751
1254.605469	479.750458
1253.458984	453.505554
1252.312500	457.788757
1251.164063	462.070496
1250.017578	466.350800
1248.869141	448.841187
1247.722656	485.799316
1246.574219	437.798859
1245.425781	463.857635
1244.279297	435.473389
1243.130859	474.585724
1241.982422	444.032593
1240.832031	443.957489
1239.683594	476.520782
1238.535156	498.195435
1237.384766	472.009247
1236.236328	493.677277
1235.085938	484.896057
1233.935547	493.510223
1232.785156	499.947784
1231.636719	486.823273
1230.484375	499.778595
1229.333984	462.760101
1228.183594	493.092804
1227.033203	479.978241
1225.880859	501.611816
1224.730469	514.553589
1223.578125	503.612762
1222.425781	512.208984
1221.273438	527.312378
1220.121094	462.133820
1218.968750	537.980225
1217.816406	518.368958
1216.664063	546.472229
1215.511719	581.070496
1214.357422	550.622803
1213.205078	544.027222
1212.050781	543.935120
1210.896484	550.343140
1209.742188	554.582581
1208.587891	524.165039
1207.433594	556.560364
1206.279297	556.466064
1205.125000	558.536682
1203.968750	636.364258
1202.814453	554.019226
1201.658203	566.908020
1200.503906	590.609436
1199.347656	562.389832
1198.191406	596.897339
1197.035156	644.366882
1195.878906	566.427917
1194.722656	639.825378
1193.566406	615.943726
1192.408203	661.216980
1191.251953	589.809326
1190.093750	619.950867
1188.937500	634.963989
1187.779297	649.971985
1186.621094	602.363586
1185.462891	675.655396
1184.304688	628.058777
1183.146484	597.741516
1181.988281	692.572205
1180.828125	634.210938
1179.669922	698.807861
1178.509766	644.778137
1177.351563	722.287842
1176.191406	689.829590
1175.031250	666.003784
1173.871094	719.765503
1172.710938	745.498901
1171.550781	730.292664
1170.388672	723.707153
1169.228516	723.584412
1168.068359	723.461731
1166.906250	712.575012
1165.744141	753.350342
1164.583984	785.503479
1163.421875	735.881165
1162.259766	720.697021
1161.097656	780.801880
1159.933594	821.530884
1158.771484	793.438416
1157.609375	782.554382
1156.445313	782.421631
1155.283203	868.254700
1154.119141	814.387817
1152.955078	792.765503
1151.791016	835.591980
1150.626953	837.597839
1149.462891	839.603027
1148.298828	923.191895
1147.134766	837.171448
1145.968750	894.977539
1144.804688	892.679749
1143.638672	918.274231
1142.474609	939.569702
1141.308594	941.554993
1140.142578	949.972778
1138.976563	896.210388
1137.810547	911.063965
1136.644531	994.498596
1135.476563	970.757263
1134.310547	998.446106
1133.142578	970.427612
1131.976563	1049.511719
1130.808594	1002.220520
1129.640625	1076.989990
1128.472656	1066.103149
1127.304688	1048.798828
1126.136719	1033.640381
1124.968750	1078.398071
1123.800781	1099.608032
1122.630859	1133.644531
1121.462891	1163.392212
1120.292969	1203.820801
1119.123047	1169.410522
1117.953125	1147.836792
1116.785156	1226.715820
1115.613281	1262.832520
1114.443359	1296.800415
1113.273438	1294.443970
1112.103516	1292.088379
1110.931641	1340.981079
1109.761719	1334.348389
1108.589844	1376.813477
1107.417969	1325.357910
1106.248047	1442.495361
1105.076172	1435.849731
1103.904297	1461.203369
1102.730469	1428.963257
1101.558594	1426.587891
1100.386719	1505.231445
1099.212891	1575.321411
1098.041016	1594.235474
1096.867188	1617.405029
1095.693359	1708.746094
1094.519531	1597.682861
1093.345703	1676.216797
1092.171875	1750.464966
1090.998047	1767.200439
1089.824219	1726.452759
1088.650391	1809.168091
1087.474609	1804.604248
1086.298828	1900.044189
1085.125000	1897.593628
1083.949219	1927.048584
1082.773438	1935.227295
1081.597656	1932.771729
1080.421875	1964.331421
1079.246094	2042.642212
1078.070313	2082.672852
1076.892578	1995.201172
1075.716797	2088.337646
1074.539063	2170.821777
1073.361328	2113.111816
1072.183594	2206.180420
1071.007813	2193.066895
1069.830078	2201.184082
1068.650391	2277.211670
1067.472656	2272.580322
1066.294922	2278.558105
1065.115234	2248.473389
1063.937500	2373.220215
1062.757813	2275.274170
1061.578125	2361.811768
1060.400391	2380.487305
1059.220703	2348.291260
1058.041016	2409.343262
1056.861328	2411.051758
1055.679688	2497.492188
1054.500000	2344.574219
1053.318359	2445.819336
1052.138672	2498.333496
1050.957031	2461.921387
1049.775391	2491.133057
1048.595703	2569.006348
1047.414063	2473.358154
1046.232422	2489.860352
1045.048828	2406.948486
1043.867188	2609.550537
1042.685547	2492.816895
1041.501953	2467.024170
1040.320313	2538.467285
1039.136719	2542.261230
1037.953125	2527.037842
1036.769531	2469.568359
1035.585938	2538.849854
1034.402344	2462.391357
1033.218750	2476.751953
1032.035156	2510.107666
1030.849609	2547.673340
1029.666016	2559.901367
1028.480469	2529.924561
1027.294922	2569.577148
1026.109375	2463.673584
1024.923828	2440.055176
1023.738281	2395.358887
1022.552734	2447.656250
1021.367188	2426.160156
1020.181641	2383.596191
1018.994141	2400.047119
1017.808594	2378.569824
1016.621094	2426.612305
1015.433594	2384.076904
1014.246094	2280.490234
1013.058594	2206.413818
1011.871094	2399.697510
1010.683594	2323.521240
1009.496094	2276.830566
1008.306641	2179.661865
1007.119141	2280.261230
1005.929688	2292.491455
1004.742188	2220.603516
1003.552734	2190.790039
1002.363281	2297.624512
1001.173828	2246.790283
999.984375	2177.060303
998.794922	2151.476318
997.603516	2218.331299
996.414063	2140.240234
995.222656	2106.275391
994.033203	2066.023438
992.841797	2143.343262
991.650391	2155.570801
990.458984	2184.582520
989.267578	2129.656982
988.076172	2106.217285
986.884766	2074.395752
985.691406	2067.750244
984.500000	2019.171997
983.306641	2048.176758
982.115234	1949.313354
980.921875	1948.980591
979.728516	1996.840088
978.535156	1914.795654
977.341797	1895.617188
976.148438	2029.325317
974.953125	1953.598755
973.759766	1961.639160
972.564453	2011.540405
971.371094	1904.463135
970.175781	1881.120850
968.980469	1910.088867
967.785156	1878.386475
966.589844	1898.979492
965.394531	1792.012451
964.199219	1839.791870
963.003906	1845.748413
961.806641	1860.062744
960.611328	1822.132080
959.414063	1734.072510
958.216797	1779.731689
957.019531	1842.083496
955.822266	1822.975098
954.625000	1812.224487
953.427734	1814.002197
952.230469	1780.298584
951.031250	1779.994263
949.833984	1769.258057
948.634766	1804.418213
947.437500	1799.938354
946.238281	1787.118774
945.039063	1763.878540
943.839844	1746.900146
942.640625	1782.033691
941.439453	1731.715576
940.240234	1764.756104
939.041016	1795.702026
937.839844	1680.839600
936.638672	1663.892334
935.439453	1728.153320
934.238281	1692.467896
933.037109	1658.875977
931.835938	1677.321655
930.634766	1660.389282
929.431641	1635.141235
928.230469	1686.860962
927.027344	1632.502197
925.826172	1549.052368
924.623047	1688.074219
923.419922	1517.343994
922.216797	1604.368652
921.013672	1593.704956
919.810547	1558.114990
918.607422	1507.997192
917.404297	1565.888794
916.199219	1517.863159
914.996094	1530.059814
913.791016	1521.495117
912.585938	1471.426147
911.380859	1456.649292
910.175781	1452.250610
908.970703	1410.516235
907.765625	1464.197144
906.560547	1410.033325
905.353516	1357.961426
904.148438	1434.425049
902.941406	1403.091675
901.736328	1355.191772
900.529297	1377.749512
899.322266	1315.370117
898.115234	1383.490967
896.908203	1368.758911
895.699219	1331.257568
894.492188	1304.119141
893.285156	1363.916382
892.076172	1322.296265
890.867188	1309.656006
889.660156	1294.951294
888.451172	1352.640747
887.242188	1253.149658
886.033203	1281.880615
884.824219	1223.779541
883.613281	1326.911865
882.404297	1291.554199
881.193359	1235.547363
879.984375	1262.190674
878.773438	1257.843506
877.562500	1257.627930
876.351563	1220.247559
875.140625	1242.746338
873.929688	1228.085327
872.718750	1205.174561
871.505859	1180.208374
870.294922	1188.257813
869.082031	1241.681641
867.871094	1206.410645
866.658203	1206.203735
865.445313	1156.520142
864.232422	1152.199463
863.019531	1213.826782
861.806641	1221.860474
860.591797	1161.907471
859.378906	1207.023071
858.164063	1142.974243
856.951172	1113.951416
855.736328	1163.169312
854.521484	1092.985718
853.306641	1160.712280
852.091797	1125.533203
850.876953	1131.511963
849.662109	1131.317871
848.445313	1143.463257
847.230469	1083.636230
846.013672	1126.623901
844.796875	1175.763306
843.582031	1111.851074
842.365234	1115.769897
841.148438	1084.761353
839.929688	1078.412842
838.712891	1072.066406
837.496094	1071.882446
836.277344	1073.751465
835.060547	1135.148438
833.841797	1114.430054
832.623047	1124.498779
831.404297	1114.047485
830.185547	1148.728271
828.966797	1105.461182
827.748047	1129.878540
826.529297	1109.182007
825.308594	1111.041504
824.089844	1088.305786
822.869141	1133.201050
821.650391	1114.566895
820.429688	1108.229980
819.208984	1134.665405
817.988281	1073.037109
816.765625	1140.417969
815.544922	1095.186401
814.324219	1205.521362
813.101563	1143.923096
811.880859	1104.852173
810.658203	1194.671875
809.435547	1208.783813
808.212891	1188.126465
806.990234	1208.368530
805.767578	1206.116577
804.544922	1199.777588
803.320313	1234.312012
802.097656	1195.278809
800.873047	1221.630615
799.650391	1205.080566
798.425781	1213.041992
797.201172	1245.502441
795.976563	1157.505737
794.751953	1222.622070
793.527344	1234.656494
792.300781	1271.171509
791.076172	1215.871460
789.849609	1254.416748
788.625000	1260.319214
787.398438	1221.361450
786.171875	1284.349609
784.945313	1243.362671
783.718750	1265.566284
782.492188	1257.198242
781.265625	1263.093750
780.037109	1328.057251
778.810547	1299.317139
777.582031	1264.478394
776.353516	1325.336182
775.125000	1243.688354
773.898438	1245.509521
772.667969	1269.712891
771.439453	1218.633179
770.210938	1322.162476
768.982422	1295.496216
767.751953	1321.707520
766.523438	1282.852173
765.292969	1296.860229
764.062500	1296.637085
762.832031	1292.349976
761.601563	1286.032593
760.371094	1297.999023
759.140625	1259.187500
757.908203	1297.552124
756.677734	1350.115234
755.445313	1311.314819
754.214844	1302.970825
752.982422	1353.476440
751.750000	1399.906982
750.517578	1306.354858
749.285156	1324.383301
748.052734	1320.099731
746.818359	1437.464600
745.585938	1352.078735
744.351563	1313.337524
743.119141	1379.982666
741.884766	1397.979492
740.650391	1383.558838
739.416016	1470.410889
738.181641	1453.957520
736.947266	1469.904419
735.710938	1457.505249
734.476563	1453.206177
733.240234	1457.003052
732.005859	1523.519775
730.769531	1496.959351
729.533203	1525.017456
728.296875	1488.354614
727.060547	1520.448120
725.824219	1540.401245
724.587891	1600.771118
723.349609	1566.141113
722.113281	1666.895142
720.875000	1612.064209
719.636719	1617.845703
718.400391	1635.741699
717.162109	1627.383423
715.923828	1592.784302
714.683594	1649.024536
713.445313	1656.812378
712.207031	1686.792114
710.966797	1775.264526
709.728516	1752.771362
708.488281	1675.836426
707.248047	1651.351807
706.007813	1630.907471
704.767578	1735.437744
703.527344	1799.626709
702.287109	1803.346069
701.044922	1740.583496
699.804688	1830.922974
698.562500	1818.523926
697.320313	1775.926270
696.080078	1864.199585
694.837891	1835.698242
693.595703	1859.531372
692.353516	1859.210449
691.109375	1891.078125
689.867188	1892.763306
688.625000	1852.214844
687.380859	1867.981079
686.136719	1889.773071
684.892578	1925.627808
683.650391	1967.499146
682.406250	1957.112793
681.160156	1942.711792
679.916016	1974.515015
678.671875	1994.257324
677.425781	1953.753662
676.181641	1953.416260
674.935547	2077.530029
673.689453	2087.206055
672.443359	2024.641602
671.197266	2004.229492
669.951172	2104.177979
668.705078	1993.509644
667.458984	2183.658936
666.210938	2191.301270
664.964844	2206.958740
663.716797	2132.423584
662.468750	2162.112549
661.220703	2107.645508
659.972656	2133.321777
658.724609	2213.064209
657.476563	2174.635742
656.228516	2226.313965
654.978516	2227.931152
653.730469	2237.552979
652.480469	2235.165283
651.230469	2244.782471
649.980469	2232.392578
648.730469	2236.006592
647.480469	2305.608398
646.230469	2317.205811
644.980469	2284.821533
643.728516	2238.458252
642.478516	2306.012695
641.226563	2239.682373
639.974609	2287.237305
638.722656	2322.792236
637.470703	2356.337646
636.218750	2306.016602
634.966797	2349.534180
633.714844	2291.248047
632.460938	2356.703857
631.208984	2290.455566
629.955078	2357.883545
628.701172	2247.779297
627.447266	2321.173584
626.193359	2364.635254
624.939453	2382.167236
623.685547	2306.017334
622.431641	2419.205566
621.175781	2426.756592
619.921875	2322.749268
618.666016	2392.057617
617.410156	2407.574707
616.154297	2433.041504
614.898438	2414.704346
613.642578	2444.141602
612.386719	2457.648438
611.130859	2574.612793
609.873047	2426.958252
608.617188	2502.118896
607.359375	2515.606201
606.101563	2487.334717
604.845703	2447.145508
603.587891	2562.001953
602.328125	2593.354248
601.070313	2519.389893
599.812500	2580.537109
598.552734	2687.345703
597.294922	2647.162842
596.035156	2740.024170
594.775391	2679.994141
593.517578	2711.287354
592.257813	2726.693848
590.996094	2720.269043
589.736328	2775.344482
588.476563	2721.310303
587.214844	2750.585693
585.955078	2831.402832
584.693359	2801.175781
583.431641	2784.833740
582.169922	2863.621094
580.908203	2815.571289
579.646484	2926.022705
578.384766	2935.419189
577.123047	2926.989014
575.859375	2857.180664
574.597656	2908.157471
573.333984	2830.458984
572.070313	3029.847168
570.806641	2952.154541
569.542969	3010.992188
568.279297	2917.505615
567.015625	2962.485352
565.751953	2985.698975
564.486328	3062.282227
563.222656	3034.078857
561.957031	3021.695068
560.691406	3084.400391
559.425781	3077.938721
558.160156	3142.587646
556.894531	3061.072266
555.628906	3096.083252
554.361328	3180.436768
553.095703	3162.120361
551.828125	3114.207520
550.562500	3117.613525
549.294922	3150.610840
548.027344	3203.321533
546.759766	3259.958008
545.492188	3316.574707
544.222656	3288.398926
542.955078	3279.943848
541.687500	3308.936279
540.417969	3367.475098
539.148438	3384.621582
537.878906	3382.064453
536.611328	3379.508057
535.339844	3477.374756
534.070313	3360.616455
532.800781	3568.681885
531.531250	3552.318115
530.259766	3549.733643
528.988281	3659.289551
527.718750	3633.083008
526.447266	3646.218994
525.175781	3616.090820
523.904297	3670.510742
522.632813	3732.774170
521.359375	3798.946533
520.087891	3821.866455
518.814453	3799.591797
517.542969	3846.074707
516.269531	3973.063232
514.996094	3921.319336
513.722656	3881.372803
512.449219	4014.177490
511.175781	3938.901855
509.902344	4146.215332
508.626953	4027.780762
507.353516	4017.273193
506.078125	4008.730225
504.802734	4186.473633
503.527344	4193.588379
502.251953	4208.541016
500.976563	4090.218262
499.701172	4099.304688
498.425781	4212.224609
497.148438	4097.879883
495.873047	4191.175293
494.595703	4253.107910
493.318359	4246.495117
492.041016	4183.117676
490.763672	4141.290527
489.486328	4081.866699
488.208984	4202.457031
486.931641	4092.184082
485.652344	4206.862793
484.375000	4149.423828
483.095703	4131.106445
481.816406	4144.071289
480.537109	4102.307617
479.257813	4093.778076
477.978516	4218.104492
476.699219	4068.913330
475.417969	4118.984863
474.138672	4014.774414
472.857422	4012.123535
471.576172	4056.322266
470.296875	3864.350586
469.015625	3992.467529
467.734375	3941.046387
466.451172	3831.123047
465.169922	3924.072266
463.888672	3944.839355
462.605469	3858.367920
461.322266	3931.770264
460.041016	3921.341064
458.757813	3823.226563
457.474609	3857.630615
456.191406	3800.468018
454.908203	3830.968506
453.623047	3830.301514
452.339844	3755.650635
451.054688	3817.288086
449.771484	3721.256592
448.486328	3724.500244
447.201172	3727.742920
445.916016	3746.546143
444.630859	3757.563232
443.343750	3642.178955
442.058594	3680.429199
440.773438	3679.788330
439.486328	3675.263184
438.199219	3670.737793
436.914063	3666.212646
435.626953	3661.687256
434.339844	3657.162109
433.050781	3687.594727
431.763672	3613.174072
430.476563	3542.661865
429.187500	3705.075684
427.900391	3545.308350
426.611328	3614.536621
425.322266	3578.989746
424.033203	3615.216309
422.744141	3624.281738
421.455078	3617.833740
420.164063	3572.617920
418.875000	3529.355957
417.583984	3586.874756
416.294922	3559.125000
415.003906	3471.333496
413.712891	3552.073486
412.421875	3501.106445
411.130859	3440.476318
409.839844	3478.591797
408.546875	3520.564941
407.255859	3361.272461
405.962891	3590.923096
404.671875	3427.804932
403.378906	3514.241211
402.085938	3382.132813
400.792969	3377.676025
399.500000	3402.216797
398.207031	3428.681641
396.912109	3410.691650
395.619141	3373.387451
394.324219	3357.344971
393.029297	3308.474365
391.734375	3340.724854
390.439453	3399.994141
389.144531	3434.147461
387.849609	3481.799316
386.554688	3446.456787
385.257813	3270.282471
383.962891	3308.292236
382.666016	3388.719971
381.369141	3295.567139
380.074219	3478.154053
378.777344	3452.486816
377.478516	3419.119141
376.181641	3451.281250
374.884766	3402.511719
373.585938	3392.285889
372.289063	3395.545410
370.990234	3275.561035
369.691406	3344.300781
368.392578	3366.816650
367.093750	3331.584717
365.794922	3319.456787
364.496094	3320.801025
363.195313	3308.678955
361.896484	3306.177490
360.595703	3349.828369
359.294922	3381.927979
357.996094	3356.347168
356.695313	3394.199951
355.394531	3380.155518
354.091797	3343.060059
352.791016	3296.372559
351.490234	3397.589844
350.187500	3383.553955
348.884766	3331.123779
347.583984	3399.647705
346.281250	3364.506348
344.978516	3433.000244
343.673828	3282.748291
342.371094	3320.539795
341.068359	3419.692383
339.763672	3373.071777
338.460938	3428.082764
337.156250	3383.393799
335.851563	3327.220703
334.546875	3384.126709
333.242188	3341.384521
331.937500	3333.137695
330.632813	3322.978271
329.326172	3215.161133
328.021484	3407.972412
326.714844	3407.376221
325.408203	3391.468750
324.101563	3321.986328
322.794922	3308.012207
321.488281	3309.346436
320.181641	3243.739502
318.873047	3279.504639
317.566406	3196.718506
316.257813	3207.628418
314.951172	3243.380615
313.642578	3162.554932
312.333984	3169.643555
311.025391	3178.639893
309.716797	3197.182617
308.406250	3240.542969
307.097656	3270.523438
305.787109	3191.685791
304.478516	3128.144287
303.167969	3207.742432
301.857422	3083.167236
300.546875	3210.434082
299.236328	3145.026123
297.925781	3241.727051
296.613281	3130.578613
295.302734	3229.154297
293.990234	3179.035400
292.677734	3182.289551
291.367188	3233.173340
290.054688	3224.987305
288.742188	3163.476318
287.427734	3193.389893
286.115234	3164.271973
284.802734	3237.956299
283.488281	3220.259766
282.173828	3181.637695
280.861328	3245.767090
279.546875	3233.784912
278.232422	3143.829346
276.917969	3173.703125
275.601563	3142.727295
274.287109	3212.509521
272.970703	3181.537354
271.656250	3171.478516
270.339844	3167.122559
269.023438	3100.082764
267.707031	3118.531494
266.390625	3226.221680
265.074219	3100.350830
263.757813	3177.634521
262.439453	3167.587891
261.123047	3214.471436
259.804688	3153.196289
258.486328	3175.406006
257.167969	3131.228027
255.849609	3149.641113
254.531250	3137.713135
253.212891	3154.222900
251.894531	3155.564697
250.574219	3166.380371
249.255859	3158.246582
247.935547	3258.086914
246.615234	3153.350586
245.294922	3283.453613
243.974609	3258.265381
242.654297	3106.260986
241.332031	3276.047363
240.011719	3286.825928
238.689453	3286.249023
237.369141	3192.984863
236.046875	3215.119141
234.724609	3229.682129
233.402344	3219.662109
232.080078	3345.743652
230.755859	3288.458740
229.433594	3234.972900
228.111328	3198.509033
226.787109	3264.059570
225.462891	3208.717285
224.138672	3264.801514
222.814453	3243.460938
221.490234	3269.317383
220.166016	3280.066895
218.841797	3239.864990
217.515625	3314.760010
216.191406	3231.181641
214.865234	3219.298340
213.539063	3296.042725
212.212891	3270.955078
210.886719	3245.875977
209.560547	3286.767090
208.232422	3297.495117
206.906250	3259.236572
205.580078	3318.939697
204.251953	3299.523438
202.923828	3240.571777
201.595703	3300.246338
200.267578	3318.489014
198.939453	3340.489258
197.611328	3341.783691
196.281250	3354.365234
194.953125	3338.727783
193.623047	3481.069580
192.294922	3369.519043
190.964844	3289.967285
189.634766	3469.835205
188.304688	3463.586914
186.972656	3406.608154
185.642578	3452.975586
184.312500	3450.489746
182.980469	3414.200928
181.648438	3484.951660
180.316406	3572.573486
178.986328	3489.356689
177.652344	3618.233398
176.320313	3514.397705
174.988281	3526.911377
173.656250	3605.069824
172.322266	3574.429688
170.988281	3618.801270
169.656250	3567.547607
168.322266	3581.914551
166.988281	3496.952393
165.654297	3552.548096
164.318359	3501.341553
162.984375	3571.901123
161.648438	3707.980713
160.314453	3609.963623
158.978516	3483.900146
157.642578	3580.616699
156.306641	3591.214600
154.970703	3605.550781
153.634766	3535.698486
152.298828	3527.593994
150.960938	3592.425781
149.625000	3666.583008
148.287109	3641.634766
146.949219	3747.531494
145.611328	3774.902832
144.273438	3656.526611
142.935547	3775.441162
141.597656	3791.585938
140.257813	3824.531982
138.919922	3866.801758
137.580078	4006.129639
136.240234	3856.106934
134.900391	3889.017578
133.560547	4002.146240
132.220703	3958.534912
130.880859	4017.521973
129.539063	4080.217529
128.199219	4001.189697
126.857422	3976.250488
125.515625	4104.153809
124.175781	4122.064941
122.833984	4208.907715
121.490234	4236.107910
120.148438	4110.572754
118.806641	4061.430908
117.462891	4066.300293
116.121094	4233.121094
114.777344	4122.563477
113.433594	4170.219238
112.089844	4173.204590
110.746094	4064.575928
109.402344	4249.847656
108.058594	4330.918945
106.712891	4287.392578
105.367188	4409.323730
104.023438	4298.889648
102.677734	4244.242188
101.332031	4262.072266
99.986328	4352.342285
98.640625	4258.710938
97.292969	4484.505859
95.947266	4357.464844
94.599609	4564.599609
93.253906	4463.572266
91.906250	4601.956543
90.558594	4573.314453
89.210938	4472.338867
87.863281	4341.724121
86.515625	4420.692871
85.166016	4573.793457
83.818359	4623.035156
82.468750	4668.552246
81.119141	4589.901367
79.769531	4411.233398
78.419922	4549.380859
77.070313	4602.286133
75.720703	4840.342285
74.371094	4759.878418
73.019531	4673.889648
71.667969	4647.153809
70.318359	4633.379883
68.966797	4554.858887
67.615234	4485.613770
66.263672	4553.249512
64.912109	4402.668945
63.558594	4361.218262
62.207031	4425.142578
60.853516	4446.538086
59.500000	4649.007324
58.148438	4241.746582
56.794922	4006.412109
55.439453	3928.138428
54.085938	3835.120605
52.732422	3784.596680
51.376953	3671.332520
