#Wave		#Intensity
4002.106445	1442.531372
4001.408203	1456.849243
4000.709961	1499.562012
4000.010742	1470.694336
3999.312500	1445.413696
3998.613281	1563.228394
3997.914063	1487.868408
3997.215820	1530.541748
3996.516602	1576.776733
3995.816406	1415.653564
3995.117188	1465.466431
3994.417969	1411.624878
3993.717773	1439.983276
3993.018555	1468.332520
3992.318359	1510.960693
3991.618164	1435.717773
3990.917969	1424.774414
3990.217773	1503.091919
3989.517578	1477.862305
3988.817383	1395.534546
3988.117188	1488.093140
3987.416016	1387.950195
3986.715820	1344.918091
3986.014648	1548.012329
3985.313477	1405.112671
3984.612305	1536.817871
3983.911133	1458.138062
3983.209961	1457.903809
3982.507813	1507.565308
3981.806641	1567.901123
3981.105469	1514.206665
3980.403320	1510.401001
3979.701172	1435.362793
3978.999023	1460.060059
3978.296875	1456.264893
3977.594727	1406.191284
3976.892578	1416.643555
3976.190430	1501.828003
3975.487305	1487.353760
3974.785156	1462.210938
3974.082031	1454.861816
3973.378906	1486.636963
3972.675781	1479.286255
3971.972656	1539.490479
3971.269531	1485.920654
3970.566406	1489.236206
3969.862305	1421.476807
3969.159180	1385.717285
3968.455078	1449.440674
3967.751953	1481.175659
3967.047852	1395.703857
3966.343750	1423.886353
3965.639648	1533.715942
3964.935547	1501.522339
3964.230469	1384.159912
3963.526367	1408.777588
3962.821289	1376.619385
3962.117188	1557.316650
3961.412109	1468.395264
3960.707031	1507.168457
3960.001953	1350.915161
3959.296875	1559.861450
3958.591797	1396.560669
3957.885742	1506.200439
3957.180664	1488.241333
3956.474609	1445.488037
3955.769531	1473.594238
3955.063477	1402.523071
3954.357422	1370.427368
3953.651367	1334.801392
3952.945313	1405.387451
3952.238281	1490.108521
3951.532227	1419.091675
3950.825195	1468.400146
3950.119141	1443.400146
3949.412109	1368.887573
3948.705078	1411.107056
3947.998047	1432.096680
3947.291016	1446.008667
3946.583984	1442.241577
3945.876953	1484.421997
3945.168945	1367.569214
3944.461914	1427.414063
3943.753906	1497.837524
3943.045898	1472.872559
3942.337891	1423.195068
3941.629883	1415.904663
3940.921875	1412.146973
3940.213867	1327.204956
3939.504883	1478.749023
3938.796875	1340.893555
3938.087891	1457.105591
3937.379883	1485.091919
3936.670898	1375.517456
3935.961914	1385.875732
3935.252930	1382.127441
3934.543945	1367.804443
3933.833984	1459.227173
3933.125000	1335.648071
3932.415039	1423.522949
3931.706055	1335.219238
3930.996094	1504.082031
3930.286133	1429.881104
3929.576172	1380.353271
3928.866211	1390.693848
3928.156250	1379.910034
3927.445313	1369.129761
3926.735352	1312.605103
3926.024414	1333.505371
3925.314453	1382.542114
3924.603516	1364.733398
3923.892578	1308.245728
3923.181641	1406.489990
3922.470703	1339.466675
3921.758789	1437.674316
3921.047852	1437.443604
3920.335938	1335.307739
3919.625000	1377.254272
3918.913086	1348.930420
3918.201172	1404.910400
3917.489258	1380.102905
3916.777344	1422.015137
3916.065430	1386.681030
3915.352539	1372.418335
3914.640625	1344.122437
3913.927734	1473.735718
3913.215820	1413.857544
3912.502930	1329.444214
3911.790039	1283.637207
3911.077148	1392.137085
3910.364258	1307.767700
3909.650391	1377.668213
3908.937500	1335.387573
3908.224609	1461.331421
3907.510742	1324.447510
3906.796875	1331.241455
3906.083008	1336.080933
3905.369141	1340.920410
3904.655273	1345.759888
3903.941406	1350.599365
3903.227539	1355.438721
3902.512695	1360.278198
3901.798828	1365.117676
3901.083984	1369.957153
3900.369141	1374.796631
3899.654297	1409.552490
3898.939453	1290.425293
3898.224609	1381.127930
3897.509766	1335.458740
3896.793945	1380.684692
3896.079102	1495.792969
3895.363281	1394.218750
3894.648438	1387.007568
3893.932617	1341.373901
3893.216797	1341.158569
3892.500977	1295.546875
3891.784180	1351.202637
3891.068359	1323.058472
3890.352539	1403.124512
3889.635742	1343.572754
3888.918945	1399.184937
3888.203125	1315.232178
3887.486328	1328.973633
3886.769531	1314.810181
3886.051758	1387.826172
3885.334961	1380.630615
3884.618164	1394.352661
3883.900391	1394.128906
3883.183594	1428.752808
3882.465820	1421.555176
3881.748047	1309.850464
3881.030273	1389.751343
3880.312500	1337.290405
3879.594727	1246.544678
3878.875977	1364.712646
3878.158203	1329.685181
3877.439453	1454.762329
3876.721680	1364.055908
3876.002930	1367.316162
3875.284180	1314.917603
3874.565430	1335.574951
3873.846680	1352.748169
3873.127930	1338.623413
3872.408203	1321.026733
3871.689453	1275.629028
3870.969727	1258.048096
3870.250000	1344.714111
3869.530273	1337.550049
3868.810547	1333.861816
3868.090820	1323.228760
3867.371094	1336.906372
3866.651367	1388.770874
3865.930664	1339.948853
3865.210938	1228.667969
3864.490234	1374.221558
3863.769531	1346.243530
3863.048828	1349.496704
3862.328125	1425.589233
3861.607422	1328.255615
3860.886719	1376.587280
3860.165039	1414.502563
3859.444336	1455.871948
3858.722656	1327.403564
3858.000977	1375.704224
3857.279297	1326.977783
3856.557617	1292.123535
3855.835938	1288.452759
3855.114258	1350.580566
3854.392578	1367.676270
3853.669922	1388.228394
3852.948242	1374.160278
3852.225586	1415.469604
3851.502930	1269.911987
3850.780273	1287.006836
3850.057617	1335.228394
3849.334961	1352.307129
3848.612305	1386.670532
3847.888672	1355.330811
3847.166016	1303.259644
3846.442383	1344.527100
3845.718750	1385.781128
3844.995117	1319.908936
3844.271484	1288.604980
3843.547852	1402.385254
3842.824219	1339.995605
3842.100586	1450.278076
3841.375977	1343.018311
3840.651367	1273.764282
3839.927734	1259.754395
3839.203125	1328.568970
3838.478516	1235.198486
3837.753906	1372.989258
3837.029297	1383.116577
3836.303711	1375.997559
3835.579102	1355.088501
3834.853516	1341.081177
3834.128906	1423.593018
3833.403320	1306.187012
3832.677734	1302.531738
3831.952148	1343.666382
3831.226563	1319.337646
3830.500000	1288.128418
3829.774414	1291.365479
3829.047852	1353.134033
3828.322266	1266.853516
3827.595703	1252.882446
3826.869141	1342.158813
3826.142578	1290.330444
3825.416016	1303.884766
3824.689453	1355.272339
3823.961914	1214.046753
3823.235352	1399.540527
3822.507813	1351.182373
3821.781250	1344.090576
3821.053711	1247.638550
3820.326172	1323.040771
3819.598633	1343.444214
3818.871094	1271.086060
3818.142578	1356.752686
3817.415039	1349.666504
3816.686523	1311.679321
3815.958984	1332.067993
3815.230469	1345.584839
3814.501953	1345.369141
3813.773438	1290.249146
3813.044922	1331.213867
3812.316406	1303.557129
3811.586914	1289.628662
3810.858398	1309.997681
3810.128906	1258.356201
3809.399414	1347.288086
3808.669922	1343.644409
3807.940430	1213.198608
3807.210938	1315.801025
3806.481445	1257.347778
3805.751953	1277.698975
3805.021484	1352.842407
3804.291992	1325.230469
3803.561523	1174.369995
3802.831055	1345.345215
3802.100586	1259.561523
3801.370117	1375.713501
3800.639648	1289.952271
3799.909180	1406.062012
3799.177734	1282.697632
3798.447266	1285.911987
3797.715820	1330.158447
3796.984375	1312.850830
3796.252930	1312.640381
3795.521484	1319.265503
3794.790039	1226.788574
3794.058594	1260.758789
3793.327148	1267.388916
3792.594727	1332.082031
3791.862305	1359.188965
3791.130859	1297.510010
3790.398438	1252.920654
3789.666016	1273.200195
3788.933594	1317.363281
3788.201172	1327.389038
3787.467773	1286.235107
3786.735352	1275.795166
3786.001953	1258.537354
3785.268555	1312.897583
3784.536133	1374.059570
3783.802734	1257.932251
3783.069336	1366.802124
3782.334961	1277.976563
3781.601563	1301.623413
3780.868164	1294.601196
3780.133789	1342.081787
3779.399414	1263.534302
3778.666016	1307.599487
3777.931641	1310.794556
3777.197266	1324.200928
3776.462891	1262.724365
3775.727539	1415.658081
3774.993164	1337.174194
3774.257813	1275.724976
3773.523438	1357.153809
3772.788086	1299.121948
3772.052734	1353.318481
3771.317383	1240.909790
3770.582031	1271.303711
3769.846680	1260.903931
3769.110352	1359.247314
3768.375000	1233.319214
3767.638672	1314.650269
3766.903320	1249.906250
3766.166992	1412.711060
3765.430664	1324.204346
3764.694336	1337.571533
3763.958008	1350.934326
3763.220703	1303.205200
3762.484375	1357.287842
3761.747070	1387.604370
3761.010742	1336.500000
3760.273438	1275.237183
3759.536133	1254.686523
3758.798828	1366.371948
3758.061523	1318.693604
3757.323242	1247.304443
3756.585938	1362.326172
3755.847656	1274.011353
3755.110352	1277.194946
3754.372070	1236.343384
3753.633789	1381.773193
3752.895508	1249.491699
3752.157227	1262.833862
3751.418945	1326.947876
3750.679688	1313.197021
3749.941406	1323.138550
3749.202148	1302.625854
3748.462891	1288.885498
3747.723633	1295.443604
3746.984375	1356.108765
3746.245117	1352.510132
3745.505859	1392.862183
3744.766602	1348.696411
3744.026367	1318.063477
3743.287109	1294.198486
3742.546875	1351.426758
3741.806641	1276.893555
3741.066406	1307.086304
3740.326172	1357.531006
3739.585938	1353.937012
3738.845703	1313.209717
3738.104492	1370.379639
3737.364258	1343.161865
3736.623047	1349.695068
3735.881836	1325.862915
3735.140625	1349.262573
3734.399414	1298.457031
3733.658203	1369.062622
3732.916992	1254.210938
3732.174805	1341.655884
3731.433594	1327.958984
3730.691406	1351.335571
3729.949219	1411.767822
3729.207031	1273.419434
3728.464844	1330.476318
3727.722656	1296.585571
3726.980469	1296.377808
3726.237305	1255.769897
3725.495117	1295.962402
3724.751953	1400.088135
3724.008789	1396.498779
3723.266602	1365.994263
3722.523438	1369.139404
3721.779297	1348.739380
3721.036133	1331.708740
3720.292969	1385.293091
3719.548828	1321.196533
3718.805664	1337.791260
3718.061523	1381.266602
3717.317383	1394.486084
3716.573242	1367.385254
3715.829102	1303.342651
3715.084961	1387.098633
3714.339844	1400.308594
3713.595703	1457.161987
3712.850586	1446.857544
3712.106445	1513.754517
3711.361328	1406.123047
3710.616211	1372.344116
3709.871094	1288.253540
3709.125977	1418.864380
3708.379883	1378.391968
3707.634766	1324.519775
3706.888672	1388.008301
3706.143555	1461.533081
3705.397461	1444.540771
3704.651367	1397.394409
3703.905273	1377.067383
3703.159180	1440.496582
3702.412109	1446.964722
3701.666016	1436.686035
3700.918945	1423.062378
3700.172852	1442.921387
3699.425781	1499.594482
3698.678711	1462.539673
3697.931641	1452.266602
3697.184570	1495.528076
3696.436523	1398.278687
3695.689453	1471.636475
3694.942383	1431.271484
3694.194336	1457.790649
3693.446289	1474.272217
3692.698242	1577.652954
3691.950195	1396.934937
3691.202148	1517.002075
3690.454102	1473.327515
3689.705078	1443.028442
3688.957031	1466.175781
3688.208008	1509.351440
3687.459961	1492.415894
3686.710938	1538.911621
3685.961914	1542.002808
3685.212891	1565.115601
3684.462891	1514.815918
3683.713867	1587.966553
3682.963867	1504.323975
3682.214844	1557.442871
3681.464844	1550.524414
3680.714844	1630.290161
3679.964844	1610.028687
3679.214844	1679.760742
3678.464844	1629.506714
3677.713867	1662.563599
3676.963867	1595.671997
3676.212891	1715.322388
3675.462891	1625.132446
3674.711914	1571.597656
3673.960938	1644.586548
3673.209961	1694.251831
3672.458984	1720.604858
3671.707031	1763.587036
3670.956055	1716.726563
3670.204102	1739.736694
3669.452148	1679.591431
3668.701172	1742.504761
3667.949219	1765.499512
3667.197266	1738.622070
3666.444336	1811.466919
3665.692383	1827.793091
3664.940430	1837.468384
3664.187500	1803.952026
3663.434570	1750.516479
3662.681641	1986.036255
3661.929688	1872.817749
3661.175781	1928.958862
3660.422852	1855.619995
3659.669922	1964.849854
3658.916992	2007.675171
3658.163086	2007.353516
3657.409180	1917.461914
3656.655273	2066.414063
3655.902344	2085.981201
3655.147461	2032.593872
3654.393555	2062.105713
3653.639648	2061.775391
3652.885742	2114.472656
3652.130859	2094.251709
3651.375977	2219.816406
3650.622070	2183.021729
3649.867188	2219.104980
3649.112305	2235.307373
3648.356445	2225.016113
3647.601563	2218.038818
3646.846680	2307.052734
3646.090820	2220.637451
3645.334961	2312.931396
3644.580078	2219.926025
3643.824219	2279.111816
3643.068359	2295.283203
3642.312500	2433.801025
3641.555664	2320.998047
3640.799805	2403.269531
3640.042969	2369.832520
3639.287109	2471.897705
3638.530273	2336.031738
3637.773438	2477.713135
3637.016602	2480.619141
3636.259766	2562.785889
3635.501953	2410.481934
3634.745117	2429.904541
3633.988281	2657.282471
3633.230469	2501.735840
3632.472656	2557.433594
3631.714844	2500.934326
3630.957031	2645.683350
3630.199219	2632.066406
3629.441406	2681.111572
3628.682617	2631.222900
3627.924805	2663.769043
3627.166016	2778.709717
3626.407227	2830.995605
3625.649414	2659.193848
3624.890625	2813.615479
3624.130859	2803.282471
3623.372070	2812.713867
3622.613281	2772.746826
3621.853516	2884.248291
3621.094727	2821.238281
3620.334961	2764.831543
3619.575195	2925.644531
3618.815430	2941.627930
3618.055664	2802.981445
3617.294922	2976.868408
3616.535156	2871.148926
3615.775391	2880.553955
3615.014648	2942.560059
3614.253906	2945.375977
3613.493164	3007.351807
3612.732422	3141.604248
3611.971680	2934.103760
3611.210938	3012.477051
3610.449219	3048.125244
3609.688477	3027.932373
3608.926758	3017.596680
3608.166016	3099.189209
3607.404297	3052.737549
3606.642578	3127.734131
3605.879883	3045.196533
3605.118164	3120.170166
3604.356445	3004.855957
3603.593750	3056.852783
3602.832031	3108.832764
3602.069336	3354.247314
3601.306641	3134.063232
3600.543945	3058.172119
3599.781250	3254.317627
3599.018555	3106.343262
3598.254883	3191.027100
3597.492188	3183.964600
3596.728516	3235.856934
3595.964844	3277.908936
3595.201172	3319.947266
3594.437500	3208.113525
3593.673828	3328.702637
3592.910156	3298.716553
3592.146484	3167.307617
3591.381836	3189.700684
3590.617188	3169.563965
3589.853516	3263.898926
3589.088867	3276.455566
3588.324219	3197.465332
3587.559570	3321.170166
3586.793945	3238.929443
3586.029297	3326.641846
3585.263672	3241.159180
3584.499023	3224.305908
3583.733398	3360.971924
3582.967773	3321.244873
3582.202148	3248.878174
3581.436523	3264.681152
3580.670898	3407.781006
3579.904297	3293.007813
3579.138672	3325.111572
3578.372070	3308.265869
3577.605469	3294.687500
3576.838867	3405.052246
3576.072266	3293.632080
3575.305664	3283.322754
3574.539063	3357.776367
3573.771484	3500.654297
3573.004883	3327.370117
3572.237305	3378.971680
3571.469727	3329.562012
3570.703125	3384.403809
3569.935547	3422.943848
3569.166992	3396.344727
3568.399414	3311.149902
3567.631836	3297.598145
3566.863281	3394.712646
3566.094727	3361.626465
3565.327148	3527.027344
3564.558594	3562.247559
3563.790039	3265.683594
3563.021484	3470.045898
3562.251953	3488.999756
3561.483398	3498.194092
3560.713867	3465.127930
3559.945313	3458.072510
3559.175781	3356.782715
3558.406250	3411.478271
3557.636719	3566.860107
3556.867188	3390.897461
3556.096680	3478.035645
3555.327148	3552.158203
3554.556641	3447.703613
3553.787109	3534.790527
3553.016602	3556.941895
3552.246094	3413.598145
3551.475586	3283.277344
3550.705078	3509.819092
3549.933594	3561.149658
3549.163086	3466.538330
3548.391602	3504.890137
3547.621094	3329.274414
3546.849609	3458.390137
3546.078125	3496.724609
3545.306641	3457.281982
3544.535156	3459.967773
3543.762695	3614.892822
3542.991211	3562.495361
3542.218750	3461.543213
3541.446289	3564.591553
3540.674805	3651.421631
3539.902344	3430.750732
3539.129883	3569.350586
3538.356445	3465.242188
3537.583984	3484.096924
3536.811523	3580.573242
3536.038086	3508.852295
3535.264648	3553.558594
3534.491211	3527.125732
3533.717773	3442.517822
3532.944336	3597.097168
3532.170898	3512.505127
3531.397461	3563.636230
3530.623047	3459.694336
3529.849609	3552.804932
3529.075195	3526.401123
3528.300781	3516.149902
3527.526367	3428.423096
3526.751953	3531.162109
3525.977539	3356.325439
3525.202148	3446.135986
3524.427734	3416.547852
3523.652344	3312.778564
3522.876953	3528.333984
3522.101563	3363.311523
3521.326172	3482.065674
3520.550781	3371.904785
3519.775391	3439.049561
3519.000000	3335.375977
3518.223633	3386.394531
3517.447266	3369.744141
3516.671875	3485.161621
3515.895508	3571.557373
3515.119141	3371.344727
3514.342773	3348.268311
3513.565430	3441.082031
3512.789063	3453.404297
3512.011719	3369.184570
3511.235352	3423.341064
3510.458008	3397.057129
3509.680664	3316.103027
3508.903320	3424.911621
3508.125977	3411.501465
3507.347656	3494.540771
3506.570313	3452.194580
3505.791992	3403.434082
3505.014648	3367.542480
3504.236328	3363.790039
3503.458008	3411.435303
3502.679688	3423.735596
3501.901367	3320.427246
3501.122070	3422.638672
3500.343750	3322.573486
3499.564453	3289.944092
3498.786133	3363.228271
3498.006836	3414.028076
3497.227539	3368.566895
3496.448242	3390.480713
3495.668945	3229.580811
3494.888672	3405.427246
3494.109375	3241.370361
3493.329102	3340.224121
3492.548828	3355.714355
3491.769531	3355.176758
3490.989258	3466.780762
3490.208008	3325.269775
3489.427734	3321.533691
3488.647461	3346.621582
3487.866211	3234.015625
3487.085938	3303.929932
3486.304688	3329.008301
3485.523438	3174.853027
3484.742188	3193.543945
3483.960938	3189.832764
3483.179688	3208.515137
3482.397461	3313.548340
3481.616211	3201.091064
3480.833984	3344.460205
3480.051758	3366.302246
3479.269531	3378.548340
3478.487305	3173.472900
3477.705078	3390.247070
3476.922852	3332.197021
3476.139648	3184.724854
3475.357422	3289.609619
3474.574219	3081.519043
3473.791016	3183.194092
3473.007813	3294.413086
3472.224609	3169.406982
3471.441406	3200.811279
3470.658203	3273.685059
3469.874023	3155.122559
3469.090820	3202.462646
3468.306641	3176.435791
3467.522461	3163.172119
3466.738281	3067.020020
3465.954102	3120.718750
3465.169922	3222.207275
3464.385742	3170.704834
3463.600586	3112.846436
3462.815430	3150.574951
3462.031250	3105.478516
3461.246094	3162.303467
3460.460938	2977.119873
3459.675781	3202.676514
3458.890625	3087.572998
3458.104492	3227.110596
3457.319336	3159.770508
3456.533203	3124.267090
3455.747070	3146.033691
3454.960938	3275.930664
3454.174805	3119.585205
3453.388672	3192.213867
3452.602539	3220.312988
3451.815430	3130.799561
3451.029297	3082.628418
3450.242188	3129.796143
3449.455078	3091.171143
3448.667969	3106.557861
3447.880859	3061.596924
3447.093750	3127.790283
3446.306641	2924.094482
3445.518555	3139.485352
3444.731445	3100.895508
3443.943359	3005.196777
3443.155273	2941.257568
3442.367188	3077.197998
3441.579102	3019.611328
3440.791016	2923.986816
3440.002930	3018.643555
3439.213867	2970.604736
3438.425781	3008.166504
3437.636719	3042.546875
3436.847656	3026.215088
3436.058594	2997.215332
3435.269531	3034.748535
3434.480469	2913.905273
3433.690430	2865.936523
3432.901367	2897.139893
3432.111328	2959.990723
3431.321289	2950.020508
3430.531250	3016.007568
3429.741211	2983.881592
3428.951172	3008.713379
3428.161133	2834.253418
3427.370117	2893.890869
3426.580078	2766.938477
3425.789063	2842.375977
3424.998047	2920.950439
3424.207031	2816.179199
3423.416016	2926.334473
3422.625000	2881.629883
3421.833984	2874.849609
3421.041992	2748.041992
3420.250977	2933.933105
3419.458984	2753.476318
3418.666992	2847.749512
3417.875000	2803.100098
3417.083008	2771.089355
3416.291016	2877.936523
3415.498047	2915.336670
3414.706055	2794.993896
3413.913086	2813.470459
3413.120117	2743.640137
3412.327148	2853.558838
3411.534180	2808.965088
3410.741211	2780.145996
3409.948242	2691.455811
3409.155273	2779.254639
3408.361328	2696.894287
3407.567383	2712.212158
3406.774414	2799.965332
3405.980469	2831.007080
3405.186523	2723.502441
3404.391602	2650.660400
3403.597656	2791.875244
3402.803711	2684.428223
3402.008789	2715.463379
3401.213867	2740.196289
3400.418945	2617.081299
3399.624023	2704.722412
3398.829102	2713.722412
3398.034180	2568.662598
3397.239258	2756.861572
3396.443359	2646.414307
3395.648438	2564.284912
3394.852539	2686.411865
3394.056641	2632.575684
3393.260742	2650.999512
3392.464844	2688.260498
3391.667969	2643.869629
3390.872070	2649.724609
3390.075195	2555.130371
3389.279297	2661.428955
3388.482422	2460.171875
3387.685547	2691.950439
3386.888672	2660.149170
3386.091797	2593.856934
3385.293945	2540.129639
3384.497070	2561.670654
3383.699219	2598.879395
3382.902344	2658.017334
3382.104492	2604.313965
3381.306641	2575.695313
3380.508789	2575.282471
3379.709961	2581.134277
3378.912109	2499.290039
3378.113281	2473.837891
3377.315430	2604.940430
3376.516602	2551.305420
3375.717773	2478.907959
3374.918945	2437.827881
3374.120117	2543.820557
3373.321289	2490.229492
3372.521484	2433.527344
3371.722656	2492.558350
3370.922852	2517.174072
3370.123047	2376.081299
3369.323242	2578.885254
3368.523438	2587.847900
3367.723633	2431.187012
3366.922852	2355.811279
3366.123047	2458.522705
3365.322266	2495.609375
3364.522461	2398.398926
3363.721680	2366.790283
3362.920898	2460.068115
3362.120117	2497.130615
3361.318359	2415.586426
3360.517578	2455.764404
3359.715820	2455.370605
3358.915039	2380.110840
3358.113281	2357.896973
3357.311523	2444.834229
3356.509766	2472.503418
3355.708008	2310.001465
3354.905273	2471.710449
3354.103516	2365.356201
3353.300781	2346.281250
3352.499023	2473.636963
3351.696289	2364.218262
3350.893555	2326.466309
3350.090820	2403.940918
3349.287109	2394.215088
3348.484375	2477.879883
3347.681641	2449.470703
3346.877930	2218.796143
3346.074219	2349.119873
3345.270508	2376.741211
3344.466797	2283.047607
3343.663086	2320.000488
3342.859375	2388.035645
3342.054688	2269.513672
3341.250977	2297.125488
3340.446289	2405.534424
3339.641602	2339.892578
3338.836914	2311.554932
3338.032227	2227.310547
3337.227539	2307.707520
3336.421875	2257.650391
3335.617188	2306.967285
3334.811523	2309.701904
3334.006836	2287.603760
3333.201172	2228.271484
3332.395508	2234.119873
3331.589844	2292.708008
3330.783203	2314.053955
3329.977539	2198.929199
3329.170898	2192.374512
3328.365234	2207.525146
3327.558594	2185.471191
3326.751953	2253.308838
3325.945313	2246.749512
3325.138672	2221.601318
3324.331055	2205.755127
3323.524414	2279.740723
3322.716797	2090.459473
3321.909180	2189.211426
3321.101563	2108.364746
3320.293945	2179.222656
3319.486328	2318.147705
3318.678711	2240.413574
3317.871094	2286.464111
3317.062500	2168.544189
3316.253906	2282.637451
3315.446289	2186.403564
3314.637695	2130.396729
3313.829102	2204.251221
3313.019531	2129.713135
3312.210938	2123.190430
3311.402344	2101.219727
3310.592773	2181.210449
3309.783203	2199.394775
3308.973633	2205.218994
3308.164063	2140.016113
3307.354492	2167.460938
3306.544922	2201.070801
3305.735352	2108.120850
3304.924805	2178.761963
3304.114258	2178.412598
3303.304688	2147.212158
3302.494141	2223.982178
3301.683594	2158.859619
3300.872070	2112.259521
3300.061523	2139.668457
3299.250977	2114.664307
3298.439453	2185.213379
3297.627930	2070.843262
3296.816406	2196.836670
3296.004883	2113.307373
3295.193359	2042.125488
3294.381836	2091.072021
3293.570313	2090.736328
3292.757813	2102.715576
3291.945313	2123.925293
3291.133789	2003.555786
3290.321289	2123.243652
3289.508789	2073.676270
3288.695313	2067.191162
3287.882813	2085.313477
3287.070313	2066.527832
3286.256836	2056.972168
3285.443359	2025.900024
3284.629883	2022.501221
3283.816406	2071.348145
3283.002930	2074.088379
3282.189453	2018.455444
3281.375000	2147.144531
3280.561523	2162.156250
3279.747070	2035.908447
3278.932617	2007.949463
3278.119141	2096.650391
3277.303711	2037.997681
3276.489258	2114.390137
3275.674805	2101.777832
3274.859375	2110.643799
3274.044922	2150.180176
3273.229492	2214.238037
3272.414063	2048.301514
3271.598633	1980.524536
3270.783203	2026.186646
3269.967773	2007.472412
3269.151367	2031.665039
3268.335938	1994.572754
3267.519531	1960.555542
3266.703125	2091.944580
3265.886719	2051.797852
3265.070313	1953.487915
3264.253906	2048.077881
3263.437500	2004.896362
3262.620117	1983.151611
3261.803711	1979.773438
3260.986328	2052.882080
3260.168945	2006.668457
3259.351563	2039.989380
3258.534180	2015.198242
3257.715820	2014.874756
3256.898438	2014.551392
3256.080078	2029.510498
3255.262695	1989.456665
3254.444336	2093.024658
3253.625977	2007.148193
3252.807617	2009.880493
3251.989258	1982.071533
3251.169922	1987.860474
3250.351563	1996.700562
3249.532227	2011.642944
3248.712891	2002.163818
3247.893555	1971.326416
3247.074219	2010.674316
3246.254883	1967.643066
3245.435547	1976.477539
3244.616211	1945.663940
3243.795898	1930.105835
3242.975586	1996.866333
3242.155273	1953.871460
3241.334961	2002.320557
3240.514648	1956.291382
3239.694336	1910.276978
3238.874023	1973.940552
3238.052734	1924.892212
3237.231445	1945.899780
3236.411133	1869.468872
3235.589844	1997.027222
3234.768555	2033.231689
3233.946289	1965.953369
3233.125000	2005.193848
3232.303711	1922.729980
3231.481445	1974.131958
3230.659180	1931.236572
3229.836914	1949.171509
3229.014648	2009.665283
3228.192383	1839.110840
3227.370117	1936.075317
3226.547852	1966.153198
3225.724609	1956.722290
3224.901367	1941.218628
3224.078125	1883.196045
3223.255859	1980.075317
3222.431641	1970.648071
3221.608398	1882.289063
3220.785156	1909.306030
3219.960938	1921.139282
3219.137695	2005.796509
3218.313477	2038.848389
3217.489258	1932.348022
3216.665039	1919.905640
3215.840820	1983.280640
3215.015625	1955.673706
3214.191406	1931.107056
3213.366211	1882.299683
3212.541992	1985.037598
3211.716797	2008.959595
3210.891602	1941.985352
3210.066406	1911.382202
3209.241211	1980.734131
3208.415039	1868.374146
3207.589844	1804.492920
3206.763672	1858.692505
3205.937500	1946.168335
3205.111328	1852.043091
3204.285156	1806.359741
3203.458984	1854.473511
3202.632813	1829.977539
3201.805664	1953.678711
3200.978516	1868.698975
3200.152344	1913.748291
3199.325195	1922.509399
3198.498047	1913.133667
3197.670898	1846.345825
3196.842773	1927.625854
3196.015625	1851.794434
3195.187500	1839.415527
3194.360352	1929.717041
3193.532227	1896.193604
3192.704102	1883.813232
3191.875977	1783.901978
3191.046875	1892.261963
3190.218750	1834.625977
3189.389648	1786.059448
3188.561523	1858.168701
3187.732422	1848.822144
3186.903320	1878.680542
3186.074219	1781.896973
3185.245117	1823.814697
3184.415039	1865.718872
3183.585938	1904.596069
3182.755859	1750.621094
3181.926758	1810.592529
3181.096680	1738.010010
3180.266602	1867.232422
3179.435547	1797.675293
3178.605469	1809.429321
3177.775391	1791.077271
3176.944336	1881.081421
3176.113281	1823.603516
3175.283203	1739.065186
3174.452148	1798.951416
3173.620117	1837.763672
3172.789063	1858.519653
3171.958008	1704.872681
3171.125977	1800.801880
3170.294922	1866.641602
3169.462891	1770.169434
3168.630859	1772.889893
3167.798828	1727.538818
3166.966797	1730.265137
3166.133789	1886.166504
3165.301758	1753.732910
3164.468750	1780.473511
3163.635742	1753.169312
3162.802734	1824.924194
3161.969727	1857.642334
3161.136719	1704.315430
3160.303711	1773.043335
3159.469727	1814.752686
3158.636719	1832.455688
3157.802734	1721.212036
3156.968750	1825.870483
3156.134766	1732.649536
3155.300781	1753.351318
3154.466797	1717.109131
3153.631836	1731.814331
3152.797852	1779.467773
3151.962891	1764.205566
3151.127930	1701.031738
3150.292969	1706.746948
3149.458008	1757.367432
3148.623047	1721.165039
3147.788086	1732.859863
3146.952148	1726.596558
3146.117188	1684.432617
3145.281250	1738.007202
3144.445313	1812.501099
3143.609375	1668.668335
3142.773438	1638.500488
3141.936523	1701.016357
3141.100586	1679.819824
3140.263672	1754.262939
3139.426758	1694.220093
3138.590820	1756.686646
3137.753906	1693.675537
3136.916016	1603.805176
3136.079102	1714.033936
3135.242188	1615.232178
3134.404297	1713.482910
3133.566406	1641.575073
3132.729492	1736.805664
3131.891602	1679.835815
3131.052734	1604.984619
3130.214844	1652.450806
3129.376953	1553.769897
3128.538086	1690.683105
3127.700195	1669.541992
3126.861328	1731.871338
3126.022461	1606.417480
3125.183594	1573.380493
3124.343750	1716.139160
3123.504883	1674.158203
3122.666016	1658.996826
3121.826172	1637.884277
3120.986328	1688.238403
3120.146484	1637.357666
3119.306641	1696.625122
3118.466797	1705.280518
3117.626953	1621.690186
3116.786133	1680.931396
3115.946289	1636.041748
3115.105469	1647.675293
3114.264648	1665.252319
3113.423828	1578.762207
3112.583008	1667.689575
3111.741211	1628.782471
3110.900391	1631.492310
3110.058594	1625.287354
3109.217773	1675.529541
3108.375977	1669.319458
3107.534180	1606.684448
3106.692383	1606.426025
3105.849609	1662.576538
3105.007813	1656.372314
3104.165039	1495.837646
3103.323242	1599.458008
3102.480469	1652.606445
3101.637695	1572.245117
3100.794922	1619.448608
3099.952148	1577.670532
3099.108398	1568.521606
3098.265625	1586.056885
3097.421875	1594.694214
3096.578125	1683.346802
3095.734375	1540.844360
3094.890625	1558.372559
3094.046875	1537.386475
3093.203125	1557.871338
3092.358398	1605.000854
3091.513672	1539.605591
3090.669922	1610.405273
3089.825195	1592.387207
3088.980469	1589.171753
3088.134766	1615.546021
3087.290039	1553.159790
3086.445313	1526.288574
3085.599609	1582.234619
3084.753906	1581.980103
3083.908203	1552.160645
3083.062500	1587.383179
3082.216797	1486.639282
3081.371094	1598.692871
3080.524414	1548.207520
3079.678711	1527.279663
3078.832031	1594.967773
3077.985352	1624.242798
3077.138672	1594.454590
3076.291992	1582.389160
3075.445313	1508.341064
3074.597656	1552.367432
3073.750977	1549.166870
3072.903320	1607.923950
3072.055664	1610.615112
3071.208008	1645.748413
3070.360352	1568.812378
3069.512695	1530.230469
3068.665039	1588.943237
3067.816406	1627.004639
3066.967773	1561.908936
3066.120117	1487.994507
3065.271484	1540.784058
3064.421875	1546.427246
3063.573242	1519.672485
3062.724609	1607.766724
3061.875000	1578.066528
3061.026367	1583.699951
3060.176758	1571.672241
3059.327148	1559.648438
3058.477539	1527.032593
3057.627930	1573.855469
3056.777344	1579.484741
3055.927734	1643.929077
3055.077148	1531.930664
3054.226563	1505.224976
3053.375977	1546.134644
3052.525391	1589.969971
3051.674805	1504.498413
3050.824219	1574.768311
3049.972656	1512.826782
3049.122070	1477.338623
3048.270508	1568.134888
3047.418945	1500.351929
3046.567383	1608.729126
3045.715820	1549.766846
3044.864258	1625.819336
3044.011719	1505.254761
3043.159180	1528.482422
3042.307617	1592.768433
3041.455078	1486.931152
3040.602539	1507.218140
3039.750000	1410.224121
3038.896484	1550.703735
3038.043945	1529.937744
3037.190430	1503.317383
3036.337891	1626.134277
3035.484375	1453.031982
3034.630859	1555.314087
3033.777344	1458.421265
3032.922852	1598.734619
3032.069336	1457.951782
3031.214844	1457.717041
3030.361328	1507.235718
3029.506836	1547.959961
3028.652344	1518.453369
3027.797852	1500.657349
3026.942383	1482.867065
3026.087891	1441.687866
3025.232422	1435.608032
3024.377930	1537.695068
3023.522461	1443.914551
3022.666992	1414.457764
3021.811523	1355.790649
3020.955078	1504.568481
3020.099609	1489.721191
3019.243164	1407.705811
3018.387695	1436.679932
3017.531250	1477.323120
3016.674805	1503.357544
3015.818359	1546.895508
3014.961914	1386.145386
3014.104492	1563.903687
3013.248047	1432.375122
3012.390625	1522.565063
3011.533203	1426.081177
3010.675781	1530.822266
3009.818359	1489.760376
3008.960938	1419.562500
3008.102539	1486.366089
3007.245117	1433.675171
3006.386719	1503.368408
3005.528320	1514.778442
3004.669922	1470.845947
3003.811523	1479.345337
3002.953125	1484.930298
3002.094727	1540.003174
3001.235352	1420.416870
3000.376953	1440.559570
2999.517578	1399.591064
2998.658203	1352.817017
2997.798828	1410.775391
2996.939453	1404.731445
2996.079102	1369.610718
2995.219727	1442.075317
2994.359375	1494.167969
2993.499023	1427.078369
2992.638672	1391.976440
2991.778320	1490.540405
2990.917969	1374.097534
2990.057617	1426.159058
2989.196289	1367.846680
2988.335938	1463.447144
2987.474609	1373.212280
2986.613281	1381.699219
2985.751953	1506.273926
2984.890625	1494.424072
2984.028320	1407.143555
2983.166992	1473.636597
2982.304688	1415.391235
2981.442383	1467.361938
2980.580078	1467.125488
2979.717773	1452.394165
2978.855469	1431.870483
2977.993164	1460.620239
2977.129883	1405.330688
2976.267578	1338.470459
2975.404297	1407.774536
2974.541016	1395.962891
2973.677734	1401.529419
2972.814453	1407.094116
2971.950195	1418.446533
2971.086914	1386.380371
2970.222656	1415.095459
2969.358398	1446.694702
2968.494141	1382.817261
2967.629883	1405.734131
2966.765625	1391.047607
2965.901367	1393.714966
2965.036133	1425.291992
2964.171875	1410.609253
2963.306641	1343.909058
2962.441406	1363.920044
2961.576172	1378.146240
2960.710938	1467.474731
2959.844727	1435.467285
2958.979492	1435.235840
2958.113281	1328.173218
2957.248047	1374.149048
2956.381836	1431.655518
2955.515625	1460.284180
2954.648438	1448.506836
2953.782227	1399.228271
2952.915039	1355.734619
2952.048828	1421.849854
2951.181641	1392.784546
2950.314453	1378.144287
2949.447266	1421.162354
2948.580078	1438.226440
2947.712891	1478.339233
2946.844727	1406.068604
2945.976563	1305.013184
2945.109375	1466.102905
2944.241211	1382.349487
2943.373047	1451.233032
2942.503906	1439.483154
2941.635742	1476.671631
2940.767578	1367.068115
2939.898438	1358.214966
2939.029297	1383.889893
2938.160156	1464.212891
2937.291016	1412.205444
2936.421875	1394.723511
2935.552734	1417.500610
2934.682617	1437.395630
2933.812500	1336.562378
2932.943359	1385.202515
2932.073242	1373.485474
2931.203125	1410.612183
2930.332031	1464.961670
2929.461914	1479.085571
2928.591797	1386.957520
2927.720703	1412.573608
2926.849609	1383.639526
2925.978516	1383.416382
2925.107422	1449.196289
2924.236328	1371.493286
2923.365234	1405.697266
2922.493164	1393.997314
2921.621094	1431.054565
2920.750000	1473.834473
2919.877930	1416.258301
2919.005859	1378.765991
2918.132813	1421.533447
2917.260742	1372.590088
2916.387695	1438.265381
2915.515625	1466.679443
2914.642578	1389.110840
2913.769531	1374.568359
2912.896484	1445.927246
2912.023438	1445.693970
2911.149414	1425.424683
2910.276367	1491.016968
2909.402344	1473.608154
2908.528320	1473.370483
2907.654297	1350.133301
2906.780273	1398.535278
2905.906250	1444.062134
2905.032227	1429.533813
2904.157227	1472.182251
2903.282227	1389.058594
2902.407227	1363.115234
2901.532227	1431.468750
2900.657227	1328.394287
2899.782227	1451.000854
2898.907227	1359.379883
2898.031250	1399.135864
2897.155273	1350.376465
2896.280273	1378.703125
2895.404297	1378.480713
2894.527344	1383.965332
2893.651367	1355.211182
2892.775391	1349.287354
2891.898438	1411.817017
2891.022461	1405.885742
2890.145508	1360.039063
2889.268555	1339.864258
2888.391602	1319.695801
2887.513672	1336.581909
2886.636719	1319.269897
2885.758789	1378.884521
2884.880859	1375.813477
2884.003906	1330.023193
2883.125977	1312.723267
2882.247070	1375.147461
2881.369141	1286.679810
2880.491211	1346.241821
2879.612305	1331.795898
2878.733398	1328.735718
2877.854492	1274.469971
2876.975586	1305.552002
2876.096680	1282.590210
2875.217773	1333.564819
2874.337891	1248.060669
2873.458984	1443.991943
2872.579102	1367.023560
2871.699219	1349.753418
2870.819336	1224.525879
2869.939453	1312.388916
2869.059570	1326.378052
2868.178711	1286.407471
2867.297852	1337.307007
2866.417969	1294.508545
2865.537109	1282.946045
2864.656250	1345.173096
2863.774414	1262.669678
2862.893555	1273.813721
2862.012695	1256.588867
2861.130859	1279.074585
2860.249023	1329.909424
2859.367188	1375.057373
2858.485352	1397.512939
2857.603516	1337.767944
2856.720703	1402.729248
2855.838867	1326.002563
2854.956055	1337.119995
2854.073242	1283.088013
2853.190430	1282.880859
2852.307617	1310.988770
2851.424805	1302.283813
2850.541992	1338.871216
2849.658203	1327.334473
2848.774414	1273.356201
2847.891602	1315.588867
2847.007813	1253.143555
2846.124023	1334.962036
2845.239258	1351.713623
2844.355469	1365.632202
2843.470703	1371.065552
2842.586914	1308.661499
2841.702148	1373.448730
2840.817383	1299.761963
2839.931641	1302.377197
2839.046875	1217.427124
2838.162109	1253.945068
2837.276367	1259.389893
2836.390625	1298.712524
2835.504883	1323.908203
2834.619141	1287.003418
2833.733398	1247.288696
2832.847656	1328.909546
2831.960938	1311.768799
2831.075195	1317.197998
2830.188477	1238.022461
2829.301758	1271.658203
2828.415039	1325.017212
2827.528320	1310.709473
2826.641602	1285.133301
2825.753906	1270.836548
2824.866211	1287.535400
2823.979492	1326.764038
2823.091797	1349.081299
2822.204102	1300.991333
2821.315430	1275.441162
2820.427734	1258.344482
2819.539063	1213.107056
2818.651367	1280.451294
2817.762695	1235.224731
2816.874023	1232.211914
2815.985352	1324.835693
2815.096680	1259.937256
2814.207031	1290.664551
2813.318359	1301.701782
2812.428711	1318.357422
2811.539063	1295.660034
2810.649414	1284.210205
2809.759766	1376.720581
2808.870117	1331.551147
2807.979492	1339.762085
2807.088867	1272.146973
2806.199219	1271.941406
2805.308594	1280.157837
2804.417969	1209.778198
2803.527344	1260.098877
2802.635742	1327.239258
2801.745117	1318.608032
2800.853516	1315.589722
2799.961914	1281.721436
2799.071289	1331.989502
2798.178711	1261.680786
2797.287109	1272.689941
2796.395508	1362.174805
2795.502930	1162.985840
2794.611328	1230.043945
2793.718750	1280.271484
2792.826172	1207.238159
2791.933594	1282.658081
2791.041016	1223.648438
2790.147461	1262.645752
2789.254883	1248.445557
2788.361328	1321.011230
2787.467773	1295.612915
2786.574219	1312.190552
2785.680664	1289.599121
2784.787109	1289.390625
2783.892578	1286.385620
2782.999023	1263.809326
2782.104492	1246.831421
2781.209961	1232.654053
2780.315430	1268.785645
2779.420898	1271.374634
2778.526367	1279.550293
2777.630859	1231.856812
2776.735352	1312.651001
2775.840820	1248.212891
2774.945313	1298.266479
2774.049805	1239.434570
2773.154297	1216.905640
2772.257813	1311.589722
2771.362305	1308.587402
2770.465820	1347.431763
2769.569336	1221.696899
2768.672852	1305.163696
2767.776367	1307.740845
2766.879883	1315.893066
2765.982422	1257.143555
2765.085938	1312.680298
2764.188477	1345.906616
2763.291016	1262.105713
2762.393555	1314.828979
2761.496094	1275.623413
2760.598633	1250.354248
2759.701172	1303.053711
2758.802734	1280.572021
2757.904297	1291.498413
2757.005859	1238.413452
2756.107422	1296.645508
2755.208984	1263.051147
2754.310547	1182.180298
2753.411133	1187.551270
2752.512695	1265.218750
2751.613281	1195.507813
2750.713867	1292.607300
2749.814453	1275.722046
2748.915039	1269.957764
2748.014648	1253.081543
2747.115234	1252.878784
2746.214844	1227.677979
2745.314453	1221.925171
2744.414063	1238.387329
2743.513672	1315.920532
2742.613281	1274.071289
2741.711914	1251.662598
2740.811523	1284.758301
2739.910156	1217.964600
2739.008789	1184.479858
2738.107422	1209.249756
2737.206055	1292.245850
2736.304688	1255.992676
2735.402344	1219.751221
2734.500977	1263.901245
2733.598633	1308.036865
2732.696289	1246.867188
2731.793945	1235.583862
2730.891602	1293.552124
2729.988281	1276.725830
2729.085938	1248.828979
2728.182617	1254.163940
2727.279297	1237.352051
2726.375977	1198.404297
2725.472656	1248.020386
2724.569336	1275.486084
2723.666016	1206.121216
2722.761719	1216.989502
2721.857422	1200.199829
2720.953125	1222.125366
2720.048828	1271.689209
2719.144531	1254.898682
2718.240234	1271.277344
2717.335938	1196.465088
2716.430664	1240.475464
2715.525391	1276.184448
2714.620117	1201.407715
2713.714844	1250.918457
2712.809570	1192.735718
2711.904297	1178.739868
2710.998047	1244.790649
2710.091797	1205.954346
2709.186523	1260.942505
2708.280273	1235.909668
2707.374023	1268.808838
2706.466797	1243.782837
2705.560547	1276.670044
2704.653320	1207.539673
2703.747070	1212.857056
2702.839844	1298.098145
2701.932617	1256.553833
2701.025391	1242.574463
2700.117188	1201.052612
2699.209961	1269.714478
2698.301758	1250.232056
2697.393555	1285.823364
2696.485352	1192.015625
2695.577148	1227.604736
2694.668945	1254.926147
2693.760742	1133.653076
2692.851563	1287.533203
2691.943359	1246.064209
2691.034180	1298.116943
2690.125000	1248.410156
2689.215820	1215.215576
2688.305664	1215.018677
2687.396484	1223.067261
2686.486328	1236.609131
2685.577148	1167.719360
2684.666992	1153.794434
2683.756836	1181.074341
2682.846680	1186.375366
2681.935547	1188.928955
2681.025391	1268.351318
2680.114258	1215.992676
2679.203125	1193.839844
2678.291992	1254.014648
2677.380859	1229.119263
2676.469727	1209.718262
2675.558594	1308.258667
2674.646484	1190.130493
2673.734375	1285.900269
2672.823242	1263.760986
2671.911133	1241.628906
2670.998047	1255.130005
2670.085938	1178.206055
2669.173828	1301.295776
2668.260742	1284.650024
2667.347656	1229.668091
2666.434570	1218.515869
2665.521484	1190.940308
2664.608398	1226.332764
2663.695313	1264.450684
2662.781250	1190.361206
2661.868164	1138.183838
2660.954102	1181.768433
2660.040039	1233.544312
2659.125977	1298.976807
2658.210938	1241.347046
2657.296875	1145.462769
2656.381836	1216.344360
2655.467773	1298.134521
2654.552734	1215.949829
2653.637695	1185.700317
2652.722656	1212.823975
2651.806641	1242.669800
2650.891602	1217.891968
2649.975586	1198.582642
2649.059570	1143.791992
2648.143555	1280.075073
2647.227539	1282.596313
2646.311523	1252.375000
2645.395508	1197.610962
2644.478516	1202.871948
2643.561523	1219.039795
2642.644531	1199.755005
2641.727539	1240.454468
2640.810547	1270.237427
2639.893555	1166.466553
2638.975586	1201.701660
2638.058594	1253.272339
2637.140625	1168.623047
2636.222656	1271.931030
2635.304688	1206.368408
2634.386719	1219.786377
2633.467773	1162.420288
2632.549805	1140.456909
2631.630859	1200.142944
2630.711914	1180.901367
2629.792969	1251.443481
2628.874023	1251.240479
2627.955078	1188.485596
2627.036133	1220.923218
2626.116211	1237.037720
2625.196289	1198.780396
2624.276367	1174.125000
2623.356445	1225.565796
2622.436523	1211.781860
2621.516602	1274.066040
2620.595703	1208.672485
2619.674805	1216.623413
2618.754883	1140.399292
2617.833984	1197.224976
2616.912109	1237.745972
2615.991211	1327.104248
2615.070313	1210.209473
2614.148438	1163.891479
2613.226563	1236.942505
2612.304688	1204.195923
2611.382813	1187.730225
2610.460938	1309.544678
2609.539063	1152.103760
2608.616211	1189.862305
2607.694336	1246.578125
2606.771484	1219.280640
2605.848633	1270.555054
2604.925781	1275.765991
2604.001953	1205.145874
2603.079102	1280.767334
2602.155273	1126.242554
2601.232422	1223.507080
2600.308594	1255.785645
2599.384766	1214.991821
2598.460938	1239.144531
2597.536133	1230.828003
2596.612305	1265.788940
2595.687500	1219.611328
2594.762695	1311.342529
2593.837891	1275.985840
2592.913086	1213.611450
2591.988281	1224.224365
2591.062500	1221.323486
2590.137695	1250.842773
2589.211914	1261.444214
2588.286133	1228.830688
2587.360352	1293.437988
2586.434570	1131.236938
2585.508789	1190.440308
2584.582031	1279.312988
2583.655273	1271.009644
2582.729492	1238.426025
2581.802734	1154.597412
2580.875977	1283.876465
2579.948242	1229.732300
2579.021484	1234.925171
2578.093750	1196.981934
2577.166016	1188.701050
2576.239258	1191.203003
2575.311523	1212.566162
2574.382813	1188.121826
2573.455078	1233.721924
2572.526367	1284.693726
2571.598633	1230.628174
2570.669922	1316.585205
2569.741211	1200.616699
2568.812500	1243.486084
2567.883789	1224.446411
2566.954102	1237.700684
2566.025391	1162.173584
2565.095703	1145.846069
2564.166016	1207.514648
2563.236328	1175.051636
2562.306641	1260.891602
2561.375977	1182.733765
2560.446289	1171.791260
2559.515625	1203.846680
2558.584961	1230.518188
2557.654297	1275.985107
2556.723633	1248.919189
2555.792969	1184.266357
2554.861328	1202.868652
2553.930664	1224.149414
2552.999023	1186.373047
2552.067383	1215.700562
2551.135742	1191.353882
2550.204102	1158.966675
2549.271484	1233.884277
2548.339844	1185.409058
2547.407227	1193.260864
2546.474609	1174.299561
2545.541992	1166.066772
2544.609375	1211.440186
2543.676758	1141.569946
2542.743164	1144.063599
2541.810547	1245.674683
2540.876953	1170.475952
2539.943359	1154.217651
2539.009766	1218.291504
2538.076172	1180.613647
2537.141602	1244.662354
2536.208008	1220.373535
2535.273438	1204.120239
2534.338867	1187.872070
2533.404297	1198.378662
2532.469727	1235.627075
2531.535156	1179.270386
2530.599609	1213.836060
2529.664063	1248.390381
2528.729492	1266.896729
2527.793945	1189.192749
2526.857422	1207.702759
2525.921875	1204.834839
2524.986328	1161.902222
2524.049805	1148.360107
2523.113281	1137.492676
2522.177734	1185.362915
2521.241211	1153.138428
2520.303711	1211.666016
2519.367188	1230.147949
2518.429688	1128.563843
2517.493164	1157.723389
2516.555664	1261.553223
2515.618164	1218.680786
2514.680664	1183.821045
2513.742188	1183.628418
2512.804688	1196.762817
2511.866211	1167.253540
2510.928711	1196.373413
2509.990234	1249.460693
2509.051758	1172.011230
2508.112305	1222.421753
2507.173828	1168.967041
2506.234375	1227.348755
2505.295898	1275.063721
2504.356445	1179.042358
2503.416992	1200.139038
2502.477539	1194.622437
2501.537109	1151.864868
2500.597656	1172.955444
2499.657227	1188.720581
2498.716797	1236.387207
2497.776367	1161.749023
2496.835938	1164.217896
2495.895508	1217.180420
2494.955078	1163.838989
2494.013672	1248.665039
2493.072266	1195.335693
2492.130859	1179.205933
2491.189453	1179.013916
2490.248047	1189.442017
2489.306641	1175.975464
2488.364258	1202.325439
2487.421875	1188.861206
2486.480469	1196.627441
2485.538086	1222.961060
2484.594727	1175.018555
2483.652344	1222.562866
2482.709961	1187.893677
2481.766602	1137.328979
2480.823242	1153.047974
2479.879883	1123.707397
2478.936523	1216.268188
2477.993164	1057.106689
2477.049805	1178.786621
2476.105469	1128.272705
2475.161133	1202.235596
2474.216797	1149.086548
2473.272461	1172.724487
2472.328125	1204.295166
2471.383789	1204.098999
2470.438477	1214.486572
2469.494141	1164.024170
2468.548828	1174.414795
2467.603516	1190.091431
2466.658203	1160.811157
2465.711914	1189.703735
2464.766602	1160.432983
2463.820313	1228.960083
2462.874023	1175.909912
2461.927734	1128.161255
2460.981445	1133.260742
2460.035156	1214.953369
2459.088867	1151.376953
2458.141602	1137.987549
2457.194336	1143.082031
2456.247070	1177.208984
2455.299805	1145.348633
2454.352539	1158.355103
2453.405273	1181.910034
2452.457031	1144.788818
2451.509766	1215.810181
2450.561523	1170.784790
2449.613281	1112.591553
2448.665039	1157.223022
2447.715820	1188.661743
2446.767578	1230.630981
2445.818359	1175.100586
2444.870117	1095.879272
2443.920898	1156.280273
2442.970703	1084.988281
2442.021484	1198.031982
2441.072266	1184.673706
2440.122070	1181.848389
2439.171875	1207.973267
2438.222656	1173.569214
2437.272461	1120.760010
2436.321289	1154.773315
2435.371094	1222.966064
2434.419922	1178.063354
2433.469727	1188.387939
2432.518555	1156.649292
2431.567383	1148.575684
2430.616211	1124.737427
2429.664063	1145.573730
2428.712891	1158.522217
2427.760742	1142.573608
2426.808594	1179.153809
2425.856445	1163.207031
2424.904297	1210.273193
2423.952148	1173.327271
2423.000000	1136.393433
2422.046875	1099.471558
2421.093750	1141.270020
2420.140625	1211.909790
2419.187500	1156.634399
2418.234375	1132.844849
2417.281250	1185.098022
2416.327148	1108.882080
2415.373047	1087.732910
2414.419922	1134.726563
2413.465820	1137.161621
2412.510742	1113.398315
2411.556641	1121.074707
2410.601563	1173.269897
2409.647461	1094.524170
2408.692383	1193.831543
2407.737305	1141.284302
2406.782227	1125.395020
2405.827148	1031.007568
2404.871094	1143.342163
2403.916016	1171.930786
2402.958984	1161.277588
2402.003906	1142.782715
2401.046875	1124.293701
2400.091797	1118.881836
2399.134766	1181.430176
2398.177734	1147.263672
2397.220703	1123.560059
2396.263672	1125.989258
2395.306641	1097.072632
2394.349609	1086.447021
2393.392578	1112.381958
2392.435547	1099.146484
2391.476563	1062.421875
2390.519531	1033.539063
2389.560547	1148.189331
2388.603516	1038.419922
2387.644531	1093.032471
2386.685547	1014.606750
2385.728516	1048.342773
2384.769531	1066.423340
2383.810547	1160.100098
2382.851563	1013.944397
2381.890625	1034.627808
2380.931641	1042.276001
2379.972656	1112.447998
2379.013672	1060.169556
2378.052734	1046.974365
2377.093750	1150.963013
2376.132813	1062.253906
2375.171875	970.970703
2374.210938	1035.880005
2373.250000	1074.745117
2372.291016	1017.328674
2371.330078	1092.604248
2370.367188	1019.597473
2369.406250	1089.646851
2368.445313	1099.869629
2367.484375	987.901184
2366.521484	1052.722778
2365.560547	1073.341919
2364.597656	1086.158936
2363.634766	1083.383545
2362.673828	1111.780396
2361.710938	1023.294189
2360.748047	1072.465698
2359.785156	1022.959961
2358.822266	1064.327637
2357.859375	1014.839294
2356.894531	1051.004517
2355.931641	1011.913147
2354.968750	1068.820801
2354.003906	1097.177979
2353.041016	1024.384155
2352.076172	993.101379
2351.111328	974.791382
2350.146484	1031.658447
2349.181641	940.781006
2348.218750	1080.555298
2347.251953	1057.061279
2346.287109	1010.261108
2345.322266	1118.875610
2344.357422	1033.237061
2343.390625	1051.192261
2342.425781	965.592651
2341.458984	1009.435913
2340.494141	1066.204224
2339.527344	1042.742920
2338.560547	1083.964966
2337.595703	1024.295898
2336.628906	1075.852051
2335.662109	1078.261963
2334.693359	1028.964355
2333.726563	1026.211304
2332.759766	1062.226440
2331.792969	1105.981934
2330.824219	1185.894287
2329.857422	1216.699097
2328.888672	1291.401489
2327.921875	1169.818481
2326.953125	1087.004517
2325.984375	991.309998
2325.015625	1053.094727
2324.046875	996.147278
2323.078125	1052.750366
2322.109375	1037.099121
2321.140625	1065.303223
2320.169922	1023.864990
2319.201172	995.333191
2318.230469	1036.421021
2317.261719	1028.518311
2316.291016	999.999573
2315.320313	968.913330
2314.351563	986.790161
2313.380859	989.204834
2312.410156	1022.526306
2311.439453	1019.783875
2310.468750	1001.593567
2309.496094	924.198608
2308.525391	985.822205
2307.554688	887.866943
2306.582031	993.219055
2305.611328	1026.501465
2304.638672	998.038696
2303.666016	997.875427
2302.695313	971.997986
2301.722656	976.980957
2300.750000	997.385803
2299.777344	981.801636
2298.804688	917.397461
2297.832031	986.619019
2296.857422	965.906433
2295.884766	1050.508179
2294.912109	998.975159
2293.937500	944.891235
2292.962891	975.543274
2291.990234	990.784424
2291.015625	952.126587
2290.041016	998.158081
2289.066406	977.470398
2288.091797	1002.961609
2287.117188	907.903625
2286.142578	961.604919
2285.167969	989.649963
2284.191406	902.331055
2283.216797	968.821899
2282.240234	953.287720
2281.265625	942.882935
2280.289063	993.963867
2279.314453	965.626343
2278.337891	1006.443054
2277.361328	939.705200
2276.384766	936.991272
2275.408203	952.195862
2274.431641	982.750977
2273.453125	1026.090210
2272.476563	941.494629
2271.500000	928.550537
2270.521484	928.398499
2269.544922	938.475098
2268.566406	986.899414
2267.587891	976.512512
2266.609375	1009.579285
2265.632813	955.748901
2264.654297	955.592407
2263.675781	912.007019
2262.695313	927.182983
2261.716797	927.031128
2260.738281	1000.927551
2259.759766	957.363159
2258.779297	1008.257385
2257.800781	977.466614
2256.820313	949.237671
2255.839844	977.146423
2254.859375	1002.495178
2253.880859	941.119934
2252.900391	943.515808
2251.919922	1030.048462
2250.937500	953.403503
2249.957031	994.027954
2248.976563	914.865540
2247.996094	975.866577
2247.013672	929.851013
2246.033203	934.792908
2245.050781	932.093079
2244.068359	972.680908
2243.087891	893.599609
2242.105469	936.725830
2241.123047	931.482300
2240.140625	954.231201
2239.158203	1007.503052
2238.173828	936.112000
2237.191406	958.848877
2236.208984	968.863525
2235.224609	963.619690
2234.242188	968.545959
2233.257813	942.970276
2232.275391	927.567993
2231.291016	990.937622
2230.306641	957.749329
2229.322266	962.672424
2228.337891	975.212708
2227.353516	901.416016
2226.369141	911.423401
2225.384766	880.813538
2224.398438	918.738464
2223.414063	976.951111
2222.427734	951.419739
2221.443359	971.557373
2220.457031	948.571533
2219.470703	963.631226
2218.484375	981.221436
2217.498047	907.544373
2216.511719	942.880249
2215.525391	965.533569
2214.539063	980.577942
2213.552734	889.215576
2212.566406	947.327881
2211.578125	957.302673
2210.591797	896.374512
2209.603516	850.656616
2208.615234	923.924866
2207.628906	916.180664
2206.640625	883.134277
2205.652344	956.361023
2204.664063	870.196350
2203.675781	950.988831
2202.687500	978.649780
2201.697266	927.921326
2200.708984	958.104858
2199.720703	932.671997
2198.730469	990.643494
2197.742188	904.571899
2196.751953	985.265808
2195.761719	921.956421
2194.771484	944.534607
2193.781250	888.827881
2192.791016	992.193298
2191.800781	933.972717
2190.810547	999.439209
2189.820313	991.704956
2188.830078	963.789124
2187.837891	951.018005
2186.847656	882.763062
2185.855469	885.139954
2184.863281	978.284668
2183.873047	867.202820
2182.880859	970.402039
2181.888672	897.159546
2180.896484	949.925903
2179.904297	841.440796
2178.912109	916.868774
2177.917969	914.199768
2176.925781	878.797119
2175.933594	926.487793
2174.939453	855.853638
2173.947266	843.129150
2172.953125	880.736572
2171.958984	940.975403
2170.964844	928.243103
2169.970703	930.605835
2168.976563	897.761414
2167.982422	988.129700
2166.988281	907.522278
2165.994141	912.400269
2165.000000	907.224243
2164.003906	917.125977
2163.009766	886.828186
2162.013672	951.990601
2161.017578	921.697021
2160.023438	941.633850
2159.027344	916.373108
2158.031250	948.855164
2157.035156	895.993774
2156.039063	933.487244
2155.042969	915.771179
2154.044922	963.283203
2153.048828	882.864502
2152.052734	972.997620
2151.054688	927.706116
2150.058594	879.922607
2149.060547	954.972717
2148.062500	949.803650
2147.064453	884.500305
2146.066406	851.786682
2145.068359	921.782288
2144.070313	939.161865
2143.072266	903.951294
2142.074219	908.809937
2141.074219	883.628601
2140.076172	926.030762
2139.078125	923.376221
2138.078125	930.730347
2137.078125	908.063416
2136.078125	935.426758
2135.080078	912.766418
2134.080078	912.616394
2133.080078	902.466797
2132.080078	909.816956
2131.078125	889.674683
2130.078125	914.515198
2129.078125	951.838806
2128.076172	874.248901
2127.076172	901.577026
2126.074219	878.955505
2125.074219	903.777222
2124.072266	973.522583
2123.070313	978.354126
2122.068359	963.220947
2121.066406	903.183044
2120.064453	900.539917
2119.062500	920.345154
2118.058594	887.775085
2117.056641	877.655701
2116.052734	952.299255
2115.050781	897.307251
2114.046875	899.651794
2113.044922	884.553589
2112.041016	886.899414
2111.037109	846.899475
2110.033203	821.855469
2109.029297	874.011597
2108.025391	913.702271
2107.021484	881.191772
2106.015625	853.669678
2105.011719	893.344055
2104.005859	835.972778
2103.001953	813.446777
2101.996094	902.851990
2100.992188	890.269531
2099.986328	917.473206
2098.980469	875.060791
2097.974609	902.257996
2096.968750	832.525330
2095.962891	859.720520
2094.955078	864.547668
2093.949219	876.825073
2092.943359	864.263184
2091.935547	866.604065
2090.929688	816.807495
2089.921875	893.624023
2088.914063	826.466187
2087.906250	890.848450
2086.900391	865.891174
2085.892578	955.052246
2084.882813	887.928406
2083.875000	815.866943
2082.867188	840.526917
2081.859375	872.615845
2080.849609	845.207458
2079.841797	837.633728
2078.832031	842.451416
2077.824219	829.925781
2076.814453	864.466858
2075.804688	918.809204
2074.794922	886.467773
2073.785156	819.476318
2072.775391	836.668823
2071.765625	888.504883
2070.753906	858.664124
2069.744141	853.574463
2068.734375	949.909058
2067.722656	892.866394
2066.712891	860.571594
2065.701172	801.089844
2064.689453	857.816040
2063.677734	823.071167
2062.666016	830.349426
2061.654297	896.926208
2060.642578	889.367065
2059.630859	834.879333
2058.619141	861.907959
2057.605469	842.012024
2056.593750	849.279846
2055.580078	856.545227
2054.568359	888.488403
2053.554688	838.989685
2052.541016	870.925232
2051.527344	806.644836
2050.513672	919.966187
2049.500000	786.651123
2048.486328	850.626709
2047.472656	921.976685
2046.457031	852.811157
2045.443359	845.277527
2044.429688	837.746338
2043.414063	842.535400
2042.398438	798.059875
2041.384766	810.242065
2040.369141	881.516296
2039.353516	807.513062
2038.337891	831.995239
2037.322266	858.930420
2036.306641	846.485229
2035.289063	831.583862
2034.273438	814.227478
2033.257813	804.255249
2032.240234	850.845398
2031.222656	816.283569
2030.207031	907.105347
2029.189453	811.098694
2028.171875	820.794800
2027.154297	862.429565
2026.136719	847.547424
2025.119141	805.651367
2024.101563	815.341919
2023.082031	820.118347
2022.064453	819.983093
2021.046875	834.575684
2020.027344	856.526123
2019.007813	831.846619
2017.990234	821.895752
2016.970703	836.478333
2015.951172	752.951599
2014.931641	858.272278
2013.912109	865.486084
2012.892578	813.864014
2011.873047	784.317810
2010.851563	850.354370
2009.832031	842.863525
2008.810547	857.423157
2007.791016	788.699158
2006.769531	827.752625
2005.748047	864.344543
2004.728516	802.997864
2003.707031	822.447449
2002.685547	863.916809
2001.662109	841.751709
2000.640625	912.562683
1999.619141	775.427979
1998.597656	802.203186
1997.574219	772.726746
1996.552734	828.832703
1995.529297	772.471741
1994.505859	809.006165
1993.484375	803.985168
1992.460938	759.872742
1991.437500	764.633118
1990.414063	828.012268
1989.390625	786.359741
1988.365234	754.487732
1987.341797	803.189270
1986.318359	810.379395
1985.292969	807.805115
1984.269531	771.070313
1983.244141	822.176575
1982.218750	775.694336
1981.193359	812.149536
1980.167969	814.453918
1979.142578	777.748230
1978.117188	823.935730
1977.091797	777.491394
1976.066406	791.984253
1975.041016	791.853516
1974.013672	764.925964
1972.988281	806.205994
1971.960938	752.497009
1970.933594	776.721375
1969.906250	764.420776
1968.880859	725.349548
1967.853516	800.673096
1966.826172	744.575989
1965.796875	785.811523
1964.769531	780.816833
1963.742188	761.231445
1962.714844	795.148743
1961.685547	802.311096
1960.658203	751.130859
1959.628906	789.893799
1958.599609	753.312683
1957.570313	794.492126
1956.541016	787.073120
1955.511719	748.081665
1954.482422	757.671814
1953.453125	793.967102
1952.423828	752.566162
1951.394531	820.404297
1950.363281	762.024780
1949.333984	764.325256
1948.302734	735.086609
1947.271484	766.498291
1946.240234	725.142761
1945.210938	768.669739
1944.179688	744.298462
1943.148438	717.511169
1942.115234	741.628784
1941.083984	797.240295
1940.052734	775.303101
1939.021484	763.062866
1937.988281	772.624756
1936.955078	789.448364
1935.923828	740.893433
1934.890625	767.399963
1933.857422	803.579407
1932.824219	740.526001
1931.791016	764.599792
1930.757813	769.311768
1929.724609	793.372742
1928.691406	737.617920
1927.656250	812.454529
1926.623047	785.726318
1925.587891	771.093079
1924.554688	773.382385
1923.519531	773.254456
1922.484375	833.527100
1921.449219	799.570496
1920.414063	782.531738
1919.378906	736.520630
1918.343750	705.011353
1917.308594	806.283691
1916.273438	796.495789
1915.236328	767.405334
1914.201172	798.645081
1913.164063	730.965027
1912.126953	774.260559
1911.091797	740.369690
1910.054688	788.471741
1909.017578	754.589661
1907.980469	790.621277
1906.943359	749.519897
1905.906250	771.082520
1904.867188	770.954956
1903.830078	770.827332
1902.791016	816.460083
1901.753906	753.715942
1900.714844	794.521057
1899.677734	782.353394
1898.638672	779.817017
1897.599609	745.997742
1896.560547	839.710022
1895.521484	772.212891
1894.482422	764.869324
1893.441406	740.694214
1892.402344	786.256165
1891.363281	819.782776
1890.322266	812.436096
1889.281250	781.059204
1888.242188	773.721313
1887.201172	747.166077
1886.160156	751.846497
1885.119141	689.278625
1884.078125	792.419067
1883.037109	773.080872
1881.996094	741.746704
1880.953125	732.023560
1879.912109	775.096558
1878.869141	750.975342
1877.828125	734.058777
1876.785156	815.485779
1875.742188	767.388855
1874.701172	740.887146
1873.658203	740.764404
1872.615234	716.672729
1871.572266	726.140015
1870.527344	759.565186
1869.484375	733.086548
1868.441406	725.779175
1867.396484	737.633484
1866.353516	778.218079
1865.308594	699.083130
1864.263672	742.054321
1863.218750	684.491516
1862.175781	734.629639
1861.130859	705.797485
1860.083984	806.150269
1859.039063	731.872742
1857.994141	693.489929
1856.949219	705.329712
1855.902344	721.946655
1854.857422	678.804199
1853.810547	714.538086
1852.763672	750.260132
1851.718750	697.578491
1850.671875	675.965698
1849.625000	685.406311
1848.578125	780.803894
1847.529297	661.305237
1846.482422	687.452454
1845.435547	727.910583
1844.388672	751.651855
1843.339844	770.613647
1842.291016	701.309082
1841.244141	708.347839
1840.195313	770.230347
1839.146484	739.107788
1838.097656	703.227844
1837.048828	676.893555
1836.000000	674.398254
1834.951172	631.398926
1833.900391	695.614746
1832.851563	712.172302
1831.802734	678.713806
1830.751953	638.123291
1829.701172	668.966064
1828.652344	730.742004
1827.601563	730.620789
1826.550781	737.638000
1825.500000	725.620239
1824.449219	720.742493
1823.396484	725.379517
1822.345703	706.235962
1821.294922	710.873779
1820.242188	694.116028
1819.191406	684.494019
1818.138672	736.659485
1817.085938	700.898376
1816.035156	665.149048
1814.982422	691.165161
1813.929688	674.427246
1812.875000	733.674072
1811.822266	690.821106
1810.769531	702.574280
1809.716797	742.801514
1808.662109	716.577698
1807.609375	687.990173
1806.554688	676.016052
1805.500000	749.423218
1804.447266	725.586792
1803.392578	692.275085
1802.337891	692.160156
1801.283203	675.455078
1800.226563	684.821472
1799.171875	701.292358
1798.117188	684.594055
1797.060547	689.217285
1796.005859	696.206970
1794.949219	665.311829
1793.892578	688.873962
1792.837891	719.528870
1791.781250	700.477539
1790.724609	693.263000
1789.667969	742.827393
1788.611328	676.475586
1787.552734	666.903625
1786.496094	711.718628
1785.439453	697.415649
1784.380859	647.661499
1783.322266	685.367310
1782.265625	680.527527
1781.207031	718.215271
1780.148438	687.387939
1779.089844	701.444336
1778.031250	668.268555
1776.972656	703.572205
1775.914063	672.767639
1774.853516	708.058838
1773.794922	677.263733
1772.734375	717.261169
1771.675781	681.756653
1770.615234	653.339844
1769.554688	650.873047
1768.494141	712.068787
1767.435547	693.090820
1766.373047	674.119141
1765.312500	730.567139
1764.251953	676.251343
1763.191406	718.544861
1762.128906	678.382019
1761.068359	692.399841
1760.005859	645.190552
1758.945313	682.752380
1757.882813	760.318481
1756.820313	699.000122
1755.757813	675.352478
1754.695313	665.829163
1753.632813	731.584595
1752.570313	689.127441
1751.505859	703.122314
1750.443359	681.844727
1749.378906	698.186890
1748.316406	648.712219
1747.251953	658.004395
1746.187500	627.349854
1745.125000	653.087097
1744.060547	652.978455
1742.996094	685.748169
1741.929688	680.937988
1740.865234	676.129395
1739.800781	659.585938
1738.734375	715.801575
1737.669922	621.822510
1736.603516	734.332336
1735.539063	734.210144
1734.472656	649.656128
1733.406250	635.478394
1732.339844	693.986389
1731.273438	665.741028
1730.207031	686.724121
1729.140625	740.507568
1728.072266	674.780640
1727.005859	660.612793
1725.939453	611.316467
1724.871094	686.152893
1723.802734	683.697266
1722.736328	688.265564
1721.667969	685.810364
1720.599609	634.210449
1719.531250	669.202942
1718.462891	643.357239
1717.392578	668.980164
1716.324219	661.852722
1715.255859	682.787354
1714.185547	661.632324
1713.117188	612.433960
1712.046875	673.097778
1710.976563	661.301880
1709.906250	665.864502
1708.835938	614.362122
1707.765625	642.286865
1706.695313	663.196716
1705.625000	632.733765
1704.554688	632.628357
1703.482422	676.869629
1702.412109	639.418579
1701.339844	629.979065
1700.267578	625.208374
1699.197266	662.423889
1698.125000	655.317322
1697.052734	620.232605
1695.980469	634.117188
1694.908203	694.615601
1693.833984	596.617310
1692.761719	675.742981
1691.689453	687.279175
1690.615234	621.942261
1689.542969	666.089294
1688.468750	649.678162
1687.394531	656.554504
1686.320313	616.872192
1685.246094	623.751709
1684.171875	660.880432
1683.097656	663.096924
1682.023438	681.596558
1680.947266	581.470093
1679.873047	665.090942
1678.798828	634.753723
1677.722656	657.895081
1676.646484	646.163757
1675.570313	685.563110
1674.496094	615.742126
1673.419922	636.547974
1672.343750	599.277405
1671.265625	620.079041
1670.189453	626.941650
1669.113281	652.374939
1668.035156	691.727112
1666.958984	691.611755
1665.880859	665.971375
1664.804688	631.059265
1663.726563	633.273743
1662.648438	642.445313
1661.570313	621.467957
1660.492188	702.512634
1659.414063	707.031738
1658.333984	653.605591
1657.255859	628.005554
1656.177734	674.240356
1655.097656	674.127869
1654.017578	630.007507
1652.939453	673.902954
1651.859375	620.535645
1650.779297	657.472839
1649.699219	648.104492
1648.619141	666.510559
1647.539063	671.027100
1646.457031	691.736633
1645.376953	638.419617
1644.296875	673.003967
1643.214844	693.702759
1642.132813	651.971802
1641.052734	674.978699
1639.970703	688.733154
1638.888672	681.685791
1637.806641	633.053345
1636.724609	674.528198
1635.642578	637.461304
1634.558594	630.427124
1633.476563	648.792847
1632.392578	697.162781
1631.310547	692.430176
1630.226563	657.698853
1629.142578	687.584351
1628.060547	664.400085
1626.976563	680.435059
1625.892578	684.933838
1624.806641	684.819458
1623.722656	726.202393
1622.638672	638.490356
1621.554688	615.337402
1620.468750	668.232361
1619.382813	693.463318
1618.298828	638.063965
1617.212891	637.957397
1616.126953	665.483398
1615.041016	630.837341
1613.955078	621.524170
1612.869141	603.007935
1611.783203	607.509521
1610.695313	639.619080
1609.609375	634.911438
1608.521484	621.005249
1607.435547	614.002563
1606.347656	636.892517
1605.259766	600.004211
1604.171875	613.694885
1603.085938	661.852356
1601.996094	569.833191
1600.908203	663.928528
1599.820313	631.660339
1598.732422	571.844116
1597.642578	587.821838
1596.554688	642.822693
1595.464844	617.465698
1594.375000	587.527161
1593.285156	598.902161
1592.197266	578.153687
1591.107422	589.526428
1590.015625	594.014893
1588.925781	568.691345
1587.835938	584.645386
1586.746094	582.255310
1585.654297	598.201660
1584.564453	625.600586
1583.472656	572.798523
1582.380859	577.284363
1581.289063	556.573975
1580.197266	590.831543
1579.105469	595.312073
1578.013672	570.030457
1576.921875	620.290833
1575.830078	576.705383
1574.736328	560.591980
1573.644531	635.993896
1572.550781	610.726501
1571.457031	590.041504
1570.365234	571.650024
1569.271484	612.706299
1568.177734	537.171265
1567.083984	617.072205
1565.990234	573.552673
1564.894531	591.734192
1563.800781	609.909668
1562.707031	564.129089
1561.611328	554.900574
1560.515625	545.675049
1559.421875	625.480957
1558.326172	655.047424
1557.230469	670.911926
1556.134766	602.350708
1555.039063	659.281128
1553.943359	622.676880
1552.845703	665.901917
1551.750000	606.507751
1550.654297	610.965637
1549.556641	597.187317
1548.458984	613.040100
1547.363281	590.151672
1546.265625	619.669434
1545.167969	603.620972
1544.070313	649.068604
1542.972656	594.310669
1541.873047	601.041199
1540.775391	589.559082
1539.677734	634.978577
1538.578125	596.188232
1537.480469	543.760071
1536.380859	607.362427
1535.281250	602.711914
1534.181641	557.130920
1533.082031	547.943115
1531.982422	520.572449
1530.882813	584.125366
1529.783203	588.572449
1528.681641	568.024963
1527.582031	608.820801
1526.480469	579.191406
1525.380859	579.094360
1524.279297	569.915039
1523.177734	585.710938
1522.076172	587.882629
1520.974609	574.167480
1519.873047	574.071289
1518.771484	553.557007
1517.669922	596.561890
1516.566406	585.122314
1515.464844	600.897034
1514.361328	578.124756
1513.257813	589.361755
1512.156250	537.135864
1511.052734	566.504028
1509.949219	559.612183
1508.845703	570.844666
1507.742188	550.365051
1506.636719	566.124329
1505.533203	584.142334
1504.429688	611.209290
1503.324219	534.152588
1502.218750	574.796692
1501.115234	547.549133
1500.009766	547.457275
1498.904297	547.365479
1497.798828	524.659119
1496.693359	542.659790
1495.587891	544.829468
1494.480469	562.820740
1493.375000	555.946472
1492.269531	605.563721
1491.162109	526.390564
1490.054688	566.960876
1488.949219	542.023010
1487.841797	512.577454
1486.734375	580.221619
1485.626953	532.721130
1484.519531	577.770081
1483.410156	498.694366
1482.302734	541.477722
1481.195313	593.269775
1480.085938	568.360840
1478.976563	559.245361
1477.869141	559.151550
1476.759766	507.209595
1475.650391	498.108948
1474.541016	538.588501
1473.431641	585.813843
1472.322266	522.638489
1471.210938	522.550781
1470.101563	538.227051
1468.990234	499.859192
1467.880859	553.805054
1466.769531	560.464661
1465.658203	504.108490
1464.548828	515.274414
1463.437500	546.684082
1462.326172	497.106598
1461.212891	604.973877
1460.101563	517.177063
1458.990234	532.827759
1457.876953	584.438599
1456.765625	541.638672
1455.652344	532.559387
1454.541016	525.729797
1453.427734	557.090149
1452.314453	505.339661
1451.201172	496.272491
1450.087891	527.621948
1448.972656	532.022949
1447.859375	540.911377
1446.746094	558.773071
1445.630859	509.317993
1444.517578	482.312653
1443.402344	529.333313
1442.287109	518.031616
1441.171875	533.639893
1440.056641	576.144531
1438.941406	499.839111
1437.826172	546.817261
1436.710938	526.559265
1435.595703	539.912598
1434.478516	537.581970
1433.363281	555.408020
1432.246094	532.922913
1431.128906	521.639404
1430.011719	517.074890
1428.894531	599.795593
1427.777344	563.892090
1426.660156	534.712524
1425.542969	536.859558
1424.425781	527.823181
1423.306641	534.442932
1422.189453	514.231018
1421.070313	572.265198
1419.953125	531.938354
1418.833984	610.062012
1417.714844	560.805237
1416.595703	533.903992
1415.476563	536.047791
1414.357422	529.258179
1413.236328	596.152588
1412.117188	538.009766
1410.998047	555.775574
1409.876953	519.975586
1408.755859	522.119446
1407.636719	535.417053
1406.515625	488.485870
1405.394531	506.244934
1404.273438	523.997986
1403.152344	528.368652
1402.029297	597.379639
1400.908203	519.276306
1399.787109	532.558594
1398.664063	523.557373
1397.541016	539.062012
1396.419922	527.835510
1395.296875	503.252136
1394.173828	545.469116
1393.050781	534.247192
1391.927734	494.095490
1390.804688	529.616821
1389.679688	536.202393
1388.556641	524.989502
1387.431641	493.762939
1386.308594	527.036560
1385.183594	493.596741
1384.058594	531.305237
1382.933594	506.766541
1381.808594	522.237244
1380.683594	522.149292
1379.558594	504.289093
1378.433594	528.637024
1377.308594	506.340088
1376.181641	486.271088
1375.054688	512.829712
1373.929688	490.546661
1372.802734	488.244781
1371.675781	503.695007
1370.548828	512.484375
1369.421875	481.343628
1368.294922	470.173553
1367.167969	521.095154
1366.039063	467.798126
1364.912109	560.819885
1363.783203	480.938385
1362.656250	522.960083
1361.527344	549.458679
1360.398438	460.758698
1359.269531	522.695801
1358.140625	500.463348
1357.011719	500.379028
1355.882813	535.713806
1354.753906	491.357147
1353.623047	537.746277
1352.494141	493.404144
1351.363281	513.230774
1350.232422	541.898071
1349.103516	459.982880
1347.972656	512.971375
1346.841797	504.042053
1345.710938	473.012360
1344.578125	497.242249
1343.447266	481.691284
1342.316406	536.840576
1341.183594	483.737732
1340.052734	516.783325
1338.919922	523.320496
1337.787109	461.415802
1336.654297	481.204254
1335.521484	489.951050
1334.388672	487.661804
1333.255859	511.848267
1332.123047	513.967834
1330.988281	458.743683
1329.855469	465.281677
1328.720703	451.974701
1327.587891	487.168579
1326.453125	520.146606
1325.318359	487.004272
1324.183594	493.531921
1323.048828	444.984955
1321.914063	515.390686
1320.779297	515.303711
1319.642578	468.979370
1318.507813	438.080536
1317.371094	464.419067
1316.236328	477.544708
1315.099609	453.260895
1313.962891	464.184021
1312.826172	481.702118
1311.689453	516.807739
1310.552734	516.720520
1309.416016	483.656708
1308.279297	463.792480
1307.140625	470.307281
1306.003906	474.622559
1304.865234	461.360718
1303.726563	448.103333
1302.587891	520.502747
1301.451172	465.518799
1300.310547	487.394928
1299.171875	515.848999
1298.033203	485.035645
1296.894531	484.953766
1295.753906	458.544006
1294.615234	506.726196
1293.474609	504.447388
1292.335938	442.961578
1291.195313	508.662048
1290.054688	458.156952
1288.914063	497.531403
1287.773438	431.705444
1286.632813	416.295319
1285.490234	464.419495
1284.349609	481.863342
1283.207031	455.502930
1282.066406	440.099152
1280.923828	435.646454
1279.781250	457.460938
1278.638672	466.137421
1277.496094	431.049561
1276.353516	481.293793
1275.210938	498.711121
1274.068359	452.700684
1272.923828	437.318054
1271.781250	465.665039
1270.636719	496.188263
1269.494141	461.136688
1268.349609	456.688538
1267.205078	426.024933
1266.060547	439.059174
1264.916016	495.769073
1263.771484	491.318024
1262.626953	471.585571
1261.480469	456.225555
1260.335938	458.330963
1259.189453	488.803711
1258.042969	490.902863
1256.898438	464.642792
1255.751953	449.296875
1254.605469	486.292511
1253.458984	451.325256
1252.312500	529.726990
1251.164063	483.866302
1250.017578	459.813171
1248.869141	464.093079
1247.722656	459.657654
1246.574219	507.498169
1245.425781	474.746307
1244.279297	485.552856
1243.130859	422.337738
1241.982422	500.625000
1240.832031	517.950378
1239.683594	552.677063
1238.535156	465.562531
1237.384766	485.060211
1236.236328	467.579803
1235.085938	441.407623
1233.935547	454.377258
1232.785156	471.689850
1231.636719	528.116333
1230.484375	517.162170
1229.333984	451.897186
1228.183594	536.537109
1227.033203	469.119019
1225.880859	508.126251
1224.730469	477.644684
1223.578125	514.466492
1222.425781	475.312592
1221.273438	481.742157
1220.121094	507.696320
1218.968750	511.948914
1217.816406	440.288269
1216.664063	490.090179
1215.511719	546.379700
1214.357422	528.944702
1213.205078	526.687744
1212.050781	520.097290
1210.896484	513.509155
1209.742188	467.929047
1208.587891	539.326843
1207.433594	530.573120
1206.279297	536.978943
1205.125000	515.239258
1203.968750	569.264587
1202.814453	480.438538
1201.658203	527.960144
1200.503906	581.955811
1199.347656	540.759460
1198.191406	575.270630
1197.035156	564.361633
1195.878906	555.618225
1194.722656	605.240234
1193.566406	579.203247
1192.408203	561.818359
1191.251953	553.081238
1190.093750	594.029541
1188.937500	609.047058
1187.779297	591.668823
1186.621094	561.342407
1185.462891	554.771362
1184.304688	634.533569
1183.146484	576.162415
1181.988281	604.112854
1180.828125	586.752991
1179.669922	642.730713
1178.509766	584.397583
1177.351563	560.581604
1176.191406	569.109436
1175.031250	655.226990
1173.871094	577.536377
1172.710938	637.767822
1171.550781	635.505432
1170.388672	611.704834
1169.228516	618.061707
1168.068359	628.722656
1166.906250	615.699280
1165.744141	641.424011
1164.583984	682.204407
1163.421875	688.543762
1162.259766	664.762329
1161.097656	677.555359
1159.933594	640.880127
1158.771484	688.076660
1157.609375	696.559448
1156.445313	698.590759
1155.283203	717.814514
1154.119141	721.990295
1152.955078	713.274109
1151.791016	691.672546
1150.626953	693.702820
1149.462891	704.321716
1148.298828	684.879578
1147.134766	768.480469
1145.968750	759.765137
1144.804688	755.344421
1143.638672	731.615662
1142.474609	763.668518
1141.308594	765.683655
1140.142578	754.831665
1138.976563	853.329529
1137.810547	825.316772
1136.644531	801.600159
1135.476563	795.035217
1134.310547	803.470581
1133.142578	839.751953
1131.976563	835.325623
1130.808594	828.759277
1129.640625	845.747559
1128.472656	884.137756
1127.304688	875.425964
1126.136719	883.837463
1124.968750	885.827026
1123.800781	947.716675
1122.630859	891.942932
1121.462891	919.593079
1120.292969	960.063110
1119.123047	919.280640
1117.953125	974.699402
1116.785156	1015.139343
1115.613281	929.495972
1114.443359	974.202637
1113.273438	976.173096
1112.103516	958.921753
1110.931641	1027.089111
1109.761719	1103.772949
1108.589844	1086.508545
1107.417969	1067.115845
1106.248047	1101.076416
1105.076172	1169.161377
1103.904297	1055.906006
1102.730469	1109.046021
1101.558594	1160.035522
1100.386719	1206.743530
1099.212891	1191.616577
1098.041016	1246.828613
1096.867188	1284.973999
1095.693359	1271.971802
1094.519531	1271.755615
1093.345703	1326.916260
1092.171875	1288.359253
1090.998047	1271.106812
1089.824219	1381.588013
1088.650391	1379.224609
1087.474609	1436.447876
1086.298828	1408.543335
1085.125000	1393.412354
1083.949219	1395.302246
1082.773438	1520.535767
1081.597656	1486.256836
1080.421875	1524.270142
1079.246094	1560.145020
1078.070313	1613.008911
1076.892578	1531.991577
1075.716797	1646.451294
1074.539063	1624.930298
1073.361328	1590.674072
1072.183594	1588.279907
1071.007813	1721.759155
1069.830078	1666.277344
1068.650391	1680.849731
1067.472656	1750.587036
1066.294922	1661.183472
1065.115234	1718.173096
1063.937500	1745.451538
1062.757813	1779.082031
1061.578125	1666.412964
1060.400391	1865.386353
1059.220703	1735.785645
1058.041016	1763.037476
1056.861328	1775.449341
1055.679688	1768.792114
1054.500000	1730.367798
1053.318359	1639.016602
1052.138672	1725.543945
1050.957031	1812.041870
1049.775391	1815.966187
1048.595703	1802.959961
1047.414063	1838.621338
1046.232422	1755.806396
1045.048828	1833.764893
1043.867188	1742.520020
1042.685547	1767.595337
1041.501953	1813.801880
1040.320313	1777.561157
1039.136719	1870.242188
1037.953125	1810.762085
1036.769531	1768.202515
1035.585938	1759.452515
1034.402344	1820.395630
1033.218750	1758.852783
1032.035156	1775.441895
1030.849609	1804.689819
1029.666016	1764.284912
1028.480469	1804.074707
1027.294922	1687.735352
1026.109375	1754.945557
1024.923828	1733.556885
1023.738281	1722.718384
1022.552734	1732.965942
1021.367188	1732.670410
1020.181641	1713.407349
1018.994141	1645.686401
1017.808594	1689.648438
1016.621094	1691.466675
1015.433594	1693.284302
1014.246094	1733.004150
1013.058594	1661.126465
1011.871094	1686.103149
1010.683594	1620.571777
1009.496094	1647.651001
1008.306641	1691.552368
1007.119141	1651.296143
1005.929688	1606.847168
1004.742188	1621.292969
1003.552734	1589.479004
1002.363281	1629.148315
1001.173828	1599.445557
999.984375	1483.595093
998.794922	1563.181885
997.603516	1581.821411
996.414063	1539.544800
995.222656	1486.782715
994.033203	1530.620972
992.841797	1519.863403
991.650391	1521.702881
990.458984	1531.935913
989.267578	1460.336182
988.076172	1531.412964
986.884766	1399.011108
985.691406	1402.966431
984.500000	1497.080811
983.306641	1427.644165
982.115234	1408.536133
980.921875	1437.635132
979.728516	1479.296021
978.535156	1437.144165
977.341797	1447.371826
976.148438	1426.182129
974.953125	1467.816406
973.759766	1419.414551
972.564453	1427.544800
971.371094	1374.980591
970.175781	1378.930542
968.980469	1410.076538
967.785156	1361.725586
966.589844	1351.036011
965.394531	1375.897583
964.199219	1344.302368
963.003906	1295.995483
961.806641	1331.303345
960.611328	1410.480713
959.414063	1305.777466
958.216797	1341.065430
957.019531	1294.888672
955.822266	1344.783447
954.625000	1311.148560
953.427734	1329.711670
952.230469	1383.749023
951.031250	1306.302979
949.833984	1402.053589
948.634766	1324.630615
947.437500	1316.061523
946.238281	1290.812744
945.039063	1267.657471
943.839844	1265.356079
942.640625	1315.161743
941.439453	1333.691895
940.240234	1266.790649
939.041016	1281.156372
937.839844	1268.440308
936.638672	1203.666870
935.439453	1247.185303
934.238281	1271.953125
933.037109	1325.851929
931.835938	1194.519409
930.634766	1248.412964
929.431641	1252.360107
928.230469	1272.945557
927.027344	1154.189453
925.826172	1251.717407
924.623047	1291.002563
923.419922	1215.953735
922.216797	1215.745728
921.013672	1223.848999
919.810547	1217.407227
918.607422	1231.738770
917.404297	1233.604736
916.199219	1142.031128
914.996094	1179.204834
913.791016	1162.397339
912.585938	1176.725830
911.380859	1166.149414
910.175781	1186.696289
908.970703	1201.013184
907.765625	1180.068237
906.560547	1130.100220
905.353516	1208.689331
904.148438	1138.004761
902.941406	1133.664917
901.736328	1083.739014
900.529297	1151.922974
899.322266	1180.725952
898.115234	1114.248779
896.908203	1143.048218
895.699219	1120.078247
894.492188	1111.606323
893.285156	1086.579834
892.076172	1107.086914
890.867188	1108.966187
889.660156	1146.011230
888.451172	1129.268921
887.242188	1098.056885
886.033203	1120.611816
884.824219	1122.486938
883.613281	1074.757324
882.404297	1167.565063
881.193359	1097.116455
879.984375	1117.586182
878.773438	1071.955322
877.562500	1077.966797
876.351563	1121.141113
875.140625	1104.434082
873.929688	1106.308838
872.718750	1108.182861
871.505859	1112.119385
870.294922	1107.802856
869.082031	1142.677124
867.871094	1109.485352
866.658203	1078.366821
865.445313	1088.489624
864.232422	1143.954834
863.019531	1114.907104
861.806641	1087.929688
860.591797	1091.863403
859.378906	1048.421021
858.164063	1054.419434
856.951172	1068.652100
855.736328	1051.999146
854.521484	1107.394165
853.306641	1022.826233
852.091797	1074.091919
850.876953	1026.589966
849.662109	1038.755493
848.445313	1081.765625
847.230469	1073.355103
846.013672	1029.997314
844.796875	1003.098755
843.582031	1060.471558
842.365234	1054.125122
841.148438	1066.270996
839.929688	1078.412842
838.712891	1006.345825
837.496094	1032.867554
836.277344	1040.902466
835.060547	1059.198242
833.841797	1003.602722
832.623047	1023.950500
831.404297	978.638367
830.185547	972.316467
828.966797	1062.391235
827.748047	1008.893311
826.529297	1023.071838
825.308594	1026.995972
824.089844	1020.670959
822.869141	995.905396
821.650391	1026.466919
820.429688	966.884583
819.208984	999.488647
817.988281	999.317017
816.765625	1013.477356
815.544922	1005.114929
814.324219	1017.222656
813.101563	1004.769653
811.880859	996.412964
810.658203	1073.977295
809.435547	1006.297180
808.212891	1085.878052
806.990234	1048.888428
805.767578	1032.354004
804.544922	1062.835327
803.320313	1079.001221
802.097656	1037.951538
800.873047	990.787354
799.650391	1076.402466
798.425781	1014.952698
797.201172	1096.450562
795.976563	1073.806030
794.751953	1102.196899
793.527344	1087.722168
792.300781	1071.211914
791.076172	1109.788696
789.849609	1048.406860
788.625000	1080.856201
787.398438	1125.528442
786.171875	1076.407227
784.945313	1116.988159
783.718750	1059.733521
782.492188	1065.664063
781.265625	1041.033813
780.037109	1067.334351
778.810547	1052.894897
777.582031	1119.908325
776.353516	1107.500610
775.125000	1074.742188
773.898438	1123.400757
772.667969	1096.755127
771.439453	1139.289795
770.210938	1080.104980
768.982422	1161.269043
767.751953	1154.968994
766.523438	1132.406738
765.292969	1077.329102
764.062500	1075.111328
762.832031	1125.726196
761.601563	1095.057739
760.371094	1123.307373
759.140625	1110.928345
757.908203	1122.920776
756.677734	1086.182983
755.445313	1120.504272
754.214844	1142.636353
752.982422	1132.293701
751.750000	1158.473755
750.517578	1204.929810
749.285156	1164.159302
748.052734	1153.819824
746.818359	1222.554565
745.585938	1216.262695
744.351563	1232.267334
743.119141	1161.130859
741.884766	1185.243530
740.650391	1183.013672
739.416016	1267.875000
738.181641	1215.006348
736.947266	1204.673706
735.710938	1293.535889
734.476563	1273.073364
733.240234	1333.562500
732.005859	1323.216431
730.769531	1203.636230
729.533203	1310.625000
728.296875	1286.132568
727.060547	1340.501465
725.824219	1271.538574
724.587891	1329.933594
723.349609	1329.704346
722.113281	1299.167969
720.875000	1353.487549
719.636719	1363.353149
718.400391	1300.515625
717.162109	1306.348755
715.923828	1316.217163
714.683594	1406.817749
713.445313	1370.250488
712.207031	1499.146606
710.966797	1357.673950
709.728516	1399.796753
708.488281	1468.121460
707.248047	1447.705200
706.007813	1491.806519
704.767578	1467.361938
703.527344	1483.230957
702.287109	1519.243530
701.044922	1428.326050
699.804688	1462.321411
698.562500	1488.249390
697.320313	1479.938599
696.080078	1521.959839
694.837891	1549.876831
693.595703	1531.497070
692.353516	1561.414795
691.109375	1579.251465
689.867188	1554.841675
688.625000	1562.617676
687.380859	1614.627319
686.136719	1598.265503
684.892578	1626.130371
683.650391	1557.519775
682.406250	1651.690674
681.160156	1599.171265
679.916016	1612.955811
678.671875	1636.777222
677.425781	1654.566284
676.181641	1640.227295
674.935547	1718.227783
673.689453	1669.764771
672.443359	1709.608154
671.197266	1747.431396
669.951172	1799.282715
668.705078	1686.661621
667.458984	1770.588501
666.210938	1744.219604
664.964844	1759.954346
663.716797	1753.637939
662.468750	1773.373047
661.220703	1773.066772
659.972656	1806.813477
658.724609	1812.509644
657.476563	1842.232788
656.228516	1813.885376
654.978516	1859.611816
653.730469	1835.273804
652.480469	1798.937988
651.230469	1844.643066
649.980469	1812.318604
648.730469	1830.005493
647.480469	1869.682373
646.230469	1773.392090
644.980469	1865.038086
643.728516	1846.728149
642.478516	1880.379639
641.226563	1864.071045
639.974609	1841.775269
638.722656	1831.470703
637.470703	1938.986450
636.218750	1878.754639
634.966797	1872.441040
633.714844	1900.059326
632.460938	1859.820435
631.208984	1947.286255
629.955078	1893.089233
628.701172	1783.065308
627.447266	1868.504761
626.193359	1862.200195
624.939453	1806.061523
623.685547	1849.597290
622.431641	1875.183228
621.175781	1850.949829
619.921875	1820.748535
618.666016	1858.276245
617.410156	1933.627075
616.154297	1879.534546
614.898438	1901.106812
613.642578	1849.028931
612.386719	1952.188843
611.130859	1931.954468
609.873047	1860.004883
608.617188	1941.230469
607.359375	1917.031006
606.101563	2000.206787
604.845703	1958.114014
603.587891	1947.837036
602.328125	2056.798340
601.070313	2042.533813
599.812500	2014.368408
598.552734	1960.391846
597.294922	1997.783813
596.035156	2011.336548
594.775391	2020.914185
593.517578	2064.230469
592.257813	2077.764404
590.996094	2045.658203
589.736328	2019.514404
588.476563	2070.734619
587.214844	2102.105713
585.955078	2103.724365
584.693359	2097.412598
583.431641	2118.852295
582.169922	2112.539795
580.908203	2082.452881
579.646484	2105.864746
578.384766	2151.056152
577.123047	2158.604980
575.859375	2191.891357
574.597656	2108.364502
573.333984	2177.276123
572.070313	2123.465820
570.806641	2190.372070
569.542969	2186.035645
568.279297	2221.260254
567.015625	2149.680664
565.751953	2157.217041
564.486328	2180.566162
563.222656	2140.656250
561.957031	2254.907959
560.691406	2159.673096
559.425781	2327.221924
558.160156	2176.701172
556.894531	2292.841797
555.628906	2247.029785
554.361328	2254.536865
553.095703	2311.387695
551.828125	2330.721924
550.562500	2288.880859
549.294922	2377.261230
548.027344	2317.674072
546.759766	2342.909912
545.492188	2379.967773
544.222656	2365.754639
542.955078	2288.470459
541.687500	2382.670654
540.417969	2429.547607
539.148438	2421.245605
537.878906	2430.674072
536.611328	2404.649902
535.339844	2461.335449
534.070313	2486.501709
532.800781	2501.817139
531.531250	2536.807617
530.259766	2559.979736
528.988281	2551.665771
527.718750	2610.233398
526.447266	2645.180420
525.175781	2615.226074
523.904297	2516.472168
522.632813	2614.317871
521.359375	2712.129395
520.087891	2731.308105
518.814453	2701.364258
517.542969	2736.252441
516.269531	2674.894775
514.996094	2884.535889
513.722656	2829.063477
512.449219	2883.533691
511.175781	2830.043213
509.902344	2890.380859
508.626953	2907.535889
507.353516	3065.916992
506.078125	2920.254150
504.802734	2992.299072
503.527344	2934.923584
502.251953	3071.627197
500.976563	3018.177246
499.701172	2980.421875
498.425781	3062.189209
497.148438	2987.221436
495.873047	3000.411621
494.595703	3037.094971
493.318359	3030.693359
492.041016	3135.870117
490.763672	3051.168213
489.486328	2962.582031
488.208984	3071.628174
486.931641	3145.426270
485.652344	3035.356201
484.375000	3044.605469
483.095703	2942.411377
481.816406	2963.401855
480.537109	3035.199707
479.257813	3003.406494
477.978516	2985.300537
476.699219	2953.527100
475.417969	3001.839600
474.138672	2999.364502
472.857422	2981.271484
471.576172	3000.272949
470.296875	2898.262939
469.015625	2889.953369
467.734375	2871.891357
466.451172	2910.405029
465.169922	2865.040771
463.888672	2868.442139
462.605469	2840.647705
461.322266	2779.724609
460.041016	2814.322266
458.757813	2835.267578
457.474609	2793.859619
456.191406	2783.633545
454.908203	2781.201172
453.623047	2755.402344
452.339844	2801.649170
451.054688	2801.161377
449.771484	2794.834961
448.486328	2772.943115
447.201172	2727.711670
445.916016	2771.977295
444.630859	2715.092285
443.343750	2681.561523
442.058594	2723.867676
440.773438	2735.056641
439.486328	2705.426758
438.199219	2786.570557
436.914063	2758.884766
435.626953	2665.162354
434.339844	2781.229980
433.050781	2815.698975
431.763672	2712.307617
430.476563	2740.952637
429.187500	2686.131348
427.900391	2732.235352
426.611328	2749.220703
425.322266	2653.689941
424.033203	2744.383545
422.744141	2664.399902
421.455078	2691.078857
420.164063	2620.824463
418.875000	2684.326172
417.583984	2652.853271
416.294922	2714.389648
415.003906	2646.116943
413.712891	2678.581055
412.421875	2709.097168
411.130859	2664.094238
409.839844	2673.308350
408.546875	2696.067627
407.255859	2589.166748
405.962891	2646.758057
404.671875	2646.296387
403.378906	2572.339355
402.085938	2604.764404
400.792969	2714.514648
399.500000	2652.182617
398.207031	2560.881104
396.912109	2655.122070
395.619141	2631.474121
394.324219	2646.468750
393.029297	2549.437256
391.734375	2572.165039
390.439453	2645.083496
389.144531	2575.128174
387.849609	2619.069580
386.554688	2543.354004
385.257813	2585.356201
383.962891	2536.678955
382.666016	2638.457031
381.369141	2609.071045
380.074219	2627.895752
378.777344	2654.424561
377.478516	2553.739014
376.181641	2624.592529
374.884766	2500.826904
373.585938	2617.896973
372.289063	2542.325439
370.990234	2530.327637
369.691406	2518.333740
368.392578	2606.443604
367.093750	2569.419678
365.794922	2620.927734
364.496094	2610.849854
363.195313	2581.539063
361.896484	2569.548096
360.595703	2524.870605
359.294922	2607.103027
357.996094	2597.036133
356.695313	2535.079102
355.394531	2607.658203
354.091797	2612.966553
352.791016	2616.351807
351.490234	2627.418213
350.187500	2565.509766
348.884766	2661.059082
347.583984	2643.317383
346.281250	2627.500977
344.978516	2657.744873
343.673828	2549.837646
342.371094	2664.488770
341.068359	2583.469238
339.763672	2533.159668
338.460938	2609.407715
337.156250	2666.459473
335.851563	2625.744385
334.546875	2594.625000
333.242188	2592.255371
331.937500	2591.801758
330.632813	2510.907471
329.326172	2560.256348
328.021484	2649.794434
326.714844	2651.245117
325.408203	2604.847168
324.101563	2606.304932
322.794922	2594.369385
321.488281	2559.482910
320.181641	2647.013916
318.873047	2533.728027
317.566406	2493.134521
316.257813	2454.466553
314.951172	2549.599121
313.642578	2604.569336
312.333984	2500.942383
311.025391	2500.504639
309.716797	2519.166016
308.406250	2524.453613
307.097656	2501.100830
305.787109	2632.377197
304.478516	2561.299316
303.167969	2541.768555
301.857422	2514.612793
300.546875	2489.374023
299.236328	2572.856445
297.925781	2587.660889
296.613281	2537.637207
295.302734	2535.286377
293.990234	2571.054443
292.677734	2530.587158
291.367188	2566.343262
290.054688	2628.755127
288.742188	2479.738770
287.427734	2549.760742
286.115234	2469.350586
284.802734	2565.999512
283.488281	2618.840088
282.173828	2542.265625
280.861328	2539.917480
279.546875	2486.209961
278.232422	2630.318115
276.917969	2563.302490
275.601563	2612.285156
274.287109	2522.485107
272.970703	2567.656494
271.656250	2536.802734
270.339844	2555.356934
269.023438	2480.825928
267.707031	2560.158691
266.390625	2591.990967
265.074219	2500.405518
263.757813	2604.369629
262.439453	2417.918945
261.123047	2556.017090
259.804688	2481.576904
258.486328	2564.604980
257.167969	2480.706299
255.849609	2537.158203
254.531250	2601.173584
253.212891	2517.312500
251.894531	2672.280029
250.574219	2537.273193
249.255859	2553.879150
247.935547	2585.633057
246.615234	2596.542725
245.294922	2592.299805
243.974609	2463.104736
242.654297	2629.248291
241.332031	2619.323975
240.011719	2645.355469
238.689453	2612.728760
237.369141	2610.378418
236.046875	2630.724121
234.724609	2626.480225
233.402344	2643.034424
232.080078	2614.216797
230.755859	2678.014893
229.433594	2635.973877
228.111328	2684.631592
226.787109	2659.604004
225.462891	2678.022949
224.138672	2641.675781
222.814453	2639.323730
221.490234	2652.073486
220.166016	2661.043945
218.841797	2613.403076
217.515625	2735.572998
216.191406	2701.139648
214.865234	2695.007324
213.539063	2694.533691
212.212891	2671.437012
210.886719	2706.781494
209.560547	2621.498291
208.232422	2685.103271
206.906250	2605.505371
205.580078	2729.366455
204.251953	2740.186523
202.923828	2713.343506
201.595703	2709.101318
200.267578	2736.859375
198.939453	2711.912842
197.611328	2696.382813
196.281250	2846.413086
194.953125	2742.459229
193.623047	2851.054199
192.294922	2818.587646
190.964844	2795.532227
189.634766	2810.077881
188.304688	2888.515137
186.972656	2919.949951
185.642578	2906.285645
184.312500	2860.694580
182.980469	2878.971436
181.648438	2934.794922
180.316406	2881.713135
178.986328	2864.313232
177.652344	2893.836182
176.320313	2891.450684
174.988281	2956.602295
173.656250	2942.952393
172.322266	2972.440186
170.988281	3024.417725
169.656250	2945.148193
168.322266	2989.614746
166.988281	2983.466309
165.654297	2969.825439
164.318359	2901.861084
162.984375	3026.844238
161.648438	2964.511719
160.314453	2834.795166
158.978516	3027.117920
157.642578	3011.611084
156.306641	2971.781494
154.970703	2982.484619
153.634766	3053.047607
152.298828	3039.416992
150.960938	3091.243896
149.625000	3055.174316
148.287109	3127.543457
146.949219	3042.883545
145.611328	3154.473389
144.273438	3090.390869
142.935547	3106.659424
141.597656	3139.731934
140.257813	3195.202148
138.919922	3261.855469
137.580078	3237.012451
136.240234	3258.839600
134.900391	3336.642822
133.560547	3315.531006
132.220703	3372.776367
130.880859	3275.194336
129.539063	3414.478271
128.199219	3387.773438
126.857422	3301.425049
125.515625	3449.949463
124.175781	3445.614258
122.833984	3508.354492
121.490234	3518.913086
120.148438	3374.878906
118.806641	3489.739258
117.462891	3485.400146
116.121094	3505.262451
114.777344	3484.170898
113.433594	3459.365234
112.089844	3456.894531
110.746094	3482.327637
109.402344	3543.089844
108.058594	3748.875977
106.712891	3731.481689
105.367188	3753.130127
104.023438	3544.307373
102.677734	3571.555664
101.332031	3578.357178
99.986328	3707.757324
98.640625	3625.383301
97.292969	3567.178467
95.947266	3713.220947
94.599609	3883.343750
93.253906	3908.641602
91.906250	3839.293457
90.558594	3944.367676
89.210938	3897.297119
87.863281	3820.568604
86.515625	3704.926514
85.166016	3919.335205
83.818359	4076.204346
82.468750	4043.978027
81.119141	3974.702637
79.769531	3885.072021
78.419922	3864.010010
77.070313	4042.974121
75.720703	4255.205566
74.371094	4154.479492
73.019531	4076.001953
71.667969	4016.058838
70.318359	4059.758789
68.966797	4038.690674
67.615234	4052.775146
66.263672	3991.028564
64.912109	3810.962158
63.558594	3897.180176
62.207031	4029.578613
60.853516	4063.980469
59.500000	4044.784424
58.148438	3814.985596
56.794922	3612.974609
55.439453	3503.375000
54.085938	3415.971680
52.732422	3382.136963
51.376953	3442.451172
