#Wave		#Intensity
4002.039063	2197.767822
4001.340820	2068.908447
4000.642578	2036.366333
3999.943359	2104.026367
3999.245117	2207.441406
3998.545898	2074.733154
3997.846680	2221.038086
3997.147461	2263.593018
3996.448242	2163.117920
3995.749023	2177.069580
3995.049805	2048.046631
3994.350586	2154.927979
3993.650391	2165.301025
3992.951172	2197.105713
3992.250977	2178.892822
3991.550781	2182.114014
3990.850586	2106.776611
3990.150391	2152.851074
3989.450195	2163.214111
3988.750000	2170.004639
3988.048828	2237.457764
3987.348633	2080.108887
3986.647461	2179.660889
3985.947266	2132.942383
3985.246094	2164.695557
3984.544922	2139.388184
3983.843750	2245.996826
3983.141602	2202.861816
3982.440430	2084.898193
3981.739258	2113.070068
3981.037109	2069.977295
3980.334961	2098.142334
3979.633789	2062.188965
3978.931641	2175.811768
3978.229492	2193.264648
3977.527344	2107.474121
3976.824219	2132.051025
3976.122070	2160.178711
3975.419922	2127.807861
3974.716797	2074.101318
3974.013672	2073.768311
3973.311523	2162.347412
3972.608398	2215.338867
3971.905273	2229.204346
3971.201172	2232.401123
3970.498047	2121.862061
3969.794922	2253.005615
3969.090820	2121.180420
3968.387695	2145.707031
3967.683594	2045.908569
3966.979492	2141.466553
3966.275391	2070.106689
3965.571289	2076.874756
3964.867188	2119.136963
3964.163086	2065.560303
3963.458008	2104.262207
3962.753906	2040.061401
3962.048828	2156.796631
3961.343750	2103.248291
3960.638672	2113.549316
3959.933594	2060.024902
3959.228516	2119.960449
3958.523438	2073.541260
3957.817383	1995.241455
3957.112305	1959.487305
3956.406250	2079.627930
3955.701172	2196.187988
3954.995117	2153.335205
3954.289063	2064.461914
3953.583008	1996.860229
3952.876953	2070.878662
3952.169922	2077.625000
3951.463867	2024.208862
3950.757813	2087.572510
3950.050781	2119.076416
3949.343750	2122.273193
3948.636719	2022.908936
3947.929688	2153.415527
3947.222656	2128.321777
3946.515625	2156.259033
3945.808594	2088.761230
3945.100586	2123.762939
3944.393555	2059.825439
3943.685547	2161.939453
3942.977539	1999.119629
3942.269531	1988.204346
3941.561523	2171.490723
3940.853516	2044.050903
3940.145508	2114.317627
3939.436523	2029.277832
3938.728516	2025.423340
3938.019531	1993.345825
3937.311523	2067.102783
3936.602539	2098.513184
3935.893555	1950.069580
3935.184570	1974.437012
3934.474609	2090.452148
3933.765625	2076.017822
3933.056641	2114.449463
3932.346680	2026.022095
3931.636719	2050.357422
3930.927734	2032.416382
3930.217773	1986.306396
3929.507813	2102.188965
3928.797852	2052.561768
3928.086914	2105.034180
3927.376953	2013.187622
3926.666992	1942.484619
3925.956055	2047.725708
3925.245117	2036.843384
3924.534180	1952.101196
3923.823242	1979.921631
3923.112305	2095.637451
3922.401367	1982.801636
3921.690430	2021.148804
3920.979492	2070.027100
3920.267578	1981.846924
3919.555664	2013.149048
3918.844727	2062.004883
3918.132813	2026.551636
3917.420898	2061.343018
3916.708984	2029.412231
3915.996094	1969.407471
3915.284180	1962.071411
3914.572266	2060.019775
3913.859375	2056.180176
3913.146484	2045.325439
3912.433594	2037.981689
3911.720703	1981.540161
3911.007813	1963.689209
3910.294922	2037.000610
3909.582031	2089.255615
3908.869141	2032.841797
3908.155273	2018.498291
3907.441406	2119.783691
3906.728516	2024.856812
3906.014648	2126.108643
3905.300781	2094.248779
3904.586914	1911.833252
3903.872070	2020.056274
3903.158203	2058.236572
3902.444336	1977.409912
3901.729492	1966.594727
3901.014648	1910.299561
3900.300781	2032.428467
3899.585938	2021.609497
3898.871094	1982.817749
3898.155273	2062.918457
3897.440430	2024.132324
3896.725586	2149.640137
3896.009766	1981.545288
3895.294922	2012.675415
3894.579102	1935.491699
3893.863281	2057.439941
3893.147461	1976.781128
3892.431641	2025.351807
3891.715820	2108.821045
3890.999023	2070.083008
3890.283203	1985.983643
3889.566406	1968.216187
3888.850586	1971.389526
3888.133789	1932.698364
3887.416992	1960.292725
3886.700195	2050.653320
3885.983398	1886.437866
3885.265625	1997.699585
3884.548828	2021.779785
3883.831055	1944.779541
3883.114258	1982.799316
3882.396484	2041.711670
3881.678711	1971.712280
3880.960938	1908.701416
3880.243164	1950.184814
3879.525391	1981.209229
3878.806641	1949.559082
3878.088867	2011.900635
3877.370117	1966.334839
3876.652344	1941.661621
3875.933594	2038.765503
3875.214844	1958.431396
3874.496094	1961.595215
3873.777344	2034.306885
3873.057617	2100.041504
3872.338867	2005.843628
3871.619141	1970.764038
3870.900391	1987.823975
3870.180664	1911.062622
3869.460938	1990.660400
3868.741211	2004.235229
3868.021484	1920.562012
3867.301758	1895.946899
3866.581055	1996.327026
3865.861328	1971.707642
3865.140625	1936.683716
3864.420898	2040.479126
3863.700195	1995.046387
3862.979492	1918.406372
3862.258789	1970.126709
3861.538086	1976.746582
3860.816406	2024.973389
3860.095703	1931.043213
3859.374023	2010.458618
3858.653320	2069.053955
3857.931641	1940.509766
3857.209961	1992.168091
3856.488281	2009.168945
3855.766602	1981.138428
3855.044922	1953.116943
3854.322266	1911.254639
3853.600586	1997.494629
3852.877930	1983.328979
3852.156250	2034.922119
3851.433594	2058.817139
3850.710938	1961.616943
3849.988281	1957.843262
3849.264648	1985.197510
3848.541992	1905.345581
3847.819336	1956.901367
3847.095703	2015.354248
3846.372070	2004.662109
3845.649414	1900.667725
3844.925781	1876.176514
3844.202148	1944.968628
3843.478516	1975.743530
3842.753906	1940.891235
3842.030273	1988.921875
3841.305664	2005.864990
3840.582031	1905.438721
3839.857422	1887.876587
3839.132813	1918.630737
3838.408203	2070.132813
3837.683594	2042.203491
3836.958984	2014.283081
3836.234375	1910.503174
3835.508789	2010.189087
3834.783203	1923.680298
3834.058594	2012.991211
3833.333008	1916.170654
3832.607422	1988.225098
3831.881836	2015.468262
3831.156250	1863.578613
3830.430664	2063.039795
3829.704102	2035.160278
3828.978516	1842.023926
3828.251953	1858.941040
3827.525391	1889.620239
3826.798828	1940.937988
3826.072266	1944.067505
3825.345703	1912.793335
3824.619141	1950.323608
3823.892578	1915.619141
3823.165039	1856.855347
3822.437500	1983.766235
3821.710938	1945.635376
3820.983398	1890.332031
3820.255859	1962.193604
3819.528320	1893.161621
3818.800781	1906.599365
3818.072266	1844.467896
3817.344727	1820.132690
3816.616211	1905.682373
3815.888672	1867.612671
3815.160156	1884.475952
3814.431641	1911.629883
3813.703125	2017.698608
3812.974609	1945.326050
3812.245117	1890.128418
3811.516602	1934.412842
3810.788086	1944.390503
3810.058594	2005.795532
3809.329102	1912.913574
3808.599609	1922.889771
3807.870117	1943.143799
3807.140625	1997.656494
3806.411133	1921.964966
3805.681641	1942.209351
3804.951172	1876.825562
3804.221680	1999.799927
3803.491211	1865.952515
3802.760742	1906.731934
3802.030273	1855.086182
3801.299805	1919.809082
3800.569336	2028.991577
3799.837891	1891.825317
3799.107422	1956.511108
3798.375977	1945.937622
3797.645508	1979.819458
3796.914063	1904.287842
3796.182617	1883.472900
3795.451172	1917.348267
3794.719727	1968.298584
3793.988281	1831.317627
3793.255859	1902.761841
3792.524414	1991.260986
3791.791992	1854.341919
3791.059570	1884.774658
3790.327148	1969.820068
3789.594727	1897.823853
3788.862305	1883.868408
3788.129883	1962.048340
3787.397461	1924.205078
3786.664063	1944.363525
3785.931641	1961.104980
3785.198242	1967.610718
3784.464844	1929.790527
3783.731445	2120.384033
3782.998047	1908.721313
3782.264648	1830.034058
3781.531250	1962.626831
3780.796875	1904.396729
3780.063477	1996.060181
3779.329102	1856.106445
3778.594727	1930.722412
3777.860352	1882.748413
3777.125977	1872.234375
3776.391602	1922.987061
3775.657227	1895.455078
3774.921875	2031.248291
3774.187500	1854.024902
3773.452148	1928.557007
3772.716797	2009.866943
3771.981445	1944.940063
3771.246094	1914.031006
3770.510742	1927.320923
3769.775391	1879.431396
3769.040039	2001.460571
3768.303711	1987.549683
3767.568359	1997.421997
3766.832031	1942.758911
3766.095703	1881.321533
3765.359375	2003.252319
3764.623047	1962.193726
3763.886719	1910.965454
3763.149414	2005.682983
3762.413086	2005.361572
3761.675781	1998.254883
3760.939453	1909.740601
3760.202148	1916.217529
3759.464844	1932.865356
3758.727539	1973.240967
3757.990234	1989.874268
3757.251953	1945.493652
3756.514648	1918.071289
3755.776367	1826.280396
3755.039063	1981.823364
3754.300781	1923.923584
3753.562500	1852.495605
3752.824219	1892.832031
3752.085938	1953.468750
3751.346680	1970.080688
3750.608398	1898.691040
3749.870117	2081.119141
3749.130859	1918.382813
3748.391602	1918.075317
3747.652344	1944.826416
3746.913086	1887.024658
3746.173828	2065.927002
3745.434570	1906.703979
3744.695313	2048.364258
3743.955078	1885.815308
3743.214844	1976.747681
3742.475586	2030.487061
3741.735352	1976.114136
3740.995117	1989.307129
3740.254883	1985.611450
3739.514648	1961.658813
3738.773438	1995.102539
3738.033203	1846.270996
3737.291992	1947.216919
3736.551758	2000.891846
3735.810547	2091.659668
3735.069336	1949.654053
3734.328125	2047.145874
3733.586914	1999.609497
3732.844727	2036.375366
3732.103516	1934.920776
3731.361328	1917.758789
3730.620117	2038.766479
3729.877930	1987.899902
3729.135742	2007.794067
3728.393555	2044.522949
3727.651367	2101.446289
3726.908203	2057.336426
3726.166016	1996.407471
3725.422852	2033.114502
3724.680664	2019.326538
3723.937500	2019.002930
3723.194336	2005.221558
3722.451172	2048.631348
3721.708008	2024.759277
3720.964844	2058.063232
3720.220703	1892.980347
3719.477539	2043.956665
3718.733398	2043.629150
3717.989258	2167.647461
3717.246094	1989.211792
3716.501953	2029.208496
3715.756836	1995.292480
3715.012695	2011.765503
3714.268555	2122.257080
3713.523438	2064.840332
3712.779297	2118.220215
3712.034180	2003.763550
3711.289063	2147.744141
3710.543945	2164.176514
3709.798828	2026.283936
3709.053711	2180.254150
3708.308594	2257.039795
3707.562500	2122.551758
3706.817383	2162.443115
3706.071289	2168.800781
3705.325195	2074.609863
3704.579102	2151.350830
3703.833008	2244.819336
3703.086914	2200.910645
3702.339844	2130.220459
3701.593750	2240.391602
3700.846680	2186.459473
3700.100586	2172.718018
3699.353516	2239.314941
3698.606445	2282.463379
3697.859375	2251.982178
3697.112305	2137.869141
3696.365234	2227.844727
3695.617188	2197.386475
3694.870117	2347.516357
3694.122070	2226.773926
3693.374023	2223.074219
3692.625977	2182.608887
3691.877930	2349.354004
3691.129883	2318.905273
3690.381836	2425.440186
3689.632813	2344.884766
3688.884766	2311.111328
3688.135742	2337.454834
3687.386719	2300.354736
3686.638672	2373.425537
3685.889648	2426.447266
3685.139648	2416.047119
3684.390625	2408.987061
3683.641602	2558.721436
3682.891602	2344.841064
3682.142578	2544.562012
3681.392578	2470.797119
3680.642578	2360.383545
3679.892578	2510.005615
3679.142578	2459.611328
3678.392578	2465.881836
3677.641602	2558.775391
3676.891602	2448.435791
3676.140625	2571.278320
3675.389648	2510.923828
3674.639648	2533.828857
3673.888672	2659.927490
3673.136719	2616.230469
3672.385742	2742.275391
3671.634766	2825.022705
3670.882813	2797.954590
3670.131836	2617.880615
3669.379883	2670.675049
3668.627930	2736.753906
3667.875977	2709.717041
3667.124023	2772.444092
3666.372070	2821.855957
3665.620117	2854.635986
3664.867188	2867.469482
3664.115234	2873.654297
3663.362305	2896.445068
3662.609375	2922.549805
3661.856445	2945.325439
3661.103516	3011.253662
3660.350586	3040.646729
3659.596680	3063.392090
3658.843750	3033.035645
3658.089844	3102.225342
3657.336914	3114.997803
3656.583008	3277.023193
3655.829102	3206.855957
3655.075195	3242.815674
3654.321289	3292.024414
3653.566406	3245.091309
3652.812500	3413.593994
3652.057617	3360.029053
3651.303711	3329.672607
3650.548828	3358.952393
3649.793945	3514.080322
3649.039063	3549.944092
3648.284180	3605.662109
3647.528320	3466.045410
3646.773438	3614.436768
3646.017578	3524.503906
3645.262695	3586.807861
3644.506836	3794.658203
3643.750977	3734.509766
3642.995117	3700.838623
3642.239258	3763.073975
3641.482422	3821.982910
3640.726563	3913.929688
3639.969727	3754.655273
3639.213867	3826.755615
3638.457031	3955.002197
3637.700195	4003.922119
3636.943359	4075.947510
3636.186523	4223.907227
3635.429688	4081.245605
3634.671875	3998.055420
3633.915039	4136.053711
3633.157227	4184.896973
3632.399414	4058.831543
3631.641602	4295.733398
3630.883789	4199.379883
3630.125977	4485.657227
3629.368164	4412.388184
3628.609375	4378.708984
3627.851563	4368.117676
3627.092773	4495.968262
3626.333984	4472.178223
3625.575195	4418.740234
3624.816406	4559.699219
3624.057617	4450.265137
3623.298828	4492.368164
3622.540039	4498.234375
3621.780273	4599.580078
3621.020508	4546.172363
3620.261719	4617.854980
3619.501953	4775.077637
3618.742188	4715.086426
3617.982422	4674.853027
3617.221680	4575.424805
3616.461914	4844.372070
3615.701172	4689.047852
3614.941406	4744.187988
3614.180664	4868.341797
3613.419922	4808.401367
3612.659180	4863.495605
3611.898438	4944.856934
3611.137695	4865.222656
3610.375977	4808.605469
3609.615234	4985.173340
3608.853516	4915.420898
3608.091797	5032.821289
3607.330078	4930.258301
3606.568359	5155.922363
3605.806641	5135.407715
3605.044922	4944.293945
3604.282227	5176.407227
3603.520508	5132.939941
3602.757813	5158.352051
3601.995117	5134.574219
3601.233398	4996.064941
3600.470703	5103.429688
3599.707031	5122.275391
3598.944336	5245.968750
3598.181641	5133.739258
3597.417969	5221.358887
3596.655273	5227.072266
3595.891602	5255.706055
3595.127930	5261.412598
3594.364258	5345.681641
3593.600586	5344.825195
3592.835938	5245.794434
3592.072266	5526.342285
3591.307617	5489.471191
3590.543945	5295.607910
3589.779297	5386.330566
3589.014648	5339.689453
3588.250000	5351.911621
3587.485352	5442.581055
3586.720703	5441.708984
3585.955078	5355.875488
3585.190430	5417.094727
3584.424805	5393.359863
3583.659180	5457.819824
3582.893555	5427.554688
3582.127930	5491.988281
3581.362305	5262.583984
3580.596680	5542.454102
3579.830078	5577.465820
3579.064453	5524.363281
3578.297852	5471.277832
3577.531250	5467.139160
3576.764648	5440.171387
3575.998047	5651.262695
3575.231445	5523.200195
3574.464844	5633.152832
3573.698242	5557.283691
3572.930664	5618.312500
3572.163086	5555.503418
3571.396484	5671.895508
3570.628906	5615.612793
3569.861328	5653.794434
3569.092773	5623.582031
3568.325195	5707.331055
3567.557617	5514.357910
3566.789063	5897.529785
3566.020508	5476.795410
3565.252930	5625.586426
3564.484375	5621.432129
3563.715820	5555.479004
3562.946289	5704.185547
3562.177734	5709.774902
3561.409180	5767.379395
3560.639648	5659.187500
3559.870117	5674.530762
3559.101563	5722.364258
3558.332031	5692.206543
3557.562500	5704.288574
3556.791992	5755.341797
3556.022461	5676.481445
3555.252930	5759.991699
3554.482422	5807.764160
3553.711914	5732.179199
3552.942383	5835.111328
3552.171875	5775.770020
3551.401367	5560.721191
3550.629883	5855.013672
3549.859375	5844.346191
3549.088867	5723.428711
3548.317383	5719.269531
3547.545898	5731.319824
3546.774414	5675.301758
3546.002930	5849.387695
3545.231445	5981.296387
3544.459961	5863.711914
3543.688477	5817.424805
3542.916016	5761.437012
3542.144531	5822.037109
3541.372070	5704.552734
3540.599609	5868.727051
3539.827148	5654.177734
3539.054688	5785.947266
3538.282227	5814.139648
3537.509766	5803.502930
3536.736328	5847.855469
3535.962891	5769.304688
3535.190430	5807.181152
3534.416992	5757.757324
3533.643555	5866.735352
3532.870117	5752.680664
3532.095703	5793.766113
3531.322266	5883.300781
3530.548828	5798.370605
3529.774414	5865.266602
3529.000000	5835.263672
3528.225586	5895.674805
3527.451172	5833.394043
3526.676758	5725.945313
3525.902344	5815.389160
3525.127930	5656.350586
3524.352539	5765.133301
3523.577148	5928.716797
3522.802734	5653.632324
3522.027344	5739.790527
3521.251953	5793.680176
3520.476563	5609.008789
3519.700195	5679.017090
3518.924805	5749.002930
3518.148438	5773.857910
3517.373047	5708.502930
3516.596680	5649.610352
3515.820313	5719.555664
3515.043945	5631.700195
3514.267578	5666.211914
3513.490234	5761.871582
3512.713867	5487.383789
3511.937500	5647.399414
3511.160156	5675.450684
3510.382813	5652.023438
3509.605469	5615.737793
3508.828125	5534.442383
3508.050781	5633.230469
3507.273438	5651.616699
3506.495117	5898.210938
3505.716797	5643.377930
3504.939453	5581.421875
3504.161133	5580.527832
3503.382813	5621.392578
3502.604492	5745.748535
3501.826172	5597.112793
3501.046875	5609.058594
3500.268555	5691.624512
3499.489258	5607.261230
3498.710938	5670.545898
3497.931641	5621.507813
3497.152344	5671.936523
3496.373047	5619.706543
3495.592773	5660.498047
3494.813477	5454.370605
3494.034180	5501.587402
3493.253906	5526.350098
3492.473633	5477.389160
3491.693359	5620.714844
3490.913086	5411.554199
3490.132813	5407.483398
3489.352539	5390.602051
3488.572266	5530.646484
3487.791016	5516.952637
3487.009766	5532.075684
3486.229492	5326.330566
3485.448242	5466.294922
3484.666992	5475.018555
3483.885742	5563.724121
3483.103516	5441.275391
3482.322266	5299.675781
3481.540039	5426.740234
3480.758789	5473.830566
3479.976563	5546.480469
3479.194336	5350.616699
3478.412109	5621.401855
3477.629883	5284.996582
3476.846680	5405.550781
3476.064453	5235.389160
3475.281250	5301.618652
3474.499023	5361.440430
3473.715820	5351.003418
3472.932617	5267.148438
3472.149414	5282.262695
3471.366211	5268.651367
3470.582031	5382.671387
3469.798828	5286.104004
3469.014648	5345.860352
3468.231445	5345.003418
3467.447266	5366.467285
3466.663086	5196.637207
3465.878906	5205.367188
3465.093750	5166.287598
3464.309570	5066.675781
3463.524414	5295.261230
3462.740234	5049.124023
3461.955078	5213.937500
3461.169922	5139.857422
3460.384766	5240.922852
3459.599609	5224.165527
3458.814453	5127.837891
3458.028320	5092.008301
3457.243164	5167.560547
3456.457031	5179.458008
3455.670898	5134.094238
3454.885742	5060.121094
3454.098633	5186.508301
3453.312500	5080.755371
3452.526367	5159.414551
3451.740234	4961.524902
3450.953125	5081.490723
3450.166016	4972.644531
3449.379883	4994.085938
3448.592773	5037.754883
3447.804688	4995.661133
3447.017578	4905.949707
3446.230469	4987.709961
3445.442383	4866.285156
3444.655273	5084.500488
3443.867188	4902.805664
3443.079102	4940.093750
3442.291016	4888.544922
3441.502930	4941.682129
3440.714844	4890.149414
3439.926758	4873.511719
3439.137695	5015.393555
3438.348633	4865.609863
3437.560547	4915.538574
3436.771484	4924.256836
3435.982422	4885.448730
3435.193359	4830.813965
3434.403320	4830.039551
3433.614258	4784.931152
3432.824219	4856.987305
3432.035156	4887.866211
3431.245117	4906.073730
3430.455078	4734.393555
3429.665039	4860.202637
3428.875000	4786.658691
3428.084961	4754.259766
3427.293945	4892.655273
3426.503906	4803.330078
3425.712891	4805.722168
3424.921875	4836.563477
3424.130859	4655.631348
3423.339844	4819.212402
3422.548828	4663.617676
3421.756836	4732.371094
3420.965820	4687.391602
3420.173828	4582.422852
3419.382813	4562.742676
3418.590820	4732.494629
3417.798828	4586.532715
3417.006836	4592.109375
3416.213867	4581.906738
3415.421875	4622.188477
3414.628906	4640.374512
3413.836914	4664.863281
3413.043945	4607.351563
3412.250977	4445.807129
3411.458008	4577.501465
3410.665039	4504.270996
3409.872070	4651.670898
3409.078125	4531.186035
3408.285156	4461.147949
3407.491211	4507.683105
3406.697266	4623.492676
3405.903320	4531.430176
3405.109375	4470.882324
3404.315430	4319.061523
3403.520508	4463.153809
3402.726563	4544.260254
3401.931641	4282.373047
3401.137695	4448.423828
3400.342773	4369.073730
3399.547852	4355.793457
3398.752930	4474.584961
3397.957031	4467.579590
3397.162109	4268.825195
3396.366211	4371.858398
3395.571289	4333.448242
3394.775391	4345.321289
3393.979492	4266.088379
3393.183594	4212.008301
3392.387695	4296.125000
3391.591797	4320.555664
3390.794922	4351.257324
3389.999023	4225.002441
3389.202148	4230.602051
3388.405273	4160.889648
3387.608398	4179.046875
3386.811523	4231.704590
3386.014648	4133.796875
3385.216797	4170.765137
3384.419922	4257.888184
3383.622070	4091.055176
3382.825195	4231.447754
3382.027344	4155.555664
3381.229492	4085.954346
3380.431641	4210.615234
3379.632813	4159.821777
3378.834961	4209.265137
3378.036133	4277.480957
3377.238281	4041.978271
3376.439453	4035.069336
3375.640625	4056.331543
3374.841797	4096.363281
3374.042969	4061.288574
3373.244141	3960.529297
3372.444336	4100.648926
3371.644531	3953.004639
3370.845703	3989.893311
3370.045898	3904.841309
3369.246094	4157.411133
3368.446289	3903.589111
3367.646484	3931.087158
3366.845703	3961.700439
3366.045898	3851.729736
3365.245117	3904.209473
3364.444336	3997.269287
3363.643555	3927.936279
3362.842773	3933.550049
3362.041992	4001.589355
3361.241211	3838.662842
3360.440430	4053.352295
3359.638672	3999.664551
3358.836914	3914.800537
3358.036133	4032.689453
3357.234375	3869.887939
3356.432617	3838.088623
3355.629883	3915.407227
3354.828125	3839.974609
3354.026367	3764.566162
3353.223633	3841.858887
3352.420898	3881.742676
3351.618164	3815.708008
3350.815430	3905.412598
3350.012695	3789.573242
3349.209961	3820.099121
3348.407227	3844.389404
3347.603516	3759.739014
3346.799805	3780.919189
3345.997070	3699.417236
3345.193359	3717.489014
3344.389648	3688.899658
3343.584961	3750.505371
3342.781250	3557.122803
3341.977539	3746.193604
3341.172852	3664.774902
3340.368164	3766.747070
3339.564453	3769.250488
3338.759766	3566.698730
3337.954102	3653.105225
3337.149414	3723.954590
3336.344727	3729.568115
3335.539063	3803.487305
3334.734375	3582.465576
3333.928711	3656.384277
3333.123047	3646.487793
3332.317383	3689.343262
3331.511719	3577.065186
3330.705078	3650.937256
3329.899414	3610.033203
3329.092773	3553.637939
3328.287109	3735.991943
3327.480469	3515.299072
3326.673828	3598.419434
3325.867188	3616.435791
3325.060547	3625.150879
3324.252930	3624.569336
3323.446289	3654.962158
3322.638672	3598.631104
3321.831055	3629.018311
3321.024414	3755.369385
3320.216797	3609.281494
3319.408203	3624.177246
3318.600586	3459.590088
3317.792969	3520.914307
3316.984375	3548.190430
3316.175781	3535.249512
3315.368164	3519.219971
3314.559570	3515.563477
3313.750977	3539.731201
3312.941406	3464.979980
3312.132813	3609.676514
3311.323242	3556.567871
3310.514648	3423.149414
3309.705078	3521.447998
3308.895508	3545.591064
3308.085938	3393.710205
3307.276367	3442.565918
3306.466797	3534.623779
3305.656250	3401.336670
3304.846680	3490.285400
3304.036133	3477.383301
3303.225586	3408.954834
3302.415039	3368.309082
3301.604492	3367.768555
3300.793945	3401.147217
3299.983398	3523.923584
3299.171875	3378.478027
3298.361328	3291.638428
3297.549805	3263.376221
3296.738281	3346.041504
3295.926758	3471.808105
3295.115234	3375.768555
3294.303711	3409.102539
3293.491211	3393.159912
3292.679688	3364.908203
3291.867188	3327.430908
3291.054688	3366.906006
3290.242188	3378.674316
3289.429688	3439.664551
3288.617188	3257.621094
3287.804688	3386.275146
3286.991211	3398.032227
3286.177734	3372.889893
3285.365234	3310.865479
3284.551758	3267.302979
3283.738281	3319.022461
3282.924805	3367.652588
3282.110352	3290.307617
3281.296875	3289.779785
3280.482422	3132.620850
3279.668945	3322.501709
3278.854492	3343.459961
3278.040039	3256.971436
3277.225586	3339.317871
3276.411133	3338.781982
3275.595703	3276.881348
3274.781250	3190.458496
3273.965820	3306.502197
3273.150391	3223.168945
3272.335938	3225.717773
3271.519531	3283.449951
3270.704102	3267.596680
3269.888672	3322.238525
3269.073242	3143.975830
3268.256836	3256.832275
3267.440430	3167.473145
3266.625000	3283.352295
3265.808594	3181.768311
3264.991211	3242.494385
3264.174805	3192.992432
3263.358398	3278.184082
3262.541016	3216.450439
3261.724609	3222.053955
3260.907227	3175.645996
3260.089844	3138.429443
3259.272461	3260.262207
3258.455078	3238.333496
3257.637695	3277.560059
3256.819336	3179.212158
3256.001953	3145.081055
3255.183594	3175.135742
3254.365234	3141.015869
3253.546875	3180.226318
3252.728516	3045.318604
3251.910156	3133.395508
3251.090820	3218.390625
3250.272461	3132.389648
3249.453125	3195.989746
3248.633789	3079.499512
3247.814453	3317.025635
3246.995117	3151.736328
3246.175781	3163.432617
3245.356445	3172.074951
3244.536133	3241.706055
3243.716797	3210.694824
3242.896484	3234.568115
3242.076172	3206.615967
3241.255859	3001.910400
3240.435547	3126.360840
3239.615234	3177.652100
3238.793945	3222.834229
3237.973633	3255.819092
3237.152344	3233.980225
3236.331055	3169.522461
3235.509766	3108.129639
3234.688477	3083.281006
3233.867188	3140.607178
3233.045898	3027.521729
3232.223633	3051.373535
3231.402344	3117.802246
3230.580078	3105.136719
3229.757813	3147.208984
3228.935547	3058.535156
3228.113281	3015.486816
3227.291016	3063.631836
3226.467773	3081.372803
3225.645508	2992.766113
3224.822266	3046.967041
3223.999023	3095.075684
3223.175781	3006.509277
3222.352539	2981.735352
3221.529297	3075.369629
3220.705078	3102.194336
3219.881836	2949.949951
3219.057617	3161.886963
3218.233398	3012.715576
3217.409180	3045.599854
3216.584961	3072.407715
3215.760742	3065.849365
3214.936523	3019.876953
3214.111328	3101.242920
3213.287109	3043.155273
3212.461914	2963.872559
3211.636719	2969.456543
3210.811523	3014.423340
3209.986328	3083.608154
3209.161133	2986.197754
3208.334961	3034.167969
3207.509766	3100.288574
3206.683594	2990.813477
3205.857422	3041.786377
3205.031250	3092.742676
3204.205078	3074.091797
3203.378906	3052.421875
3202.552734	3018.659668
3201.725586	2951.642090
3200.899414	2990.476563
3200.072266	2956.740479
3199.245117	2974.402100
3198.417969	2913.478760
3197.590820	3052.013428
3196.762695	2906.500244
3195.935547	2836.554443
3195.107422	2839.119141
3194.280273	2947.377930
3193.452148	2753.664795
3192.624023	3015.865479
3191.795898	2900.681885
3190.966797	2851.929443
3190.138672	2824.314453
3189.309570	2932.470703
3188.481445	2904.851563
3187.652344	2979.784180
3186.823242	2849.639404
3185.994141	2870.286865
3185.165039	2812.549805
3184.334961	2962.799805
3183.505859	2883.971436
3182.675781	2916.651855
3181.845703	2919.196045
3181.016602	2716.916260
3180.185547	2903.199951
3179.355469	2827.455322
3178.525391	2845.064941
3177.695313	2808.485840
3176.864258	2741.821533
3176.033203	2828.647949
3175.202148	2855.271973
3174.371094	2881.887207
3173.540039	2788.184082
3172.708984	2769.692383
3171.877930	2844.416992
3171.045898	2717.695313
3170.213867	2867.549561
3169.381836	2797.966064
3168.550781	2848.599121
3167.717773	2926.254883
3166.885742	2766.578857
3166.053711	2757.124023
3165.220703	2798.721924
3164.388672	2693.186768
3163.555664	2704.761963
3162.722656	2701.325928
3161.889648	2661.878906
3161.056641	2670.452637
3160.222656	2778.024414
3159.389648	2741.583496
3158.555664	2807.122314
3157.722656	2731.706787
3156.888672	2737.263916
3156.054688	2676.871826
3155.220703	2730.389893
3154.385742	2637.054932
3153.551758	2714.531738
3152.716797	2591.271973
3151.882813	2698.683105
3151.047852	2749.159912
3150.212891	2769.677734
3149.377930	2616.550537
3148.541992	2681.982178
3147.707031	2729.436035
3146.872070	2767.897705
3146.036133	2716.591553
3145.200195	2674.275879
3144.364258	2646.927979
3143.528320	2697.339355
3142.692383	2649.067139
3141.856445	2612.768066
3141.019531	2600.392334
3140.182617	2507.331543
3139.346680	2680.232422
3138.509766	2658.888916
3137.672852	2688.331787
3136.835938	2646.087891
3135.998047	2639.690430
3135.161133	2519.842285
3134.323242	2555.258789
3133.485352	2692.141113
3132.648438	2596.215332
3131.810547	2577.895996
3130.971680	2517.817627
3130.133789	2606.894531
3129.295898	2505.079346
3128.457031	2594.129395
3127.619141	2492.348877
3126.780273	2605.218506
3125.941406	2500.488525
3125.102539	2452.408936
3124.262695	2556.292480
3123.423828	2555.881348
3122.583984	2626.952148
3121.745117	2528.258301
3120.905273	2575.490967
3120.065430	2554.238037
3119.225586	2595.498291
3118.385742	2556.392822
3117.544922	2481.593506
3116.705078	2573.421143
3115.864258	2581.931152
3115.024414	2563.671387
3114.183594	2518.654785
3113.342773	2488.518555
3112.500977	2455.419189
3111.660156	2449.079834
3110.819336	2517.035400
3109.977539	2513.659424
3109.135742	2569.699463
3108.293945	2563.345703
3107.452148	2571.842773
3106.610352	2455.625732
3105.768555	2514.607666
3104.926758	2466.709473
3104.083984	2507.863281
3103.241211	2528.231934
3102.398438	2504.089844
3101.555664	2399.861328
3100.712891	2452.862793
3099.870117	2479.157959
3099.027344	2318.647949
3098.183594	2508.005859
3097.339844	2528.351074
3096.497070	2498.308594
3095.653320	2486.054199
3094.809570	2464.916016
3093.964844	2446.746582
3093.121094	2541.126953
3092.276367	2395.618896
3091.432617	2377.469238
3090.587891	2486.616211
3089.743164	2432.940186
3088.898438	2290.502197
3088.053711	2473.581299
3087.208984	2455.433350
3086.363281	2401.796387
3085.517578	2300.858398
3084.672852	2445.377686
3083.827148	2314.900635
3082.981445	2500.754639
3082.135742	2420.553955
3081.289063	2393.569336
3080.443359	2337.047852
3079.596680	2372.120605
3078.750000	2383.553467
3077.904297	2350.685547
3077.056641	2468.413330
3076.209961	2358.785889
3075.363281	2399.730225
3074.516602	2411.148926
3073.668945	2381.253662
3072.821289	2413.323486
3071.973633	2368.688232
3071.125977	2341.763184
3070.278320	2306.000244
3069.430664	2335.113037
3068.583008	2381.903564
3067.734375	2440.468994
3066.885742	2437.129395
3066.038086	2336.556885
3065.189453	2362.695068
3064.339844	2377.042480
3063.491211	2252.967529
3062.642578	2332.108887
3061.792969	2390.615723
3060.944336	2346.076416
3060.094727	2278.006348
3059.245117	2368.863037
3058.395508	2433.210449
3057.545898	2347.508545
3056.695313	2341.248047
3055.845703	2317.344971
3054.995117	2316.972168
3054.144531	2257.802246
3053.293945	2298.590088
3052.443359	2342.303711
3051.592773	2277.281250
3050.742188	2288.666748
3049.890625	2255.986084
3049.039063	2423.032471
3048.188477	2313.990723
3047.336914	2354.723145
3046.485352	2204.628906
3045.633789	2342.224609
3044.781250	2186.311523
3043.929688	2323.865723
3043.077148	2326.425293
3042.224609	2258.586670
3041.372070	2261.155762
3040.519531	2331.166748
3039.666992	2363.041260
3038.814453	2292.308838
3037.960938	2253.838379
3037.108398	2259.336426
3036.254883	2238.463379
3035.401367	2246.891357
3034.547852	2220.168701
3033.694336	2249.096436
3032.840820	2251.662354
3031.986328	2251.300049
3031.132813	2218.739502
3030.278320	2265.208252
3029.423828	2326.292725
3028.569336	2284.958740
3027.714844	2237.787354
3026.860352	2254.975586
3026.004883	2172.732910
3025.150391	2230.859131
3024.294922	2239.270020
3023.439453	2265.215088
3022.583984	2177.178711
3021.728516	2206.047363
3020.873047	2153.106201
3020.016602	2316.333984
3019.161133	2242.948486
3018.304688	2154.986328
3017.448242	2207.191406
3016.591797	2192.240479
3015.735352	2270.690430
3014.878906	2124.416992
3014.021484	2252.453125
3013.165039	2295.848633
3012.307617	2126.307617
3011.450195	2242.616211
3010.592773	2134.370117
3009.735352	2151.518555
3008.877930	2253.192383
3008.020508	2226.599854
3007.162109	2191.274170
3006.303711	2161.786621
3005.445313	2158.525391
3004.587891	2216.428223
3003.728516	2140.357910
3002.870117	2224.448975
3002.011719	2221.179688
3001.152344	2206.268799
3000.293945	2269.937256
2999.434570	2217.196777
2998.575195	2211.021240
2997.715820	2175.759766
2996.855469	2288.833252
2995.996094	2090.731934
2995.136719	2157.264404
2994.276367	2279.006592
2993.416016	2174.008057
2992.555664	2223.059082
2991.695313	2211.079102
2990.834961	2175.862549
2989.973633	2129.039063
2989.113281	2102.559326
2988.251953	2247.401611
2987.390625	2174.460693
2986.530273	2150.888916
2985.667969	2138.933594
2984.806641	2100.866211
2983.945313	2135.343018
2983.083008	2175.610596
2982.221680	2178.160400
2981.359375	2151.710449
2980.497070	2154.263184
2979.634766	2095.937256
2978.772461	2098.498047
2977.909180	2179.304199
2977.046875	2228.211182
2976.183594	2082.998291
2975.320313	2100.042236
2974.457031	2064.950195
2973.593750	2180.444580
2972.730469	2177.197998
2971.867188	2145.004883
2971.002930	2130.187744
2970.139648	2170.357910
2969.275391	2210.514893
2968.411133	2053.943359
2967.546875	2047.827515
2966.682617	2059.065186
2965.817383	2073.190918
2964.953125	2101.766846
2964.087891	2008.930542
2963.222656	2129.990234
2962.357422	2071.854492
2961.492188	2085.966309
2960.626953	2105.851074
2959.761719	2062.188232
2958.895508	2102.284424
2958.030273	2156.803955
2957.164063	2162.229980
2956.297852	2121.472656
2955.431641	2141.331787
2954.565430	2089.049072
2953.698242	2137.756592
2952.832031	2166.256836
2951.964844	2183.211914
2951.097656	2139.606445
2950.230469	2121.962891
2949.363281	2127.386230
2948.496094	2092.457031
2947.628906	2109.409912
2946.760742	2183.982178
2945.893555	2094.325928
2945.025391	2068.065674
2944.157227	2053.333008
2943.289063	2061.639893
2942.419922	2006.608154
2941.551758	2052.339844
2940.683594	2054.886963
2939.814453	2077.575928
2938.945313	2051.347412
2938.076172	2045.263306
2937.207031	2128.341553
2936.337891	2110.744385
2935.468750	2156.407227
2934.598633	2015.197021
2933.728516	2075.231934
2932.859375	2031.790039
2931.989258	2068.816162
2931.119141	2031.134888
2930.248047	2039.424561
2929.377930	2050.583496
2928.506836	2050.252930
2927.636719	2161.892822
2926.765625	2104.132568
2925.894531	2098.052979
2925.023438	2146.498779
2924.152344	1988.347168
2923.280273	2117.119141
2922.409180	2070.885498
2921.537109	2021.798828
2920.665039	2021.472778
2919.792969	2035.481079
2918.920898	2172.740479
2918.048828	2140.864746
2917.176758	2043.092773
2916.303711	2051.358398
2915.430664	2096.860352
2914.558594	2073.609375
2913.685547	2159.184082
2912.811523	2218.962402
2911.938477	2098.370361
2911.065430	2057.960449
2910.191406	2295.157227
2909.318359	2094.493652
2908.444336	2137.068848
2907.570313	2113.840820
2906.696289	2116.359863
2905.821289	2130.315674
2904.947266	2109.958984
2904.072266	2026.720215
2903.198242	2066.406494
2902.323242	2091.791992
2901.448242	2105.740234
2900.573242	2079.690186
2899.697266	2025.085693
2898.822266	2070.451660
2897.946289	2047.274902
2897.071289	1964.153198
2896.195313	1935.292114
2895.319336	2086.239258
2894.443359	2105.877197
2893.566406	2045.623657
2892.690430	2005.357544
2891.813477	1956.548096
2890.937500	1953.380615
2890.060547	2044.303467
2889.183594	2046.824341
2888.306641	2000.889648
2887.428711	2026.215088
2886.551758	1957.503662
2885.673828	1925.849854
2884.796875	2022.385742
2883.918945	2030.603271
2883.041016	2058.750488
2882.162109	1961.618530
2881.284180	1992.614380
2880.406250	1972.369873
2879.527344	1977.742920
2878.648438	1872.150757
2877.769531	1954.346436
2876.890625	2010.916870
2876.011719	2050.406006
2875.132813	1993.207397
2874.252930	1970.142334
2873.374023	2003.933716
2872.494141	1989.400269
2871.614258	1983.395996
2870.734375	1946.141724
2869.854492	1965.711914
2868.973633	2027.878174
2868.093750	1854.328735
2867.212891	1899.457275
2866.332031	1913.344604
2865.452148	1975.479004
2864.570313	1995.025146
2863.689453	1920.930176
2862.808594	1920.619995
2861.926758	1948.674927
2861.045898	2007.917114
2860.164063	1953.716797
2859.282227	1908.039307
2858.400391	1953.085938
2857.518555	1913.091553
2856.635742	1873.110107
2855.753906	1963.473145
2854.871094	2016.979858
2853.988281	1985.498047
2853.105469	1988.009277
2852.222656	1950.879150
2851.339844	1942.071167
2850.456055	1919.113037
2849.573242	1921.633179
2848.689453	1850.581909
2847.805664	1898.379150
2846.921875	1906.558716
2846.038086	1937.361694
2845.154297	1917.254028
2844.269531	1874.534180
2843.385742	2007.095459
2842.500977	1916.325195
2841.616211	1845.366089
2840.731445	1901.578491
2839.846680	1904.096436
2838.961914	1934.859619
2838.076172	1934.546997
2837.190430	2007.650757
2836.305664	1897.219849
2835.419922	1939.255127
2834.534180	1936.119507
2833.648438	2011.997437
2832.761719	1881.887085
2831.875977	1923.897461
2830.989258	1858.714966
2830.102539	1864.054810
2829.215820	1897.588745
2828.329102	1832.441895
2827.442383	1772.953491
2826.555664	1910.760254
2825.667969	1814.647217
2824.781250	1870.700317
2823.893555	1850.680054
2823.005859	1923.607666
2822.118164	1926.112793
2821.229492	1832.890015
2820.341797	1911.415039
2819.453125	1922.364502
2818.565430	1865.771240
2817.676758	1862.656006
2816.788086	1918.619507
2815.899414	2011.130859
2815.009766	1881.439331
2814.121094	1799.591187
2813.231445	1852.717163
2812.342773	1925.502441
2811.453125	1804.339844
2810.563477	1927.690063
2809.673828	1927.378540
2808.783203	1893.357422
2807.893555	1867.773193
2807.002930	2058.430664
2806.113281	1900.862671
2805.222656	1917.399414
2804.332031	1832.883423
2803.440430	1832.587158
2802.549805	1851.932617
2801.659180	1924.576416
2800.767578	1899.019775
2799.875977	1898.712769
2798.984375	1833.910522
2798.092773	1870.062012
2797.201172	1819.301392
2796.309570	1897.485229
2795.416992	1782.282837
2794.524414	1924.890503
2793.632813	1949.792114
2792.740234	1851.442871
2791.846680	1834.340332
2790.954102	1848.044067
2790.061523	1797.352173
2789.167969	1903.429688
2788.275391	1830.355469
2787.381836	1877.629883
2786.488281	1826.965820
2785.593750	1826.670410
2784.700195	1831.968750
2783.806641	1907.176636
2782.912109	1836.968262
2782.017578	1853.444458
2781.124023	1864.325073
2780.228516	1833.282593
2779.333984	1888.869751
2778.439453	1843.864502
2777.543945	1849.152954
2776.649414	1938.224365
2775.753906	1893.232788
2774.858398	1814.752686
2773.962891	1951.241455
2773.067383	1842.075928
2772.170898	1822.243896
2771.275391	1813.578735
2770.378906	1869.078857
2769.482422	1910.614746
2768.585938	1851.741577
2767.689453	1887.690186
2766.792969	1920.839111
2765.896484	1753.283569
2764.999023	1792.017334
2764.101563	1925.480103
2763.205078	1833.228516
2762.307617	1832.931885
2761.409180	1801.998657
2760.511719	1874.109497
2759.614258	1848.747925
2758.715820	1920.827881
2757.817383	1856.499878
2756.918945	1872.896851
2756.020508	1875.376343
2755.122070	1758.228516
2754.223633	1855.298584
2753.324219	1921.744873
2752.425781	1824.110962
2751.526367	1843.277222
2750.626953	1906.913330
2749.727539	1876.032349
2748.828125	1870.171021
2747.927734	1842.084351
2747.028320	1755.669434
2746.127930	1777.605347
2745.227539	1877.291870
2744.327148	1790.913086
2743.426758	1779.518555
2742.526367	1787.557739
2741.625000	1856.649902
2740.724609	1828.601318
2739.823242	1822.756592
2738.921875	1861.296387
2738.020508	1844.354248
2737.119141	1821.871582
2736.216797	1857.619995
2735.315430	1754.750977
2734.413086	1812.671997
2733.511719	1765.267700
2732.609375	1864.729736
2731.707031	1764.696289
2730.803711	1919.523560
2729.901367	1794.588623
2728.998047	1938.284912
2728.095703	1832.766968
2727.192383	1813.093628
2726.289063	1898.596802
2725.385742	1829.109741
2724.482422	1762.411865
2723.578125	1764.892822
2722.674805	1872.474854
2721.770508	1756.025024
2720.866211	1869.103516
2719.961914	1736.104980
2719.057617	1716.475464
2718.152344	1801.869141
2717.248047	1773.945801
2716.342773	1909.031250
2715.438477	1762.322266
2714.533203	1883.556641
2713.627930	1792.126465
2712.721680	1728.335205
2711.816406	1769.462280
2710.910156	1760.895630
2710.004883	1799.244507
2709.098633	1821.026123
2708.192383	1840.041992
2707.286133	1781.820923
2706.379883	1701.556396
2705.472656	1836.390625
2704.565430	1836.093140
2703.659180	1755.858643
2702.751953	1744.550293
2701.844727	1843.467651
2700.937500	1688.882813
2700.029297	1829.097168
2699.122070	1735.157349
2698.213867	1778.936646
2697.305664	1764.881836
2696.397461	1841.676514
2695.489258	1769.814819
2694.581055	1797.047974
2693.672852	1780.247559
2692.763672	1785.461304
2691.855469	1774.169434
2690.946289	1801.384033
2690.037109	1779.093994
2689.127930	1677.081177
2688.217773	1701.549194
2687.308594	1638.059814
2686.398438	1753.209351
2685.489258	1744.682617
2684.579102	1859.777588
2683.668945	1752.357178
2682.757813	1804.250854
2681.847656	1751.789185
2680.937500	1754.250610
2680.026367	1841.801880
2679.115234	1731.726685
2678.204102	1778.093506
2677.292969	1766.831177
2676.381836	1752.829468
2675.469727	1801.912842
2674.558594	1776.941040
2673.646484	1762.944214
2672.734375	1751.693237
2671.822266	1751.409302
2670.910156	1737.423340
2669.998047	1761.801392
2669.084961	1786.171509
2668.172852	1791.360107
2667.259766	1818.456055
2666.346680	1744.229980
2665.433594	1754.898193
2664.520508	1812.097168
2663.606445	1768.013550
2662.693359	1759.517700
2661.779297	1786.592163
2660.865234	1846.484131
2659.951172	1693.019775
2659.037109	1791.192505
2658.123047	1760.825806
2657.208008	1757.806519
2656.293945	1801.254517
2655.378906	1721.709229
2654.463867	1699.570557
2653.548828	1783.986450
2652.633789	1791.891846
2651.718750	1824.374390
2650.802734	1712.121582
2649.886719	1810.131592
2648.971680	1722.485352
2648.055664	1801.356567
2647.138672	1749.215576
2646.222656	1814.414429
2645.306641	1745.920166
2644.389648	1835.646362
2643.473633	1655.359009
2642.556641	1835.050903
2641.639648	1722.977783
2640.721680	1807.197754
2639.804688	1695.165405
2638.887695	1681.265869
2637.969727	1708.237793
2637.051758	1626.240112
2636.133789	1699.512817
2635.215820	1759.146118
2634.297852	1723.465698
2633.379883	1728.630615
2632.460938	1829.057129
2631.541992	1687.249146
2630.623047	1716.905640
2629.704102	1781.918701
2628.785156	1833.310425
2627.866211	1726.948364
2626.946289	1764.736450
2626.027344	1816.105835
2625.107422	1747.854126
2624.187500	1682.342285
2623.267578	1777.178223
2622.347656	1703.531982
2621.426758	1722.271118
2620.506836	1624.213013
2619.585938	1748.868530
2618.665039	1900.635498
2617.744141	1770.018921
2616.823242	1726.302612
2615.902344	1869.857666
2614.981445	1739.309448
2614.059570	1890.954712
2613.137695	1746.882568
2612.215820	1879.492432
2611.293945	1795.125488
2610.372070	1770.433105
2609.450195	1756.591675
2608.527344	1761.727295
2607.604492	1753.311523
2606.682617	1812.635254
2605.759766	1782.541626
2604.835938	1820.172485
2603.913086	1857.791138
2602.990234	1730.227051
2602.066406	1762.433472
2601.142578	1821.697632
2600.218750	1859.291260
2599.294922	1823.812012
2598.371094	1874.920654
2597.447266	1909.782104
2596.522461	1785.058838
2595.598633	1917.274536
2594.673828	1814.220459
2593.749023	1778.782715
2592.824219	1767.682373
2591.898438	1805.229492
2590.973633	1783.320313
2590.047852	1904.600952
2589.122070	1855.671387
2588.197266	1868.873413
2587.271484	1752.459351
2586.344727	1876.365845
2585.418945	1800.478760
2584.492188	1789.390625
2583.566406	1751.321045
2582.639648	1904.825684
2581.712891	1874.842529
2580.786133	1852.960571
2579.858398	1771.757324
2578.931641	1825.395508
2578.003906	1849.361816
2577.077148	1792.457397
2576.149414	1754.436401
2575.221680	1770.318726
2574.292969	1764.642822
2573.365234	1775.130859
2572.437500	1764.069458
2571.508789	1739.547729
2570.580078	1776.958130
2569.651367	1776.669434
2568.722656	1741.391357
2567.793945	1738.417358
2566.864258	1829.615723
2565.935547	1786.275635
2565.005859	1815.572388
2564.076172	1812.588135
2563.146484	1739.694214
2562.216797	1704.462036
2561.286133	1731.064941
2560.356445	1806.035034
2559.425781	1794.993042
2558.495117	1835.001465
2557.564453	1764.860962
2556.633789	1796.803833
2555.703125	1766.972656
2554.771484	1815.014282
2553.839844	1750.291382
2552.909180	1709.745972
2551.977539	1765.824097
2551.045898	1754.804321
2550.113281	1735.739746
2549.181641	1756.916138
2548.249023	1705.674805
2547.317383	1713.441895
2546.384766	1726.568359
2545.452148	1710.204224
2544.519531	1846.613037
2543.585938	1717.687256
2542.653320	1728.125122
2541.719727	1808.208984
2540.786133	1682.030518
2539.853516	1748.705933
2538.918945	1732.356445
2537.985352	1702.626831
2537.051758	1664.876831
2536.117188	1728.835327
2535.182617	1747.284668
2534.249023	1717.571655
2533.313477	1749.391235
2532.378906	1700.966187
2531.444336	1698.015625
2530.508789	1767.253174
2529.574219	1705.482788
2528.638672	1809.442139
2527.703125	1750.357178
2526.767578	1790.150513
2525.832031	1736.430664
2524.895508	1690.741333
2523.959961	1645.066772
2523.023438	1719.562744
2522.086914	1700.595093
2521.150391	1751.034424
2520.213867	1756.087280
2519.276367	1683.755005
2518.339844	1694.152954
2517.402344	1685.874756
2516.464844	1736.275146
2515.527344	1797.325806
2514.589844	1703.715576
2513.652344	1695.441040
2512.713867	1676.507690
2511.776367	1660.245361
2510.837891	1689.284546
2509.899414	1659.705078
2508.960938	1662.098633
2508.021484	1789.661133
2507.083008	1693.510864
2506.143555	1645.313477
2505.205078	1629.074463
2504.265625	1729.944580
2503.326172	1663.137451
2502.386719	1700.115112
2501.446289	1737.080566
2500.506836	1795.311646
2499.566406	1760.448730
2498.625977	1749.526733
2497.685547	1661.514038
2496.745117	1717.061401
2495.804688	1727.412109
2494.863281	1626.160278
2493.922852	1790.610474
2492.981445	1681.412354
2492.040039	1720.975952
2491.098633	1699.452637
2490.157227	1746.965332
2489.214844	1600.681763
2488.273438	1759.667114
2487.331055	1626.697266
2486.388672	1719.295654
2485.446289	1703.098877
2484.503906	1689.559814
2483.561523	1729.063721
2482.618164	1614.767456
2481.675781	1667.526001
2480.732422	1704.363403
2479.789063	1621.929321
2478.845703	1738.255615
2477.902344	1740.621826
2476.958008	1660.870850
2476.013672	1687.085327
2475.070313	1710.643066
2474.125977	1628.288086
2473.181641	1725.968994
2472.237305	1643.638306
2471.291992	1709.528809
2470.347656	1598.122681
2469.402344	1658.708130
2468.457031	1698.113525
2467.511719	1626.432617
2466.566406	1668.474487
2465.621094	1744.871216
2464.674805	1617.707886
2463.728516	1662.373413
2462.783203	1728.163940
2461.836914	1545.582886
2460.890625	1672.127441
2459.943359	1735.242920
2458.997070	1653.097534
2458.049805	1721.476074
2457.103516	1631.439941
2456.156250	1728.833496
2455.208984	1601.879272
2454.260742	1633.281250
2453.313477	1672.587280
2452.365234	1714.518311
2451.417969	1672.042236
2450.469727	1621.669434
2449.521484	1716.316650
2448.573242	1687.041016
2447.624023	1747.384155
2446.675781	1704.937134
2445.726563	1599.270752
2444.778320	1685.941528
2443.829102	1683.032837
2442.878906	1682.758545
2441.929688	1695.649292
2440.980469	1698.005371
2440.030273	1731.946411
2439.080078	1734.295776
2438.129883	1678.756226
2437.179688	1625.865601
2436.229492	1649.274292
2435.279297	1680.565430
2434.328125	1714.475708
2433.377930	1635.322144
2432.426758	1653.456543
2431.475586	1629.532471
2430.523438	1629.266724
2429.572266	1629.001099
2428.621094	1655.005493
2427.668945	1610.083984
2426.716797	1657.091919
2425.764648	1669.950317
2424.812500	1622.422974
2423.860352	1643.157227
2422.907227	1614.020630
2421.955078	1571.773438
2421.001953	1705.319092
2420.048828	1747.011230
2419.095703	1644.440552
2418.142578	1652.039185
2417.188477	1591.467041
2416.235352	1669.850342
2415.281250	1724.619019
2414.327148	1606.411865
2413.373047	1619.250610
2412.418945	1579.690674
2411.463867	1639.676758
2410.509766	1613.220581
2409.554688	1626.049683
2408.599609	1523.682007
2407.644531	1659.547729
2406.689453	1580.762329
2405.734375	1624.988770
2404.778320	1590.711792
2403.822266	1721.245972
2402.867188	1658.194458
2401.912109	1603.008423
2400.955078	1621.049072
2399.998047	1688.752930
2399.042969	1641.430054
2398.085938	1599.349121
2397.128906	1664.410400
2396.171875	1551.802856
2395.214844	1637.746826
2394.257813	1608.751831
2393.300781	1634.601196
2392.341797	1608.226807
2391.384766	1652.339966
2390.427734	1581.602783
2389.468750	1583.954224
2388.509766	1604.568115
2387.552734	1604.306152
2386.593750	1591.003296
2385.634766	1564.665894
2384.675781	1600.913330
2383.716797	1564.155151
2382.757813	1553.473755
2381.798828	1576.674805
2380.839844	1665.009521
2379.878906	1518.845215
2378.919922	1505.573242
2377.960938	1606.897949
2377.000000	1567.576416
2376.039063	1564.716919
2375.080078	1608.714111
2374.119141	1631.875488
2373.158203	1600.382080
2372.197266	1571.500732
2371.236328	1667.495850
2370.275391	1492.958374
2369.314453	1586.334229
2368.351563	1586.075195
2367.390625	1598.814697
2366.429688	1562.163818
2365.466797	1598.292480
2364.503906	1608.425171
2363.542969	1519.830444
2362.580078	1576.728882
2361.617188	1558.291382
2360.654297	1604.777954
2359.691406	1482.489502
2358.728516	1554.932007
2357.765625	1539.105225
2356.802734	1531.068726
2355.837891	1564.548584
2354.875000	1553.916260
2353.910156	1605.537598
2352.947266	1568.968628
2351.982422	1620.570557
2351.017578	1524.383667
2350.054688	1563.015625
2349.089844	1588.676636
2348.125000	1565.096069
2347.160156	1518.206055
2346.195313	1505.006104
2345.228516	1566.918945
2344.263672	1579.610596
2343.298828	1470.610107
2342.332031	1496.256592
2341.367188	1459.776489
2340.400391	1596.693115
2339.433594	1552.446167
2338.468750	1526.322632
2337.501953	1616.602905
2336.535156	1499.962280
2335.568359	1528.160034
2334.601563	1561.519165
2333.632813	1543.169800
2332.666016	1659.217896
2331.699219	1697.707031
2330.730469	1805.941040
2329.763672	1720.400757
2328.794922	1776.940308
2327.828125	1665.609131
2326.859375	1727.302856
2325.890625	1556.641846
2324.921875	1520.252319
2323.953125	1450.326172
2322.984375	1592.001587
2322.015625	1504.027832
2321.046875	1529.575806
2320.076172	1462.272583
2319.107422	1534.232666
2318.136719	1523.669312
2317.167969	1500.220947
2316.197266	1479.357422
2315.226563	1481.692261
2314.257813	1432.497681
2313.287109	1494.087769
2312.316406	1542.779663
2311.345703	1491.023926
2310.375000	1495.929565
2309.402344	1472.515991
2308.431641	1431.092529
2307.460938	1497.769165
2306.488281	1466.647339
2305.517578	1497.279175
2304.544922	1551.051025
2303.572266	1473.643188
2302.601563	1491.401733
2301.628906	1488.586792
2300.656250	1467.778931
2299.683594	1526.651611
2298.710938	1544.389771
2297.736328	1508.167114
2296.763672	1479.662964
2295.791016	1481.989258
2294.816406	1497.154907
2293.843750	1548.261841
2292.869141	1463.291626
2291.896484	1493.853271
2290.921875	1488.476196
2289.947266	1454.875610
2288.972656	1490.554565
2287.998047	1544.177246
2287.023438	1482.372681
2286.048828	1410.331421
2285.072266	1476.759888
2284.097656	1438.067261
2283.123047	1455.772705
2282.146484	1509.348145
2281.171875	1550.095459
2280.195313	1583.144043
2279.218750	1442.013306
2278.242188	1477.629639
2277.265625	1510.673706
2276.289063	1456.665527
2275.312500	1507.619507
2274.335938	1435.714966
2273.359375	1535.272583
2272.382813	1458.270142
2271.404297	1447.799561
2270.427734	1404.084473
2269.449219	1495.910645
2268.472656	1511.005859
2267.494141	1413.619995
2266.515625	1354.603882
2265.537109	1428.489746
2264.558594	1461.471069
2263.580078	1387.148315
2262.601563	1404.800415
2261.623047	1379.032715
2260.642578	1442.640503
2259.664063	1439.851318
2258.685547	1419.195435
2257.705078	1447.035889
2256.724609	1469.764038
2255.746094	1375.126831
2254.765625	1441.223267
2253.785156	1451.188965
2252.804688	1461.151245
2251.824219	1427.767212
2250.843750	1501.459229
2249.863281	1478.274414
2248.880859	1467.838989
2247.900391	1442.119385
2246.919922	1482.642944
2245.937500	1500.229614
2244.955078	1484.703857
2243.974609	1402.980713
2242.992188	1471.488159
2242.009766	1455.974609
2241.027344	1532.085815
2240.044922	1407.150513
2239.062500	1460.347290
2238.080078	1437.214355
2237.097656	1409.002197
2236.113281	1502.858887
2235.130859	1436.507813
2234.146484	1461.693115
2233.164063	1380.120483
2232.179688	1501.873901
2231.195313	1463.515381
2230.210938	1432.790527
2229.226563	1379.215820
2228.242188	1521.206055
2227.257813	1404.155273
2226.273438	1454.699951
2225.289063	1568.686279
2224.302734	1487.215942
2223.318359	1398.159790
2222.332031	1387.782227
2221.347656	1524.534424
2220.361328	1412.689697
2219.375000	1402.314697
2218.390625	1455.328491
2217.404297	1411.994873
2216.417969	1419.367065
2215.429688	1492.625244
2214.443359	1439.171631
2213.457031	1492.135742
2212.470703	1360.179077
2211.482422	1385.281006
2210.496094	1397.714355
2209.507813	1410.143433
2208.521484	1359.286987
2207.533203	1404.619263
2206.544922	1363.901978
2205.556641	1391.508423
2204.568359	1441.872192
2203.580078	1434.048096
2202.591797	1423.697754
2201.601563	1441.162720
2200.613281	1408.063110
2199.625000	1347.171387
2198.634766	1341.896240
2197.646484	1437.690552
2196.656250	1414.718140
2195.666016	1391.753174
2194.675781	1409.203003
2193.685547	1411.496826
2192.695313	1401.166748
2191.705078	1501.905151
2190.714844	1395.659302
2189.724609	1392.906860
2188.734375	1463.321411
2187.742188	1430.288086
2186.751953	1389.699097
2185.759766	1424.775146
2184.767578	1454.797119
2183.777344	1396.577637
2182.785156	1373.664063
2181.792969	1380.998779
2180.800781	1363.134521
2179.808594	1362.910767
2178.816406	1443.289673
2177.822266	1415.350098
2176.830078	1415.117798
2175.837891	1384.674438
2174.843750	1404.584473
2173.849609	1434.555054
2172.857422	1336.181885
2171.863281	1376.217529
2170.869141	1378.507080
2169.875000	1363.190063
2168.880859	1420.804321
2167.886719	1413.028076
2166.892578	1342.407715
2165.898438	1384.916016
2164.902344	1407.306030
2163.908203	1359.334839
2162.912109	1487.234863
2161.917969	1431.730835
2160.921875	1338.574097
2159.925781	1363.464111
2158.931641	1418.472656
2157.935547	1317.833374
2156.939453	1420.516479
2155.943359	1329.947144
2154.945313	1322.201904
2153.949219	1362.120850
2152.953125	1331.799927
2151.955078	1361.673462
2150.958984	1373.986084
2149.960938	1376.267212
2148.964844	1393.586304
2147.966797	1348.248657
2146.968750	1365.566528
2145.970703	1372.857788
2144.972656	1352.593750
2143.974609	1324.823242
2142.976563	1392.213013
2141.976563	1376.962769
2140.978516	1354.208130
2139.980469	1298.925171
2138.980469	1383.791016
2137.980469	1388.567505
2136.982422	1415.855957
2135.982422	1338.089111
2134.982422	1305.360229
2133.982422	1355.151245
2132.982422	1277.432617
2131.982422	1357.205200
2130.982422	1361.980225
2129.982422	1361.756348
2128.980469	1421.489868
2127.980469	1351.317383
2126.978516	1306.141968
2125.978516	1315.915283
2124.976563	1390.596436
2123.974609	1288.024658
2122.972656	1405.113770
2121.970703	1320.040771
2120.968750	1359.742798
2119.966797	1394.442627
2118.964844	1379.248657
2117.962891	1371.540649
2116.958984	1408.714600
2115.957031	1405.990112
2114.953125	1410.743896
2113.951172	1425.464233
2112.947266	1308.121826
2111.943359	1342.784180
2110.939453	1317.654907
2109.935547	1367.246826
2108.931641	1294.811279
2107.927734	1364.307495
2106.923828	1393.953491
2105.919922	1393.724121
2104.914063	1276.540894
2103.910156	1288.770752
2102.904297	1368.160767
2101.898438	1395.294434
2100.894531	1327.922729
2099.888672	1335.163208
2098.882813	1250.421997
2097.876953	1344.666016
2096.871094	1319.593628
2095.865234	1366.585938
2094.859375	1274.442139
2093.851563	1328.877930
2092.845703	1251.671509
2091.837891	1333.406738
2090.832031	1308.360718
2089.824219	1323.038940
2088.816406	1315.375610
2087.810547	1359.824951
2086.802734	1342.233887
2085.794922	1332.090576
2084.787109	1361.633789
2083.777344	1324.212646
2082.769531	1289.283203
2081.761719	1358.482544
2080.751953	1348.344604
2079.744141	1318.384644
2078.734375	1300.823242
2077.726563	1260.971558
2076.716797	1260.763916
2075.707031	1295.227783
2074.697266	1270.253296
2073.687500	1309.655640
2072.677734	1341.619141
2071.667969	1284.475342
2070.656250	1274.365845
2069.646484	1293.948730
2068.636719	1259.104126
2067.625000	1271.263184
2066.613281	1342.766968
2065.603516	1379.632690
2064.591797	1315.132080
2063.580078	1250.652710
2062.568359	1314.698975
2061.556641	1297.186523
2060.544922	1343.911011
2059.533203	1249.828979
2058.519531	1308.893677
2057.507813	1325.962524
2056.496094	1296.118530
2055.482422	1320.588989
2054.468750	1216.716064
2053.457031	1310.283569
2052.443359	1327.337891
2051.429688	1250.649536
2050.416016	1272.640625
2049.402344	1240.373535
2048.388672	1311.670044
2047.375000	1304.058472
2046.359375	1321.096680
2045.345703	1350.450928
2044.330078	1293.558228
2043.316406	1276.100464
2042.300781	1300.521240
2041.285156	1287.993408
2040.269531	1282.856445
2039.255859	1230.945313
2038.240234	1270.126221
2037.222656	1292.066528
2036.207031	1272.168213
2035.191406	1313.783081
2034.175781	1229.931152
2033.158203	1293.674316
2032.142578	1310.674438
2031.125000	1290.789185
2030.107422	1268.452148
2029.091797	1268.243042
2028.074219	1309.810303
2027.056641	1316.965454
2026.039063	1306.921753
2025.021484	1218.282593
2024.001953	1269.653687
2022.984375	1311.186157
2021.966797	1269.234985
2020.947266	1313.208374
2019.929688	1244.274536
2018.910156	1219.531494
2017.890625	1268.397949
2016.871094	1287.812500
2015.853516	1253.264160
2014.833984	1253.057373
2013.812500	1319.048340
2012.792969	1277.157715
2011.773438	1299.005615
2010.753906	1264.483643
2009.732422	1249.574097
2008.712891	1229.770142
2007.691406	1290.800659
2006.671875	1266.098389
2005.650391	1278.132080
2004.628906	1246.095581
2003.607422	1285.053589
2002.585938	1284.841553
2001.564453	1250.372681
2000.542969	1193.896729
1999.519531	1210.822388
1998.498047	1274.210815
1997.476563	1229.985229
1996.453125	1222.447510
1995.429688	1234.468262
1994.408203	1170.718262
1993.384766	1207.180298
1992.361328	1216.754150
1991.337891	1265.410889
1990.314453	1309.166626
1989.291016	1228.362183
1988.267578	1252.576050
1987.242188	1269.458130
1986.218750	1205.786133
1985.193359	1134.813721
1984.169922	1244.428955
1983.144531	1153.956299
1982.119141	1244.018066
1981.095703	1221.863037
1980.070313	1207.030640
1979.044922	1172.698730
1978.019531	1231.008545
1976.992188	1089.445435
1975.966797	1208.670410
1974.941406	1215.780151
1973.914063	1183.911011
1972.888672	1220.249878
1971.861328	1190.825684
1970.833984	1241.760254
1969.808594	1248.858521
1968.781250	1217.009888
1967.753906	1155.968506
1966.726563	1253.106201
1965.699219	1257.764771
1964.669922	1238.097778
1963.642578	1198.981079
1962.615234	1249.846802
1961.585938	1196.153687
1960.558594	1125.462769
1959.529297	1227.353760
1958.500000	1241.731079
1957.470703	1178.356201
1956.441406	1195.165894
1955.412109	1204.683594
1954.382813	1192.342651
1953.353516	1153.297607
1952.324219	1228.362549
1951.294922	1174.761230
1950.263672	1176.993896
1949.234375	1232.606323
1948.203125	1196.012817
1947.171875	1186.112793
1946.140625	1195.617554
1945.111328	1151.773682
1944.080078	1238.861206
1943.046875	1267.744263
1942.015625	1175.438477
1940.984375	1189.783325
1939.953125	1245.310669
1938.919922	1143.364746
1937.888672	1230.367065
1936.855469	1176.888794
1935.824219	1203.327271
1934.791016	1191.024414
1933.757813	1227.133179
1932.724609	1161.590820
1931.691406	1180.755371
1930.658203	1204.751953
1929.625000	1233.578003
1928.591797	1170.496216
1927.556641	1126.778931
1926.523438	1213.625488
1925.488281	1179.584229
1924.455078	1208.390503
1923.419922	1164.695801
1922.384766	1147.591309
1921.349609	1190.881958
1920.314453	1161.702759
1919.279297	1282.249756
1918.244141	1170.976074
1917.208984	1221.475952
1916.171875	1175.415771
1915.136719	1209.005981
1914.099609	1257.061646
1913.064453	1201.368774
1912.027344	1210.817993
1910.990234	1193.736450
1909.955078	1159.782349
1908.917969	1227.092529
1907.880859	1197.964844
1906.841797	1173.666626
1905.804688	1154.195679
1904.767578	1214.234497
1903.730469	1194.763184
1902.691406	1143.989136
1901.652344	1237.711792
1900.615234	1235.099243
1899.576172	1157.864380
1898.537109	1152.859131
1897.498047	1176.732300
1896.458984	1183.755615
1895.419922	1217.238159
1894.380859	1178.553223
1893.341797	1156.714844
1892.300781	1170.949829
1891.261719	1214.028320
1890.220703	1209.020020
1889.181641	1182.384399
1888.140625	1107.701172
1887.099609	1165.175903
1886.058594	1162.580933
1885.019531	1135.970581
1883.976563	1123.776245
1882.935547	1171.606812
1881.894531	1145.008057
1880.853516	1161.618652
1879.810547	1156.626953
1878.769531	1190.024902
1877.726563	1161.041626
1876.685547	1153.653931
1875.642578	1151.064819
1874.599609	1136.488159
1873.556641	1196.231323
1872.513672	1210.414429
1871.470703	1171.870483
1870.427734	1176.468506
1869.382813	1176.273560
1868.339844	1207.217163
1867.294922	1161.514526
1866.251953	1151.744141
1865.207031	1165.917847
1864.164063	1146.575195
1863.119141	1222.970459
1862.074219	1141.409424
1861.029297	1117.295288
1859.984375	1121.894409
1858.937500	1191.067749
1857.892578	1090.435547
1856.847656	1059.172974
1855.800781	1111.588745
1854.755859	1154.426636
1853.708984	1132.727783
1852.664063	1106.257446
1851.617188	1144.296875
1850.570313	1139.330200
1849.523438	1060.332764
1848.476563	1124.625977
1847.429688	1184.123169
1846.380859	1150.509644
1845.333984	1021.444946
1844.287109	1138.197388
1843.238281	1078.364502
1842.189453	1190.297974
1841.142578	1166.250854
1840.093750	1144.596313
1839.044922	1127.717285
1837.996094	1110.843750
1836.947266	1024.857544
1835.898438	1139.071289
1834.849609	1138.882324
1833.798828	1095.813843
1832.750000	1126.595581
1831.701172	1083.543213
1830.650391	1102.411621
1829.599609	1140.318726
1828.550781	1063.962280
1827.500000	1085.204346
1826.449219	1077.885986
1825.398438	1108.634644
1824.347656	1125.101318
1823.294922	1158.210205
1822.244141	1153.262329
1821.193359	1086.501953
1820.140625	1091.075806
1819.089844	1086.141357
1818.037109	1095.466309
1816.984375	1147.554077
1815.931641	1125.984131
1814.878906	1047.419067
1813.826172	1066.242798
1812.773438	1092.183350
1811.720703	1151.349976
1810.667969	1004.000427
1809.613281	1096.385864
1808.560547	1065.358276
1807.505859	1122.117676
1806.453125	1114.815552
1805.398438	1138.345947
1804.343750	1083.620361
1803.289063	1069.215820
1802.234375	1076.149414
1801.179688	1085.450684
1800.125000	1073.422485
1799.070313	1113.520630
1798.013672	1129.917236
1796.958984	1158.150513
1795.904297	1141.382080
1794.847656	1131.722168
1793.791016	1098.392944
1792.734375	1183.416626
1791.677734	1142.990601
1790.621094	1112.042114
1789.564453	1057.447388
1788.507813	1121.133789
1787.451172	1175.339600
1786.394531	1116.032471
1785.335938	1089.842163
1784.279297	1106.206909
1783.220703	1136.746094
1782.162109	1195.629761
1781.105469	1089.118164
1780.046875	1100.747803
1778.988281	1138.352539
1777.929688	1152.331421
1776.869141	1095.477295
1775.810547	1149.587891
1774.751953	1069.151611
1773.691406	1132.687622
1772.632813	1120.702515
1771.572266	1111.080322
1770.513672	1096.744141
1769.453125	1160.233154
1768.392578	1094.021851
1767.332031	1124.486328
1766.271484	1133.727539
1765.210938	1126.469238
1764.150391	1102.719604
1763.087891	1060.130981
1762.027344	1109.419312
1760.964844	1116.300171
1759.904297	1144.370605
1758.841797	1104.157593
1757.779297	1111.035645
1756.716797	1070.841431
1755.654297	1044.779297
1754.591797	1105.776123
1753.529297	1126.763184
1752.466797	1096.000732
1751.404297	1140.497803
1750.339844	1123.849976
1749.277344	1100.155518
1748.212891	1092.921509
1747.148438	1062.189941
1746.085938	1151.297607
1745.021484	1148.756958
1743.957031	1038.171997
1742.892578	1141.329590
1741.828125	1021.390503
1740.761719	1112.778320
1739.697266	1121.982178
1738.632813	1126.489258
1737.566406	1034.789795
1736.501953	1027.579468
1735.435547	1069.630737
1734.369141	1062.416870
1733.302734	1071.619751
1732.236328	1022.206665
1731.169922	1045.477783
1730.103516	1049.991333
1729.037109	1143.550171
1727.970703	1021.526428
1726.902344	1028.384155
1725.835938	1089.109375
1724.767578	1084.244629
1723.699219	1041.919067
1722.632813	1074.519653
1721.564453	1137.537354
1720.496094	1050.759766
1719.427734	1078.662842
1718.359375	1092.519897
1717.289063	1082.981812
1716.220703	1047.721558
1715.152344	1096.651001
1714.082031	1117.509399
1713.013672	995.773438
1711.943359	1068.057983
1710.873047	1053.859863
1709.802734	1044.338989
1708.732422	1109.571411
1707.662109	1102.380005
1706.591797	1099.861328
1705.521484	1043.643555
1704.449219	1076.151123
1703.378906	1040.962036
1702.308594	1064.124634
1701.236328	1042.948486
1700.164063	1143.086426
1699.093750	1084.584961
1698.021484	1049.423584
1696.949219	1044.585449
1695.876953	1046.742676
1694.802734	1030.252075
1693.730469	1051.054932
1692.658203	1022.918518
1691.583984	983.142761
1690.511719	1106.433716
1689.437500	1001.446777
1688.365234	1019.908325
1687.291016	1010.425720
1686.216797	1003.273987
1685.142578	1089.220337
1684.068359	1026.209717
1682.994141	1086.530762
1681.919922	1107.285767
1680.843750	1037.325928
1679.769531	1025.525757
1678.693359	1002.104126
1677.619141	1018.209839
1676.542969	999.445801
1675.466797	1031.813843
1674.390625	1112.964966
1673.314453	1052.378052
1672.238281	1089.366455
1671.162109	1045.060059
1670.085938	1077.393433
1669.007813	986.672058
1667.931641	1070.070557
1666.853516	1007.230347
1665.777344	1090.597534
1664.699219	1076.495483
1663.621094	1053.119507
1662.542969	1066.859375
1661.464844	1066.681519
1660.386719	1119.828735
1659.308594	1022.281799
1658.230469	1089.324951
1657.152344	1103.047241
1656.072266	1070.426025
1654.994141	1070.247559
1653.914063	1039.958862
1652.833984	1021.259094
1651.753906	1060.450439
1650.673828	1134.353760
1649.593750	1113.332886
1648.513672	1184.888428
1647.433594	1066.684448
1646.353516	1068.819946
1645.271484	1112.589966
1644.191406	1061.525146
1643.109375	1100.657227
1642.029297	1063.482788
1640.947266	1183.505127
1639.865234	1072.372437
1638.783203	1106.854980
1637.701172	1028.117432
1636.619141	1122.655396
1635.537109	1122.468018
1634.455078	1064.550171
1633.371094	1082.843140
1632.289063	1080.353882
1631.205078	1112.486450
1630.123047	1091.531616
1629.039063	1100.578613
1627.955078	1125.770752
1626.871094	1162.487183
1625.787109	1037.761719
1624.703125	1152.875977
1623.619141	1125.019043
1622.533203	1094.866455
1621.449219	1076.246826
1620.363281	1149.801880
1619.279297	1015.987915
1618.193359	1096.438721
1617.107422	1144.619751
1616.021484	1107.585815
1614.935547	1013.007019
1613.849609	1008.234009
1612.763672	1063.302002
1611.677734	1010.198303
1610.591797	1090.555908
1609.503906	1076.571411
1608.417969	1023.492004
1607.330078	1007.223816
1606.242188	1004.756348
1605.156250	1059.760376
1604.068359	974.540833
1602.980469	1006.550842
1601.892578	994.894226
1600.802734	1017.700928
1599.714844	996.858704
1598.626953	1049.512207
1597.537109	1042.448364
1596.449219	1023.908081
1595.359375	980.124817
1594.269531	1007.500854
1593.181641	945.378113
1592.091797	1014.046753
1591.001953	997.820374
1589.910156	1036.642334
1588.820313	1077.744385
1587.730469	1050.051880
1586.640625	971.937927
1585.548828	958.023865
1584.458984	999.111450
1583.367188	953.121216
1582.275391	966.706482
1581.183594	1019.223877
1580.091797	1019.053406
1579.000000	979.959351
1577.908203	1002.687927
1576.816406	981.920471
1575.724609	963.448486
1574.630859	1077.692017
1573.539063	960.838501
1572.445313	985.838379
1571.351563	990.247375
1570.259766	964.929565
1569.166016	1003.633179
1568.072266	987.464722
1566.978516	982.728699
1565.882813	957.428894
1564.789063	996.107788
1563.695313	1005.078186
1562.599609	938.677307
1561.505859	1011.592407
1560.410156	1022.838745
1559.314453	1013.536621
1558.220703	1013.367004
1557.125000	960.711975
1556.029297	1124.825928
1554.933594	1106.388062
1553.835938	1037.777954
1552.740234	1019.360657
1551.644531	1067.071411
1550.546875	1028.138184
1549.451172	1037.083252
1548.353516	1009.562622
1547.255859	982.051147
1546.158203	1011.502808
1545.060547	993.111206
1543.962891	981.557983
1542.865234	1017.825867
1541.767578	994.889099
1540.669922	1051.628906
1539.570313	978.624878
1538.472656	980.736450
1537.373047	1001.048218
1536.273438	930.364014
1535.175781	1005.261658
1534.076172	991.449524
1532.976563	961.726807
1531.876953	934.287292
1530.775391	961.404724
1529.675781	1002.147644
1528.576172	890.648682
1527.474609	899.586243
1526.375000	965.303284
1525.273438	933.348694
1524.171875	999.037964
1523.072266	919.414978
1521.970703	946.498291
1520.869141	873.718933
1519.767578	946.181152
1518.664063	911.993042
1517.562500	970.814941
1516.460938	882.204956
1515.357422	977.292053
1514.253906	922.717407
1513.152344	899.895386
1512.048828	924.674500
1510.945313	904.125732
1509.841797	958.348572
1508.738281	949.127075
1507.634766	901.406311
1506.531250	880.875061
1505.425781	880.727417
1504.322266	878.316040
1503.216797	878.168823
1502.113281	880.284485
1501.007813	895.974854
1499.902344	895.824646
1498.796875	893.412598
1497.691406	913.615601
1496.585938	924.767639
1495.480469	897.484558
1494.375000	938.019226
1493.267578	933.342102
1492.162109	906.071228
1491.054688	917.215027
1489.947266	887.697144
1488.841797	878.514648
1487.734375	887.399353
1486.626953	921.115051
1485.519531	918.703247
1484.412109	889.209717
1483.302734	900.343079
1482.195313	848.301208
1481.087891	929.365601
1479.978516	917.932861
1478.869141	859.149231
1477.761719	908.606445
1476.652344	944.521606
1475.542969	910.555359
1474.433594	867.586609
1473.324219	842.656982
1472.214844	925.866028
1471.103516	894.177917
1469.994141	885.020020
1468.882813	898.380920
1467.773438	889.225342
1466.662109	925.089294
1465.550781	897.928589
1464.441406	884.277466
1463.330078	875.130249
1462.218750	890.728516
1461.105469	899.574707
1459.994141	888.180908
1458.882813	921.754456
1457.769531	865.404602
1456.658203	919.197510
1455.544922	905.560913
1454.431641	891.928772
1453.320313	858.084595
1452.207031	907.350647
1451.093750	873.515137
1449.980469	904.800720
1448.865234	927.096619
1447.751953	891.030334
1446.638672	866.196350
1445.523438	901.949341
1444.410156	821.039795
1443.294922	879.217285
1442.179688	901.494812
1441.064453	816.141785
1439.949219	876.532471
1438.833984	887.592163
1437.718750	833.658630
1436.603516	918.662903
1435.486328	940.911194
1434.371094	886.995728
1433.253906	886.846680
1432.138672	839.675781
1431.021484	888.787354
1429.904297	888.638000
1428.787109	904.154724
1427.669922	904.002747
1426.552734	899.376282
1425.435547	885.803833
1424.316406	905.783447
1423.199219	898.922791
1422.080078	927.836426
1420.962891	923.209656
1419.843750	900.704468
1418.724609	900.553040
1417.605469	922.744080
1416.486328	866.742188
1415.367188	906.799316
1414.248047	888.781921
1413.128906	913.192627
1412.009766	888.482971
1410.888672	919.581482
1409.767578	872.562805
1408.648438	881.341064
1407.527344	829.882874
1406.406250	805.207825
1405.285156	867.515686
1404.164063	936.491760
1403.042969	856.077026
1401.921875	878.222900
1400.798828	860.246216
1399.677734	909.122864
1398.554688	904.514160
1397.433594	821.944702
1396.310547	848.531860
1395.187500	857.296021
1394.064453	859.378113
1392.941406	848.103577
1391.818359	870.217041
1390.695313	874.521057
1389.572266	854.350037
1388.447266	838.634766
1387.324219	840.717773
1386.199219	836.128784
1385.074219	864.891846
1383.951172	931.436218
1382.826172	875.713806
1381.701172	840.010376
1380.576172	826.537720
1379.449219	839.727600
1378.324219	828.480591
1377.199219	899.405212
1376.072266	828.201599
1374.947266	828.062134
1373.820313	827.922729
1372.693359	889.922485
1371.566406	809.892822
1370.439453	845.252563
1369.312500	787.438660
1368.185547	882.669861
1367.058594	822.651672
1365.931641	831.381165
1364.802734	815.724609
1363.675781	811.154663
1362.546875	813.233948
1361.417969	844.114258
1360.289063	821.820557
1359.160156	828.326416
1358.031250	843.687683
1356.902344	761.626404
1355.773438	881.035583
1354.644531	847.687866
1353.513672	812.138428
1352.384766	851.827271
1351.253906	862.744568
1350.123047	847.116638
1348.994141	796.111206
1347.863281	824.720642
1346.732422	789.210815
1345.601563	828.863220
1344.468750	870.712158
1343.337891	899.289673
1342.207031	852.745178
1341.074219	821.678040
1339.943359	821.539551
1338.810547	839.065552
1337.677734	755.031677
1336.544922	907.209656
1335.412109	845.262085
1334.279297	787.748474
1333.146484	825.121155
1332.013672	855.863708
1330.878906	796.171875
1329.746094	760.756165
1328.611328	855.430786
1327.478516	813.403931
1326.343750	879.385986
1325.208984	813.129517
1324.074219	782.147156
1322.939453	830.478088
1321.804688	812.718140
1320.669922	781.751404
1319.533203	775.014282
1318.398438	816.709595
1317.261719	798.963806
1316.126953	814.233398
1314.990234	767.890564
1313.853516	774.360657
1312.716797	822.619385
1311.580078	743.311279
1310.443359	749.782166
1309.306641	765.044434
1308.167969	786.895691
1307.031250	780.169861
1305.892578	843.759644
1304.755859	823.844910
1303.617188	808.330017
1302.478516	814.782104
1301.339844	788.294861
1300.201172	799.138977
1299.062500	755.102722
1297.923828	796.674438
1296.783203	785.568298
1295.644531	796.405457
1294.503906	726.076294
1293.365234	767.624756
1292.224609	745.566711
1291.083984	752.018188
1289.943359	754.083313
1288.802734	773.681519
1287.662109	736.297729
1286.521484	716.454407
1285.380859	751.383362
1284.238281	720.592896
1283.097656	819.015869
1281.955078	768.518738
1280.814453	783.712952
1279.671875	746.371399
1278.529297	779.071350
1277.386719	800.820007
1276.244141	800.684753
1275.101563	828.984253
1273.957031	796.040344
1272.814453	778.413391
1271.669922	830.750244
1270.527344	767.221252
1269.382813	806.429565
1268.238281	795.367920
1267.093750	766.832275
1265.949219	744.859314
1264.804688	794.964661
1263.660156	781.728699
1262.515625	759.764282
1261.369141	774.915833
1260.224609	838.077148
1259.078125	794.292969
1257.933594	824.703247
1256.787109	726.401489
1255.640625	763.355957
1254.494141	778.491394
1253.347656	773.999207
1252.201172	819.646423
1251.052734	751.942017
1249.906250	786.681641
1248.759766	836.661072
1247.611328	775.523376
1246.462891	858.158813
1245.316406	816.637329
1244.167969	807.789917
1243.019531	842.484680
1241.871094	857.578308
1240.720703	770.384155
1239.572266	826.826172
1238.423828	861.494080
1237.273438	865.698608
1236.125000	776.387207
1234.974609	843.661804
1233.824219	895.695496
1232.673828	839.028992
1231.525391	851.926697
1230.373047	860.474182
1229.222656	849.465820
1228.072266	825.428101
1226.921875	838.319275
1225.769531	892.463501
1224.619141	822.837952
1223.466797	840.064331
1222.314453	870.306946
1221.162109	811.570313
1220.009766	859.164246
1218.857422	880.711182
1217.705078	837.184631
1216.552734	808.852356
1215.398438	778.361450
1214.246094	851.933838
1213.091797	879.965820
1211.939453	879.816833
1210.785156	862.334473
1209.630859	881.685181
1208.476563	914.024841
1207.322266	894.379944
1206.167969	909.384888
1205.013672	909.230835
1203.857422	898.254456
1202.703125	917.579224
1201.546875	880.640320
1200.392578	897.798035
1199.236328	906.297974
1198.080078	964.535583
1196.923828	964.372192
1195.767578	929.618347
1194.611328	944.591553
1193.453125	1007.105469
1192.296875	993.969971
1191.140625	963.555359
1189.982422	965.552185
1188.824219	1030.179688
1187.667969	1055.917114
1186.509766	952.107483
1185.351563	1023.180115
1184.193359	1012.215515
1183.033203	1029.306885
1181.875000	1067.967651
1180.716797	1063.472290
1179.556641	1089.173340
1178.398438	1028.609131
1177.238281	1110.364502
1176.078125	1097.242188
1174.917969	1116.453979
1173.757813	1107.644775
1172.597656	1148.394165
1171.437500	1081.418579
1170.277344	1135.081543
1169.117188	1165.037842
1167.955078	1184.218384
1166.792969	1162.489990
1165.632813	1226.864624
1164.470703	1134.119263
1163.308594	1224.296753
1162.146484	1174.609131
1160.984375	1185.164551
1159.822266	1270.986328
1158.660156	1191.213135
1157.496094	1281.304199
1156.333984	1317.627930
1155.169922	1224.992554
1154.005859	1250.569702
1152.843750	1316.957275
1151.679688	1340.361938
1150.515625	1350.872681
1149.351563	1258.310181
1148.185547	1243.068115
1147.021484	1348.038452
1145.857422	1367.125366
1144.691406	1420.539063
1143.527344	1310.879272
1142.361328	1370.719482
1141.195313	1477.723633
1140.029297	1417.430298
1138.863281	1352.869507
1137.697266	1419.092773
1136.531250	1504.583008
1135.363281	1437.897095
1134.197266	1514.784912
1133.029297	1497.390137
1131.863281	1569.957886
1130.695313	1571.832764
1129.527344	1535.167114
1128.359375	1584.143311
1127.191406	1534.645630
1126.023438	1641.385376
1124.855469	1636.827271
1123.687500	1672.916992
1122.517578	1732.522461
1121.349609	1695.872681
1120.179688	1710.551880
1119.009766	1767.982666
1117.839844	1784.781982
1116.671875	1748.147949
1115.500000	1694.432495
1114.330078	1811.645142
1113.160156	1856.193481
1111.990234	1890.048462
1110.818359	1900.403687
1109.648438	1853.112427
1108.476563	1882.681274
1107.304688	1999.742065
1106.132813	2001.536011
1104.962891	2005.462769
1103.789063	2092.579346
1102.617188	2151.940430
1101.445313	2189.957520
1100.273438	2136.284668
1099.099609	2219.056152
1097.927734	2282.617676
1096.753906	2280.098633
1095.580078	2298.885986
1094.406250	2405.005615
1093.232422	2468.491943
1092.058594	2476.590088
1090.884766	2465.523438
1089.710938	2526.838135
1088.535156	2513.637939
1087.361328	2572.795410
1086.185547	2719.167236
1085.011719	2674.031006
1083.835938	2684.210938
1082.660156	2766.691406
1081.484375	2774.725586
1080.308594	2859.288086
1079.132813	2894.935059
1077.955078	2877.441406
1076.779297	2970.442139
1075.601563	2989.056396
1074.425781	2986.423828
1073.248047	2924.328369
1072.070313	3085.204102
1070.892578	3046.465576
1069.714844	3037.456543
1068.537109	3181.252441
1067.359375	3159.492188
1066.179688	3218.357178
1065.001953	3200.839844
1063.822266	3268.160889
1062.644531	3210.352539
1061.464844	3216.166260
1060.285156	3219.858154
1059.105469	3212.951660
1057.925781	3216.033691
1056.746094	3219.115723
1055.566406	3222.197754
1054.384766	3225.279785
1053.205078	3228.361816
1052.023438	3231.443848
1050.843750	3234.525879
1049.662109	3244.557373
1048.480469	3299.023682
1047.298828	3397.902100
1046.117188	3418.477295
1044.935547	3263.497559
1043.751953	3313.693848
1042.570313	3262.385742
1041.388672	3350.615967
1040.205078	3337.363525
1039.021484	3302.983154
1037.837891	3266.501465
1036.656250	3259.607422
1035.472656	3265.388428
1034.287109	3338.744629
1033.103516	3186.152588
1031.919922	3242.608398
1030.734375	3197.730713
1029.550781	3332.248291
1028.365234	3293.700439
1027.179688	3181.328613
1025.996094	3197.660400
1024.810547	3169.699463
1023.625000	3207.113037
1022.439453	3204.458008
1021.251953	3201.803955
1020.066406	3089.561768
1018.878906	3097.463379
1017.693359	3149.604248
1016.505859	3123.790283
1015.318359	3167.484375
1014.132813	3063.765869
1012.945313	3101.139160
1011.755859	2978.522461
1010.568359	2969.595947
1009.380859	2977.506592
1008.193359	3025.387939
1007.003906	2953.352051
1005.814453	2940.229248
1004.626953	3015.428711
1003.437500	2941.328613
1002.248047	2932.418213
1001.058594	2902.493652
999.869141	2885.187500
998.679688	2823.765625
997.488281	2890.504883
996.298828	2818.601563
995.107422	2813.920654
993.917969	2796.643799
992.726563	2775.174316
991.535156	2751.613037
990.343750	2683.991211
989.152344	2704.514404
987.960938	2760.693115
986.769531	2732.955322
985.576172	2774.430176
984.384766	2729.925537
983.191406	2597.388916
982.000000	2575.985352
980.806641	2542.015381
979.613281	2560.438721
978.419922	2645.893555
977.226563	2534.429688
976.033203	2565.409912
974.837891	2617.318115
973.644531	2537.318359
972.449219	2591.306641
971.255859	2509.245605
970.060547	2418.842773
968.865234	2602.531494
967.669922	2495.409668
966.474609	2494.983398
965.279297	2408.826416
964.083984	2448.136963
962.886719	2387.100586
961.691406	2443.120605
960.494141	2417.628418
959.298828	2475.713135
958.101563	2358.314209
956.904297	2364.176758
955.707031	2403.447266
954.509766	2419.738770
953.312500	2390.101318
952.113281	2404.302246
950.916016	2353.810303
949.716797	2301.249023
948.519531	2309.199707
947.320313	2354.688965
946.121094	2233.340088
944.921875	2345.544189
943.722656	2209.645996
942.523438	2330.152832
941.324219	2250.567627
940.125000	2264.767334
938.923828	2241.465576
937.724609	2284.820801
936.523438	2221.957031
935.322266	2159.114746
934.121094	2273.240234
932.919922	2285.339600
931.718750	2174.655029
930.517578	2215.896240
929.316406	2217.597412
928.113281	2200.578613
926.912109	2160.689941
925.708984	2160.320313
924.505859	2201.528076
923.304688	2159.581055
922.101563	2125.960938
920.898438	2079.885498
919.695313	2164.705078
918.490234	2102.021729
917.287109	2051.820313
916.083984	2018.246948
914.878906	2084.334473
913.673828	2030.010132
912.470703	2008.909546
911.265625	2056.289795
910.060547	2031.042480
908.855469	2028.620605
907.648438	2073.899170
906.443359	2021.705444
905.238281	1981.968628
904.031250	1998.212036
902.826172	1973.000122
901.619141	1987.167114
900.412109	1974.396240
899.205078	1878.773071
897.998047	1977.862183
896.791016	1907.119507
895.583984	1900.581787
894.375000	1964.426147
893.167969	1815.075439
891.958984	1854.081055
890.751953	1917.900269
889.542969	1878.268799
888.333984	1844.855469
887.125000	1894.168213
885.916016	1879.371094
884.707031	1843.907349
883.496094	1868.393066
882.287109	1882.538086
881.076172	1853.290161
879.867188	1861.235474
878.656250	1829.935669
877.445313	1949.394165
876.234375	1837.567261
875.023438	1853.766846
873.812500	1915.368408
872.601563	1859.322266
871.388672	1896.142334
870.177734	1866.936523
868.964844	1885.179565
867.753906	1831.239014
866.541016	1793.811646
865.328125	1840.918579
864.115234	1830.297241
862.902344	1788.767456
861.687500	1769.916748
860.474609	1650.128296
859.261719	1781.668213
858.046875	1777.243896
856.832031	1772.821045
855.619141	1832.218384
854.404297	1741.338135
853.189453	1712.227905
851.974609	1734.567871
850.759766	1773.358276
849.542969	1709.289917
848.328125	1727.505615
847.111328	1751.883667
845.896484	1718.689453
844.679688	1650.563232
843.462891	1740.706299
842.246094	1719.859741
841.029297	1643.550293
839.812500	1669.971436
838.595703	1636.825073
837.378906	1657.077881
836.160156	1619.838989
834.941406	1588.770874
833.724609	1567.974854
832.505859	1600.537231
831.287109	1655.656128
830.068359	1638.961792
828.849609	1618.171265
827.630859	1591.236084
826.410156	1638.117676
825.191406	1633.736694
823.970703	1600.664063
822.751953	1579.897705
821.531250	1552.991943
820.310547	1622.372559
819.089844	1661.007690
817.869141	1654.579224
816.648438	1560.114868
815.427734	1651.963867
814.205078	1666.006836
812.984375	1657.535278
811.761719	1665.434570
810.539063	1581.277222
809.318359	1621.911255
808.095703	1656.396484
806.873047	1594.774414
805.648438	1678.313843
804.425781	1661.674438
803.203125	1702.259399
801.978516	1669.276001
800.755859	1689.417358
799.531250	1734.061523
798.306641	1735.805542
797.082031	1768.175537
795.857422	1688.256226
794.632813	1771.649902
793.408203	1757.060303
792.183594	1742.475586
790.957031	1760.536255
789.732422	1717.400513
788.505859	1786.442017
787.279297	1731.082642
786.052734	1783.789063
784.826172	1867.051147
783.599609	1791.327271
782.373047	1784.906494
781.146484	1809.046021
779.917969	1782.255737
778.691406	1788.058716
777.462891	1793.859619
776.234375	1785.407715
775.007813	1901.121948
773.779297	1786.828613
772.550781	1798.729736
771.320313	1812.661255
770.091797	1859.132690
768.863281	1860.846558
767.632813	1919.493896
766.404297	1872.404297
765.173828	1841.592163
763.943359	1857.533691
762.712891	1822.670654
761.482422	1881.273682
760.251953	1864.699707
759.021484	1941.553467
757.789063	1920.913696
756.558594	1861.706787
755.326172	1877.625244
754.095703	1928.039795
752.863281	1905.387085
751.630859	1931.433594
750.398438	1949.357300
749.166016	1993.640137
747.933594	1958.824829
746.699219	1897.664917
745.466797	1980.447998
744.232422	2008.480957
742.998047	1955.449341
741.765625	2036.153564
740.531250	2082.393311
739.296875	2005.072266
738.062500	2053.326416
736.826172	2032.726318
735.591797	2099.177246
734.357422	2064.408936
733.121094	2090.359619
731.886719	2025.256104
730.650391	2160.440430
729.414063	2052.873779
728.177734	2115.207764
726.941406	2145.170898
725.705078	2150.865479
724.466797	2251.552002
723.230469	2216.810303
721.992188	2198.244385
720.755859	2240.287354
719.517578	2282.315918
718.279297	2296.058350
717.041016	2305.757813
715.802734	2301.322754
714.564453	2260.558838
713.326172	2342.907471
712.085938	2275.920654
710.847656	2358.238037
709.607422	2343.712646
708.367188	2353.391602
707.128906	2403.392334
705.888672	2453.375977
704.648438	2440.859375
703.406250	2504.925537
702.166016	2399.719727
700.925781	2423.480225
699.683594	2511.686279
698.443359	2485.072998
697.201172	2478.603760
695.958984	2441.939697
694.716797	2562.285889
693.474609	2535.682129
692.232422	2529.208252
690.990234	2639.417969
689.746094	2653.042480
688.503906	2688.783691
687.259766	2625.987549
686.017578	2623.523926
684.773438	2743.672119
683.529297	2781.382080
682.285156	2714.594482
681.041016	2734.215576
679.794922	2747.803955
678.550781	2837.702148
677.306641	2793.037842
676.060547	2870.851563
674.814453	2912.507813
673.570313	2817.680908
672.324219	2837.259766
671.078125	2929.055176
669.830078	2908.490723
668.583984	2899.966309
667.337891	2897.460449
666.089844	2890.945313
664.843750	2974.633789
663.595703	2948.066406
662.347656	2991.640137
661.099609	3057.236572
659.851563	3034.674561
658.603516	3048.169434
657.355469	3087.690674
656.107422	3133.204102
654.857422	3144.673096
653.609375	3152.135010
652.359375	3141.585205
651.109375	3109.031738
649.859375	3140.499512
648.609375	3149.956543
647.359375	3181.406006
646.109375	3104.883545
644.859375	3174.309570
643.607422	3201.741211
642.357422	3181.205078
641.105469	3136.701416
639.853516	3142.151855
638.601563	3137.614014
637.349609	3190.986816
636.097656	3162.483887
634.845703	3203.856689
633.593750	3127.461182
632.339844	3220.708008
631.087891	3220.150879
629.833984	3199.645996
628.580078	3181.142578
627.326172	3192.556885
626.072266	3150.135742
624.818359	3291.123047
623.564453	3290.553711
622.310547	3160.457520
621.054688	3379.072266
619.800781	3294.822266
618.544922	3278.318604
617.289063	3283.725342
616.033203	3245.328125
614.777344	3336.336670
613.521484	3276.050049
612.265625	3293.392822
611.009766	3457.961182
609.751953	3266.392090
608.496094	3347.373047
607.238281	3489.971924
605.980469	3356.155518
604.722656	3377.441406
603.464844	3406.669922
602.207031	3459.734863
600.949219	3504.833740
599.689453	3561.835938
598.431641	3479.785889
597.171875	3443.438232
595.914063	3552.043945
594.654297	3525.622070
593.394531	3560.737793
592.134766	3703.002197
590.875000	3662.678467
589.615234	3626.336182
588.353516	3641.575439
587.093750	3654.826172
585.832031	3662.124023
584.572266	3744.750244
583.310547	3738.155273
582.048828	3850.465088
580.787109	3814.133301
579.525391	3862.998047
578.263672	3735.564941
577.000000	3812.150879
575.738281	3758.030273
574.474609	3878.137695
573.210938	3800.272461
571.949219	3916.372803
570.685547	3850.399414
569.421875	3859.623291
568.158203	3971.696777
566.892578	4012.537598
565.628906	3835.866699
564.365234	3926.139404
563.099609	4032.193115
561.833984	3980.112305
560.568359	3971.518555
559.302734	3917.490234
558.037109	3930.637207
556.771484	3945.754395
555.505859	3949.019043
554.240234	4072.706787
552.972656	4101.607422
551.707031	4083.134766
550.439453	4167.271484
549.171875	4213.895996
547.904297	4191.467773
546.636719	4171.019531
545.369141	4089.453125
544.101563	4216.886230
542.832031	4251.634277
541.564453	4217.394043
540.294922	4323.063477
539.025391	4377.475098
537.757813	4514.595703
536.488281	4431.098145
535.218750	4536.657227
533.947266	4565.399902
532.677734	4533.114258
531.408203	4670.087891
530.136719	4665.341797
528.867188	4725.519043
527.595703	4787.642090
526.324219	4745.511230
525.052734	4801.709961
523.781250	4828.399902
522.509766	5018.226074
521.236328	4956.431152
519.964844	5051.852539
518.691406	4974.355957
517.419922	5050.097656
516.146484	5224.008789
514.873047	5225.064941
513.599609	5281.090820
512.326172	5348.874512
511.052734	5234.117676
509.777344	5244.981445
508.503906	5424.562012
507.230469	5354.966309
505.955078	5436.405273
504.679688	5470.755859
503.404297	5540.383301
502.128906	5429.651367
500.853516	5626.649902
499.578125	5662.901855
498.300781	5601.184570
497.025391	5537.529297
495.748047	5638.406738
494.472656	5488.609375
493.195313	5681.475586
491.917969	5662.870605
490.640625	5612.958496
489.363281	5531.755859
488.085938	5611.006836
486.806641	5623.723633
485.529297	5511.269043
484.250000	5533.775391
482.970703	5460.475586
481.693359	5422.386230
480.414063	5511.344727
479.134766	5387.281738
477.853516	5366.807617
476.574219	5479.168945
475.294922	5472.356445
474.013672	5342.527832
472.734375	5382.597656
471.453125	5319.197266
470.171875	5406.096191
468.890625	5303.687012
467.609375	5230.577637
466.328125	5262.828613
465.044922	5195.602539
463.763672	5362.395020
462.482422	5224.987793
461.199219	5247.469727
459.916016	5271.893066
458.632813	5169.647949
457.349609	5020.679688
456.066406	5078.243164
454.783203	4968.294434
453.500000	5095.947754
452.214844	5058.069336
450.931641	5012.417480
449.646484	5069.931641
448.361328	5084.615723
447.076172	4951.432617
445.791016	4952.515625
444.505859	5083.904785
443.220703	5011.071289
441.933594	4920.765625
440.648438	4824.659180
439.361328	4880.180664
438.076172	4865.728516
436.789063	5000.879883
435.501953	4825.183105
434.214844	4828.226563
432.927734	4850.687500
431.638672	4820.719727
430.351563	4889.761230
429.062500	4743.348145
427.775391	4891.937988
426.486328	4797.958984
425.197266	4917.390137
423.908203	4879.683594
422.619141	4828.415527
421.330078	4819.818848
420.041016	4689.102539
418.750000	4816.200684
417.460938	4885.120605
416.169922	4837.770508
414.878906	4703.267578
413.587891	4880.628906
412.296875	4862.350098
411.005859	4662.085938
409.714844	4730.959473
408.421875	4619.816406
407.130859	4700.283691
405.837891	4709.137207
404.546875	4640.612305
403.253906	4666.879395
401.960938	4586.782715
400.667969	4701.985840
399.375000	4689.566895
398.080078	4663.623535
396.787109	4537.206055
395.492188	4546.074219
394.199219	4672.772949
392.904297	4633.330566
391.609375	4557.211914
390.314453	4513.941895
389.019531	4528.596680
387.724609	4599.216797
386.429688	4635.077637
385.132813	4597.611328
383.837891	4492.642578
382.541016	4509.216309
381.244141	4572.063965
379.947266	4609.825684
378.650391	4614.803711
377.353516	4498.358887
376.056641	4447.471680
374.759766	4521.834473
373.460938	4573.055176
372.162109	4564.552734
370.865234	4606.119141
369.566406	4549.480957
368.267578	4562.161133
366.968750	4578.686035
365.669922	4433.564453
364.369141	4621.337402
363.070313	4545.508789
361.769531	4529.328613
360.470703	4492.001465
359.169922	4525.823242
357.869141	4525.032715
356.568359	4503.100586
355.267578	4540.745605
353.966797	4703.259766
352.664063	4456.558594
351.363281	4561.412598
350.060547	4577.897461
348.759766	4448.462402
347.457031	4520.629395
346.154297	4558.224121
344.851563	4561.265137
343.548828	4577.734863
342.246094	4626.809082
340.941406	4553.119141
339.638672	4519.724609
338.333984	4484.423828
337.029297	4573.733887
335.724609	4599.766113
334.419922	4597.045410
333.115234	4623.063965
331.810547	4518.814941
330.505859	4636.768555
329.199219	4635.957520
327.894531	4635.146484
326.587891	4446.741699
325.281250	4516.777832
323.974609	4406.915039
322.667969	4438.668457
321.361328	4506.755859
320.054688	4473.454102
318.748047	4398.094727
317.439453	4466.152832
316.130859	4404.201660
314.824219	4472.234375
313.515625	4477.184082
312.207031	4424.815918
310.898438	4382.016602
309.589844	4379.339844
308.279297	4403.397461
306.970703	4354.895996
305.660156	4310.229492
304.351563	4425.895996
303.041016	4360.241699
301.730469	4313.689453
300.419922	4505.595215
299.109375	4476.198242
297.798828	4446.811035
296.486328	4459.377930
295.175781	4426.191895
293.863281	4385.393066
292.550781	4516.106445
291.238281	4271.450195
289.927734	4411.662109
288.613281	4294.712891
287.300781	4429.158203
285.988281	4399.824219
284.673828	4439.027344
283.361328	4434.443359
282.046875	4399.414551
280.732422	4387.228516
279.419922	4308.469727
278.105469	4364.770508
276.789063	4333.580566
275.474609	4464.003418
274.160156	4370.079102
272.843750	4449.135254
271.529297	4444.554688
270.212891	4477.973145
268.896484	4467.690430
267.580078	4309.273926
266.263672	4361.686035
264.947266	4448.253906
263.628906	4426.593750
262.312500	4372.677246
260.994141	4375.705078
259.677734	4416.676270
258.359375	4505.054199
257.041016	4382.885742
255.722656	4412.456055
254.404297	4476.141602
253.085938	4499.998535
251.765625	4393.077637
250.447266	4371.463379
249.126953	4389.641602
247.806641	4383.188965
246.486328	4513.096680
245.166016	4455.498535
243.845703	4515.299316
242.525391	4495.578125
241.205078	4373.666504
239.882813	4569.688477
238.562500	4570.778320
237.240234	4655.095703
235.917969	4646.713867
234.595703	4513.536133
233.273438	4595.927734
231.951172	4394.757813
230.628906	4496.040039
229.304688	4546.268555
227.982422	4626.707031
226.658203	4631.561035
225.335938	4615.639160
224.011719	4524.193848
222.687500	4687.645996
221.361328	4613.207520
220.037109	4625.607910
218.712891	4675.741699
217.386719	4627.755859
216.062500	4576.014648
214.736328	4597.841797
213.410156	4542.352051
212.083984	4720.652344
210.757813	4601.073242
209.431641	4728.416016
208.105469	4616.414551
206.777344	4649.513672
205.451172	4646.812988
204.123047	4580.082031
202.794922	4667.774902
201.466797	4674.484863
200.138672	4664.251465
198.810547	4789.521484
197.482422	4726.586426
196.154297	4737.042969
194.824219	4768.186035
193.494141	4848.213867
192.166016	4930.093750
190.835938	4778.831055
189.505859	4887.008301
188.175781	4893.666016
186.843750	4907.836914
185.513672	4978.361816
184.183594	4947.433105
182.851563	4987.878418
181.519531	5005.777344
180.187500	5016.160156
178.857422	4942.075684
177.523438	4991.875977
176.191406	5041.658203
174.859375	5106.430176
173.527344	5054.889160
172.193359	5055.875000
170.859375	5128.109863
169.527344	5142.204590
168.193359	5056.954590
166.859375	4967.986328
165.523438	5263.152344
164.189453	5262.226074
162.855469	5210.728516
161.519531	5125.540039
160.185547	5102.169434
158.849609	5157.432129
157.513672	5244.493652
156.177734	5118.188477
154.841797	5227.678711
153.505859	5254.818359
152.167969	5326.837891
150.832031	5172.555664
149.494141	5371.704590
148.158203	5251.117676
146.820313	5339.907715
145.482422	5387.553711
144.144531	5504.313965
142.804688	5387.523926
141.466797	5375.368164
140.128906	5473.394043
138.789063	5597.524414
137.449219	5536.801758
136.111328	5659.010742
134.771484	5616.958984
133.431641	5658.881836
132.091797	5863.083008
130.750000	5809.826660
129.410156	5765.912598
128.068359	5723.877930
126.728516	5780.657227
125.386719	5846.734863
124.044922	5974.283203
122.703125	5894.978027
121.361328	5821.289063
120.019531	5905.937012
118.675781	5891.860352
117.333984	6129.135254
115.990234	5982.857422
114.646484	5901.771973
113.304688	5885.844238
111.960938	5851.316895
110.615234	6049.324707
109.271484	6089.174316
107.927734	6112.273926
106.582031	6092.603516
105.238281	6199.343750
103.892578	6129.483398
102.546875	6063.364258
101.201172	6099.452148
99.855469	6232.120605
98.509766	6286.737793
97.164063	6155.644531
95.816406	6399.626465
94.470703	6478.315918
93.123047	6540.273926
91.775391	6548.397461
90.427734	6413.662109
89.080078	6410.674805
87.732422	6454.053711
86.384766	6527.085938
85.035156	6683.520020
83.687500	6741.655762
82.337891	6658.919922
80.988281	6583.625000
79.638672	6537.999023
78.289063	6692.439453
76.939453	6689.405273
75.589844	6775.251953
74.240234	6766.649902
72.888672	6880.217285
71.539063	6747.603516
70.187500	6650.192383
68.835938	6604.616699
67.484375	6562.756348
66.132813	6628.174316
64.781250	6466.135742
63.427734	6509.362305
62.076172	6654.235840
60.722656	6640.123047
59.369141	6424.611328
58.015625	5972.705566
56.662109	5799.870117
55.308594	5719.434082
53.955078	5723.962402
52.601563	5521.724121
51.246094	5446.916504
