#Wave		#Intensity
4002.039063	2097.543945
4001.340820	1961.525757
4000.642578	1989.841309
3999.943359	2039.617310
3999.245117	1967.735474
3998.545898	1974.573486
3997.846680	2017.174805
3997.147461	2049.034424
3996.448242	2066.582031
3995.749023	1987.603760
3995.049805	2083.789307
3994.350586	2051.291260
3993.650391	1968.780151
3992.951172	1972.036377
3992.250977	1946.715820
3991.550781	2064.258545
3990.850586	2074.639160
3990.150391	1988.620239
3989.450195	2123.947754
3988.750000	2055.793945
3988.048828	2098.285645
3987.348633	2015.885864
3986.647461	1951.349365
3985.947266	2036.638916
3985.246094	2064.841309
3984.544922	1982.499756
3983.843750	1953.660645
3983.141602	1992.556274
3982.440430	2052.822998
3981.739258	2130.886963
3981.037109	2130.544678
3980.334961	2140.888916
3979.633789	2126.298340
3978.931641	1962.147705
3978.229492	1986.755981
3977.527344	2061.195068
3976.824219	2057.304688
3976.122070	2142.384766
3975.419922	1989.037720
3974.716797	2031.409790
3974.013672	1967.056274
3973.311523	1991.635742
3972.608398	2119.328857
3971.905273	2012.328003
3971.201172	1908.916138
3970.498047	2082.765625
3969.794922	2014.911987
3969.090820	2007.482300
3968.387695	2081.762207
3967.683594	1946.454590
3966.979492	1992.309570
3966.275391	2031.048218
3965.571289	2034.272217
3964.867188	2076.541016
3964.163086	2154.287109
3963.458008	2043.937622
3962.753906	1940.719238
3962.048828	1982.975830
3961.343750	2089.061279
3960.638672	1914.960693
3959.933594	2035.205322
3959.228516	1939.161255
3958.523438	1945.938843
3957.817383	2087.384033
3957.112305	2009.094604
3956.406250	2040.657104
3955.701172	2011.991455
3954.995117	1983.335083
3954.289063	1919.276733
3953.583008	1964.995361
3952.876953	1961.139893
3952.169922	2074.085449
3951.463867	1935.738281
3950.757813	2016.807251
3950.050781	1821.910522
3949.343750	1987.862671
3948.636719	1941.568237
3947.929688	1934.184448
3947.222656	1965.692627
3946.515625	1986.586060
3945.808594	1869.635742
3945.100586	2007.150391
3944.393555	1914.966309
3943.685547	2034.766479
3942.977539	1889.627197
3942.269531	1885.792358
3941.561523	2005.539429
3940.853516	1984.035645
3940.145508	1948.419556
3939.436523	1972.810913
3938.728516	1905.450562
3938.019531	2074.490723
3937.311523	2038.882935
3936.602539	1964.490479
3935.893555	1904.227173
3935.184570	1963.859619
3934.474609	1928.292236
3933.765625	1987.901611
3933.056641	1948.817627
3932.346680	1895.651978
3931.636719	1951.714844
3930.927734	1990.147705
3930.217773	1929.957275
3929.507813	1866.264893
3928.797852	1894.130737
3928.086914	2105.034180
3927.376953	1932.237793
3926.666992	1900.256714
3925.956055	1935.135864
3925.245117	2040.361206
3924.534180	2008.377930
3923.823242	1902.553467
3923.112305	1954.990601
3922.401367	1982.801636
3921.690430	2007.088623
3920.979492	1957.563843
3920.267578	1936.166138
3919.555664	1999.095581
3918.844727	1939.057373
3918.132813	1910.648315
3917.420898	1910.341675
3916.708984	1976.745850
3915.996094	1920.260010
3915.284180	1898.891968
3914.572266	1975.794067
3913.859375	2007.056519
3913.146484	1912.010864
3912.433594	1964.319702
3911.720703	1848.268433
3911.007813	1918.103516
3910.294922	1840.663208
3909.582031	1868.411377
3908.869141	1829.557617
3908.155273	1902.855103
3907.441406	1874.519531
3906.728516	1944.282959
3906.014648	1859.907227
3905.300781	1884.123413
3904.586914	2013.377441
3903.872070	1981.545654
3903.158203	1935.722412
3902.444336	1893.413696
3901.729492	1917.604736
3901.014648	1892.806030
3900.300781	1976.458008
3899.585938	1930.672119
3898.871094	1821.954224
3898.155273	1905.577148
3897.440430	1992.669189
3896.725586	1883.993530
3896.009766	1859.227661
3895.294922	1796.033203
3894.579102	1935.491699
3893.863281	1886.277588
3893.147461	1854.541992
3892.431641	1892.656250
3891.715820	1993.603882
3890.999023	1815.249878
3890.283203	1933.629028
3889.566406	1832.116089
3888.850586	1842.289673
3888.133789	1894.323486
3887.416992	1988.197266
3886.700195	1918.128174
3885.983398	1813.212036
3885.265625	1900.080688
3884.548828	1885.832520
3883.831055	1826.280396
3883.114258	1791.140381
3882.396484	1870.988403
3881.678711	1738.311768
3880.960938	1800.727417
3880.243164	1783.026123
3879.525391	1974.245361
3878.806641	1904.301514
3878.088867	1827.418457
3877.370117	1941.973145
3876.652344	2018.214478
3875.933594	1955.266602
3875.214844	1878.424438
3874.496094	1860.733032
3873.777344	1888.254150
3873.057617	1943.581421
3872.338867	1905.030029
3871.619141	1869.966675
3870.900391	1831.439209
3870.180664	1772.076172
3869.460938	1858.644531
3868.741211	1934.764282
3868.021484	1906.670044
3867.301758	1833.443115
3866.581055	1871.339600
3865.861328	1874.510742
3865.140625	1856.856201
3864.420898	1960.664429
3863.700195	1842.381958
3862.979492	1814.333740
3862.258789	1866.070679
3861.538086	1851.899414
3860.816406	1837.732666
3860.095703	1809.703003
3859.374023	1899.536743
3858.653320	1798.725220
3857.931641	1846.949463
3857.209961	1839.723877
3856.488281	1849.821045
3855.766602	1891.086670
3855.044922	1831.912842
3854.322266	1724.284058
3853.600586	1831.325195
3852.877930	1779.111816
3852.156250	1844.580811
3851.433594	1858.125732
3850.710938	1823.231323
3849.988281	1822.938843
3849.264648	1701.597900
3848.541992	1929.551392
3847.819336	1877.380615
3847.095703	1856.338257
3846.372070	1932.079468
3845.649414	1935.225342
3844.925781	1858.900513
3844.202148	1941.514038
3843.478516	1844.487915
3842.753906	1816.563721
3842.030273	1795.554443
3841.305664	1867.767578
3840.582031	1822.593628
3839.857422	1756.726074
3839.132813	1859.967651
3838.408203	1845.868408
3837.683594	1911.116089
3836.958984	1803.887085
3836.234375	1851.877563
3835.508789	1792.964478
3834.783203	1778.887085
3834.058594	1754.473511
3833.333008	1861.029053
3832.607422	1867.622192
3831.881836	1894.884644
3831.156250	1901.470215
3830.430664	1821.950073
3829.704102	1849.206543
3828.978516	1731.846802
3828.251953	1900.250854
3827.525391	1841.433228
3826.798828	1813.606934
3826.072266	1768.585327
3825.345703	1964.397461
3824.619141	1895.287964
3823.892578	1819.322266
3823.165039	1808.714722
3822.437500	1859.995728
3821.710938	1852.822388
3820.983398	1825.029541
3820.255859	1872.846802
3819.528320	1875.982300
3818.800781	1872.246216
3818.072266	1768.903076
3817.344727	1682.764160
3816.616211	1898.815063
3815.888672	1850.447021
3815.160156	1829.554932
3814.431641	1791.509521
3813.703125	1894.166138
3812.974609	1694.869629
3812.245117	1914.140869
3811.516602	1821.229126
3810.788086	1868.946777
3810.058594	1734.927368
3809.329102	1847.778564
3808.599609	1826.916626
3807.870117	1836.904907
3807.140625	1898.287598
3806.411133	1832.890015
3805.681641	1815.468994
3804.951172	1917.923950
3804.221680	1801.189697
3803.491211	1859.104980
3802.760742	1845.114014
3802.030273	1803.746216
3801.299805	1868.477295
3800.569336	1803.167847
3799.837891	1754.984497
3799.107422	1758.123657
3798.375977	1877.539185
3797.645508	1877.238159
3796.914063	1839.330078
3796.182617	1770.669556
3795.451172	1903.677246
3794.719727	1903.372070
3793.988281	1783.484619
3793.255859	1960.835449
3792.524414	1854.639282
3791.791992	1854.341919
3791.059570	1802.828003
3790.327148	1843.505737
3789.594727	1850.036987
3788.862305	1815.612305
3788.129883	1726.602539
3787.397461	1801.383423
3786.664063	1804.505859
3785.931641	1892.892578
3785.198242	1834.617920
3784.464844	1803.638184
3783.731445	1772.668213
3782.998047	1881.453857
3782.264648	1778.915771
3781.531250	1863.814087
3780.796875	1693.175659
3780.063477	1880.247803
3779.329102	1876.540649
3778.594727	1835.378052
3777.860352	1818.060791
3777.125977	1800.749023
3776.391602	1885.548340
3775.657227	1888.649048
3774.921875	1782.871094
3774.187500	1864.230469
3773.452148	1816.312988
3772.716797	1812.621094
3771.981445	1842.932739
3771.246094	1914.031006
3770.510742	1842.342041
3769.775391	1872.634155
3769.040039	1953.887573
3768.303711	1780.300903
3767.568359	1844.558105
3766.832031	1830.676636
3766.095703	1793.028442
3765.359375	1816.508545
3764.623047	1809.427734
3763.886719	1883.811401
3763.149414	1778.304443
3762.413086	1835.703247
3761.675781	1893.083618
3760.939453	1889.388062
3760.202148	1848.386841
3759.464844	1963.384277
3758.727539	1844.403931
3757.990234	1759.360718
3757.251953	1820.087280
3756.514648	1897.738281
3755.776367	1822.892090
3755.039063	1876.803711
3754.300781	1890.051636
3753.562500	1750.896240
3752.824219	1808.179321
3752.085938	1875.600830
3751.346680	1831.294922
3750.608398	1820.848022
3749.870117	1827.324097
3749.130859	1894.699097
3748.391602	1907.926758
3747.652344	1839.974854
3746.913086	1849.825317
3746.173828	1907.009644
3745.434570	1937.130127
3744.695313	1916.538818
3743.955078	1879.056152
3743.214844	1885.513062
3742.475586	1858.182861
3741.735352	1840.995117
3740.995117	1891.361572
3740.254883	1870.797119
3739.514648	1802.970337
3738.773438	1833.063721
3738.033203	1954.279541
3737.291992	1943.842163
3736.551758	1886.169556
3735.810547	1902.735474
3735.069336	1892.311279
3734.328125	1902.125732
3733.586914	1857.984619
3732.844727	1921.744995
3732.103516	1897.840454
3731.361328	1833.498657
3730.620117	2032.026733
3729.877930	1896.928223
3729.135742	1899.993042
3728.393555	1896.320313
3727.651367	1939.796509
3726.908203	1905.814087
3726.166016	1935.808228
3725.422852	1918.667725
3724.680664	1921.725708
3723.937500	1911.322754
3723.194336	2005.221558
3722.451172	1890.526733
3721.708008	1950.764771
3720.964844	1997.531982
3720.220703	1936.690430
3719.477539	1896.038818
3718.733398	1912.541138
3717.989258	1939.120239
3717.246094	1945.529785
3716.501953	1988.893066
3715.756836	2008.728882
3715.012695	1974.821533
3714.268555	2068.529053
3713.523438	2078.270020
3712.779297	2061.152344
3712.034180	2030.614746
3711.289063	2023.577637
3710.543945	2006.476807
3709.798828	2022.929199
3709.053711	2046.084717
3708.308594	2059.171631
3707.562500	2102.432861
3706.817383	1988.106689
3706.071289	2138.632080
3705.325195	2000.875732
3704.579102	2067.575439
3703.833008	2067.244141
3703.086914	2073.612793
3702.339844	2086.678223
3701.593750	2019.366455
3700.846680	2129.537842
3700.100586	2028.762817
3699.353516	2162.328125
3698.606445	2001.338989
3697.859375	2181.712158
3697.112305	2131.177979
3696.365234	2140.871826
3695.617188	2160.596191
3694.870117	2033.176514
3694.122070	2116.438477
3693.374023	2203.016357
3692.625977	2202.663574
3691.877930	2148.840088
3691.129883	2125.106445
3690.381836	2361.964600
3689.632813	2258.037109
3688.884766	2247.656006
3688.135742	2240.617432
3687.386719	2243.597168
3686.638672	2263.266602
3685.889648	2212.839600
3685.139648	2342.631348
3684.390625	2412.323486
3683.641602	2311.856689
3682.891602	2294.808838
3682.142578	2401.159424
3681.392578	2244.057373
3680.642578	2403.723877
3679.892578	2433.338867
3679.142578	2426.283203
3678.392578	2335.923340
3677.641602	2562.107178
3676.891602	2471.754150
3676.140625	2471.358154
3675.389648	2434.330811
3674.639648	2590.432129
3673.888672	2473.499512
3673.136719	2393.218262
3672.385742	2522.627197
3671.634766	2455.673584
3670.882813	2568.395996
3670.131836	2601.248535
3669.379883	2614.135254
3668.627930	2670.247070
3667.875977	2749.614746
3667.124023	2672.715820
3666.372070	2695.553955
3665.620117	2761.586182
3664.867188	2787.725098
3664.115234	2680.969971
3663.362305	2826.691406
3662.609375	2793.027588
3661.856445	2829.106201
3661.103516	2838.613037
3660.350586	2990.854492
3659.596680	2907.401367
3658.843750	3046.309326
3658.089844	3052.457031
3657.336914	3025.429199
3656.583008	3160.934326
3655.829102	3054.306396
3655.075195	3159.921631
3654.321289	3073.219238
3653.566406	3036.265137
3652.812500	3221.372314
3652.057617	3217.542480
3651.303711	3263.410645
3650.548828	3315.888916
3649.793945	3209.372314
3649.039063	3420.794922
3648.284180	3337.472412
3647.528320	3485.908203
3646.773438	3316.543457
3646.017578	3455.006836
3645.262695	3464.379883
3644.506836	3486.983154
3643.750977	3509.579102
3642.995117	3565.240479
3642.239258	3577.896240
3641.482422	3620.303955
3640.726563	3656.086426
3639.969727	3761.265625
3639.213867	3806.927734
3638.457031	3925.265381
3637.700195	3749.547363
3636.943359	3890.977295
3636.186523	3890.354004
3635.429688	3893.032715
3634.671875	3918.820557
3633.915039	3937.998291
3633.157227	4023.177734
3632.399414	4085.230469
3631.641602	3985.595947
3630.883789	4186.184570
3630.125977	4119.548340
3629.368164	4151.866211
3628.609375	4213.848145
3627.851563	4232.953125
3627.092773	4291.605957
3626.333984	4231.597168
3625.575195	4230.918945
3624.816406	4325.784180
3624.057617	4371.208008
3623.298828	4472.606934
3622.540039	4340.170410
3621.780273	4395.447266
3621.020508	4374.991211
3620.261719	4637.603516
3619.501953	4554.588379
3618.742188	4540.697266
3617.982422	4461.013672
3617.221680	4506.349609
3616.461914	4660.200195
3615.701172	4544.364746
3614.941406	4619.254395
3614.180664	4690.833008
3613.419922	4749.241211
3612.659180	4649.895996
3611.898438	4793.718750
3611.137695	4806.090820
3610.375977	4736.345215
3609.615234	4768.426758
3608.853516	4761.095703
3608.091797	4796.445801
3607.330078	4825.219727
3606.568359	4771.935547
3605.806641	5050.091309
3605.044922	4921.327637
3604.282227	4848.371094
3603.520508	5008.306641
3602.757813	5089.486816
3601.995117	4937.847656
3601.233398	5081.299805
3600.470703	5119.818359
3599.707031	4873.207520
3598.944336	5157.498535
3598.181641	5015.797363
3597.417969	5051.025879
3596.655273	5171.395508
3595.891602	5091.977051
3595.127930	5189.383301
3594.364258	5191.825195
3593.600586	5046.980957
3592.835938	5121.439941
3592.072266	5091.171875
3591.307617	5149.241699
3590.543945	5181.125977
3589.779297	5124.699707
3589.014648	5019.242676
3588.250000	5263.639160
3587.485352	5285.677734
3586.720703	5245.611328
3585.955078	5146.737793
3585.190430	5312.542969
3584.424805	4968.686035
3583.659180	5206.322754
3582.893555	5342.646973
3582.127930	5237.306152
3581.362305	5318.083008
3580.596680	5261.741211
3579.830078	5345.751465
3579.064453	5455.838867
3578.297852	5301.625488
3577.531250	5369.278809
3576.764648	5423.863770
3575.998047	5608.870117
3575.231445	5249.322266
3574.464844	5558.174316
3573.698242	5413.870117
3572.930664	5328.271973
3572.163086	5395.843750
3571.396484	5509.003906
3570.628906	5573.267578
3569.861328	5363.939941
3569.092773	5610.557129
3568.325195	5502.218750
3567.557617	5566.441406
3566.789063	5367.012695
3566.020508	5499.574707
3565.252930	5511.708008
3564.484375	5556.369141
3563.715820	5483.921387
3562.946289	5687.924805
3562.177734	5456.151367
3561.409180	5325.235352
3560.639648	5490.159668
3559.870117	5635.530762
3559.101563	5537.143066
3558.332031	5471.276367
3557.562500	5528.872070
3556.791992	5615.680664
3556.022461	5666.739258
3555.252930	5516.474121
3554.482422	5525.329590
3553.711914	5563.394531
3552.942383	5559.258301
3552.171875	5671.936035
3551.401367	5596.408691
3550.629883	5644.168457
3549.859375	5562.183105
3549.088867	5538.592773
3548.317383	5537.705078
3547.545898	5510.884277
3546.774414	5607.236816
3546.002930	5690.595703
3545.231445	5683.203613
3544.459961	5585.104492
3543.688477	5606.883301
3542.916016	5648.086914
3542.144531	5585.658691
3541.372070	5581.526367
3540.599609	5541.787598
3539.827148	5566.791992
3539.054688	5582.080078
3538.282227	5713.839844
3537.509766	5667.635254
3536.736328	5712.009277
3535.962891	5591.438965
3535.190430	5616.410645
3534.416992	5560.551758
3533.643555	5617.843262
3532.870117	5678.348145
3532.095703	5616.043457
3531.322266	5615.143555
3530.548828	5659.467773
3529.774414	5426.017578
3529.000000	5505.879395
3528.225586	5534.056152
3527.451172	5662.298340
3526.676758	5438.679688
3525.902344	5499.124512
3525.127930	5578.910156
3524.352539	5613.504395
3523.577148	5528.738281
3522.802734	5718.134277
3522.027344	5452.800781
3521.251953	5535.753418
3520.476563	5554.208008
3519.700195	5585.548828
3518.924805	5397.746582
3518.148438	5532.206543
3517.373047	5508.769531
3516.596680	5437.025391
3515.820313	5535.988770
3515.043945	5683.219727
3514.267578	5537.434570
3513.490234	5462.511719
3512.713867	5596.809570
3511.937500	5525.119629
3511.160156	5540.320801
3510.382813	5385.023926
3509.605469	5480.651367
3508.828125	5528.010742
3508.050781	5482.110840
3507.273438	5500.520996
3506.495117	5624.997070
3505.716797	5450.552246
3504.939453	5591.062012
3504.161133	5407.040039
3503.382813	5348.353516
3502.604492	5453.482910
3501.826172	5391.596191
3501.046875	5381.100586
3500.268555	5434.811035
3499.489258	5427.520996
3498.710938	5340.004395
3497.931641	5445.033691
3497.152344	5550.028809
3496.373047	5270.078613
3495.592773	5294.890625
3494.813477	5345.347168
3494.034180	5386.169434
3493.253906	5343.634277
3492.473633	5326.752930
3491.693359	5415.625977
3490.913086	5408.350098
3490.132813	5285.750977
3489.352539	5256.077148
3488.572266	5271.247559
3487.791016	5318.432129
3487.009766	5320.781250
3486.229492	5163.083496
3485.448242	5299.873535
3484.666992	5295.824707
3483.885742	5227.789063
3483.103516	5198.161133
3482.322266	5242.105469
3481.540039	5145.330078
3480.758789	5288.385254
3479.976563	5217.208008
3479.194336	5334.635254
3478.412109	5106.878906
3477.629883	5361.683105
3476.846680	5370.408203
3476.064453	5193.863770
3475.281250	5202.612305
3474.499023	5137.914063
3473.715820	5002.996582
3472.932617	5097.960938
3472.149414	5068.418945
3471.366211	5227.166016
3470.582031	5283.760742
3469.798828	5219.110352
3469.014648	4994.998535
3468.231445	5118.574219
3467.447266	5127.320313
3466.663086	5046.795410
3465.878906	5135.239746
3465.093750	5006.932617
3464.309570	5044.369629
3463.524414	4986.211914
3462.740234	5100.093262
3461.955078	4825.360840
3461.169922	4977.445801
3460.384766	5043.512695
3459.599609	4979.034180
3458.814453	4940.040039
3458.028320	4872.415527
3457.243164	4903.454590
3456.457031	4889.942871
3455.670898	4990.950684
3454.885742	4961.526367
3454.098633	4858.972656
3453.312500	5004.448730
3452.526367	4895.562500
3451.740234	4805.782227
3450.953125	4948.018066
3450.166016	4836.016113
3449.379883	4955.962891
3448.592773	4780.467285
3447.804688	4779.701172
3447.017578	4842.442383
3446.230469	4755.945313
3445.442383	4831.367188
3444.655273	4722.682129
3443.867188	4715.578613
3443.079102	4930.575195
3442.291016	5009.092773
3441.502930	4760.888672
3440.714844	4807.695313
3439.926758	4619.848145
3439.137695	4739.578613
3438.348633	4681.762695
3437.560547	4741.228516
3436.771484	4597.874512
3435.982422	4692.185059
3435.193359	4761.123535
3434.403320	4735.022461
3433.614258	4591.760254
3432.824219	4565.694824
3432.035156	4580.791504
3431.245117	4526.248535
3430.455078	4623.628906
3429.665039	4591.246094
3428.875000	4713.894043
3428.084961	4643.548340
3427.293945	4623.828125
3426.503906	4648.384277
3425.712891	4669.770508
3424.921875	4586.832031
3424.130859	4510.241699
3423.339844	4531.639648
3422.548828	4527.753418
3421.756836	4369.071289
3420.965820	4396.798828
3420.173828	4645.584961
3419.382813	4524.851074
3418.590820	4432.569824
3417.798828	4551.810059
3417.006836	4519.519531
3416.213867	4427.283203
3415.421875	4417.108398
3414.628906	4463.718750
3413.836914	4343.148926
3413.043945	4471.748535
3412.250977	4423.735840
3411.458008	4259.094238
3410.665039	4416.013672
3409.872070	4456.275879
3409.078125	4417.749023
3408.285156	4410.739746
3407.491211	4441.532715
3406.697266	4346.335449
3405.903320	4333.042480
3405.109375	4294.565918
3404.315430	4319.061523
3403.520508	4384.466309
3402.726563	4446.703613
3401.931641	4206.857422
3401.137695	4206.183105
3400.342773	4211.799805
3399.547852	4182.819824
3398.752930	4317.361328
3397.957031	4310.381348
3397.162109	4309.690430
3396.366211	4180.138184
3395.571289	4204.607422
3394.775391	4163.087891
3393.979492	4146.713379
3393.183594	4174.316895
3392.387695	4063.732422
3391.591797	4254.617188
3390.794922	4040.453369
3389.999023	4181.057617
3389.202148	3960.697266
3388.405273	4129.510254
3387.608398	4122.573242
3386.811523	4259.936523
3386.014648	4064.795898
3385.216797	4101.775391
3384.419922	4003.919678
3383.622070	4044.031738
3382.825195	4037.114502
3382.027344	3970.655273
3381.229492	4017.019531
3380.431641	4022.641357
3379.632813	3921.759766
3378.834961	4055.802246
3378.036133	4039.495117
3377.238281	4020.062012
3376.439453	3959.940186
3375.640625	3999.993652
3374.841797	3974.317139
3374.042969	4080.062012
3373.244141	3863.549561
3372.444336	3862.929932
3371.644531	3909.221191
3370.845703	3902.340576
3370.045898	3942.357910
3369.246094	4035.501953
3368.446289	3900.463867
3367.646484	3771.718750
3366.845703	3880.466797
3366.045898	3889.216064
3365.245117	3872.975586
3364.444336	3862.986084
3363.643555	3796.796875
3362.842773	3739.994385
3362.041992	3714.423828
3361.241211	3645.169189
3360.440430	3735.075195
3359.638672	3771.914551
3358.836914	3749.474121
3358.036133	3811.250244
3357.234375	3788.810547
3356.432617	3735.199219
3355.629883	3787.595459
3354.828125	3737.118164
3354.026367	3792.613281
3353.223633	3820.047852
3352.420898	3616.936768
3351.618164	3821.937744
3350.815430	3684.292725
3350.012695	3612.083008
3349.209961	3764.058594
3348.407227	3894.195313
3347.603516	3635.244385
3346.799805	3603.542725
3345.997070	3562.516846
3345.193359	3425.067383
3344.389648	3592.478027
3343.584961	3650.989502
3342.781250	3613.091309
3341.977539	3581.423096
3341.172852	3562.198486
3340.368164	3536.764160
3339.564453	3632.525635
3338.759766	3482.812744
3337.954102	3662.424316
3337.149414	3568.660400
3336.344727	3527.718018
3335.539063	3440.215332
3334.734375	3461.394287
3333.928711	3479.462646
3333.123047	3596.833496
3332.317383	3583.844971
3331.511719	3533.631592
3330.705078	3486.536377
3329.899414	3467.368652
3329.092773	3469.913574
3328.287109	3484.858887
3327.480469	3546.298096
3326.673828	3493.039307
3325.867188	3427.401855
3325.060547	3355.588379
3324.252930	3587.394287
3323.446289	3462.921875
3322.638672	3453.075439
3321.831055	3353.435791
3321.024414	3374.569336
3320.216797	3386.409912
3319.408203	3361.107178
3318.600586	3422.456787
3317.792969	3418.813965
3316.984375	3430.639160
3316.175781	3396.066406
3315.368164	3290.377930
3314.559570	3459.908203
3313.750977	3468.627441
3312.941406	3403.160645
3312.132813	3427.338623
3311.323242	3371.168945
3310.514648	3281.033203
3309.705078	3252.705811
3308.895508	3351.015869
3308.085938	3236.222412
3307.276367	3334.503174
3306.466797	3352.490234
3305.656250	3355.039063
3304.846680	3305.124512
3304.036133	3282.995605
3303.225586	3353.424316
3302.415039	3368.309082
3301.604492	3265.995361
3300.793945	3250.053711
3299.983398	3212.535645
3299.171875	3187.359863
3298.361328	3294.720459
3297.549805	3269.539307
3296.738281	3250.528320
3295.926758	3216.120361
3295.115234	3212.524414
3294.303711	3288.998535
3293.491211	3140.674316
3292.679688	3134.013184
3291.867188	3305.884277
3291.054688	3182.249512
3290.242188	3200.201416
3289.429688	3076.623047
3288.617188	3122.271240
3287.804688	3195.585693
3286.991211	3250.425293
3286.177734	3083.872803
3285.365234	3267.827148
3284.551758	3116.693359
3283.738281	3134.632324
3282.924805	3266.254395
3282.110352	3238.080566
3281.296875	3191.485596
3280.482422	3006.701660
3279.668945	3175.107910
3278.854492	3193.019775
3278.040039	3152.600830
3277.225586	3106.056641
3276.411133	3068.733398
3275.595703	3163.356445
3274.781250	3141.374512
3273.965820	3051.919922
3273.150391	3088.231201
3272.335938	3127.597168
3271.519531	3154.687256
3270.704102	2927.349609
3269.888672	3104.637939
3269.073242	3101.075439
3268.256836	3008.663330
3267.440430	3020.433838
3266.625000	3099.582520
3265.808594	3065.399414
3264.991211	3126.144287
3264.174805	3012.372559
3263.358398	3011.888916
3262.541016	3075.673340
3261.724609	3136.377441
3260.907227	2885.004150
3260.089844	3077.251465
3259.272461	3128.750488
3258.455078	3067.090088
3257.637695	3158.320557
3256.819336	2998.853027
3256.001953	3087.008545
3255.183594	3086.512939
3254.365234	2994.353760
3253.546875	2969.433350
3252.728516	3136.953125
3251.910156	3121.179688
3251.090820	3099.304199
3250.272461	3150.707764
3249.453125	3076.941406
3248.633789	3085.603760
3247.814453	3130.881592
3246.995117	2938.162598
3246.175781	2983.449463
3245.356445	2976.870361
3244.536133	3031.284912
3243.716797	3058.240234
3242.896484	3021.166016
3242.076172	2999.344238
3241.255859	2916.576904
3240.435547	3047.135498
3239.615234	2897.360596
3238.793945	3027.880127
3237.973633	2999.982910
3237.152344	2932.507568
3236.331055	2910.723877
3235.509766	2955.919434
3234.688477	2958.488770
3233.867188	2964.100098
3233.045898	2997.094238
3232.223633	2993.570801
3231.402344	2807.542969
3230.580078	2968.279541
3229.757813	2891.783447
3228.935547	3022.051758
3228.113281	3006.367432
3227.291016	3078.828369
3226.467773	2871.693604
3225.645508	2983.651123
3224.822266	2876.847168
3223.999023	2940.169922
3223.175781	2888.071045
3222.352539	2790.442627
3221.529297	2956.969238
3220.705078	2856.325684
3219.881836	2877.111572
3219.057617	2973.751709
3218.233398	2888.323486
3217.409180	2866.625488
3216.584961	2878.297119
3215.760742	2874.802246
3214.936523	2944.076904
3214.111328	2886.005127
3213.287109	2885.541748
3212.461914	2821.437012
3211.636719	2830.073975
3210.811523	2838.708252
3209.986328	2889.746826
3209.161133	2868.082520
3208.334961	2752.553711
3207.509766	2842.940430
3206.683594	2896.972168
3205.857422	2826.894043
3205.031250	2905.120361
3204.205078	2947.013184
3203.378906	2901.162109
3202.552734	2846.251221
3201.725586	2851.842529
3200.899414	2908.835693
3200.072266	2826.740723
3199.245117	2793.036133
3198.417969	2895.345215
3197.590820	2855.596680
3196.762695	2800.754395
3195.935547	2782.179688
3195.107422	2866.302246
3194.280273	2859.802246
3193.452148	2868.400879
3192.624023	2801.524658
3191.795898	2752.780273
3190.966797	2818.732178
3190.138672	2782.070313
3189.309570	2742.403076
3188.481445	2720.847412
3187.652344	2723.426270
3186.823242	2750.128174
3185.994141	2725.566406
3185.165039	2716.084961
3184.334961	2757.845215
3183.505859	2691.104004
3182.675781	2738.880859
3181.845703	2672.163818
3181.016602	2593.419922
3180.185547	2698.409912
3179.355469	2755.187988
3178.525391	2718.617676
3177.695313	2775.374023
3176.864258	2768.908691
3176.033203	2690.224609
3175.202148	2674.748779
3174.371094	2665.294434
3173.540039	2679.905029
3172.708984	2733.605225
3171.877930	2651.982910
3171.045898	2639.531494
3170.213867	2696.218018
3169.381836	2575.571289
3168.550781	2713.380615
3167.717773	2610.796143
3166.885742	2619.388428
3166.053711	2639.991211
3165.220703	2648.575928
3164.388672	2621.128418
3163.555664	2584.683594
3162.722656	2659.305176
3161.889648	2547.841309
3161.056641	2568.435303
3160.222656	2631.023193
3159.389648	2594.605957
3158.555664	2669.165527
3157.722656	2644.747803
3156.888672	2614.342041
3156.054688	2562.962402
3155.220703	2631.484619
3154.385742	2685.001465
3153.551758	2522.776611
3152.716797	2603.254883
3151.882813	2623.802979
3151.047852	2542.523682
3150.212891	2569.063232
3149.377930	2338.130371
3148.541992	2487.418945
3147.707031	2367.306885
3146.872070	2459.688477
3146.036133	2531.097412
3145.200195	2575.560791
3144.364258	2524.302002
3143.528320	2493.992188
3142.692383	2514.520752
3141.856445	2573.905518
3141.019531	2465.889404
3140.182617	2495.377686
3139.346680	2402.348633
3138.509766	2578.226074
3137.672852	2461.317139
3136.835938	2472.867676
3135.998047	2573.996826
3135.161133	2430.274414
3134.323242	2582.124756
3133.485352	2516.047607
3132.648438	2491.770020
3131.810547	2375.006104
3130.971680	2395.506592
3130.133789	2418.983154
3129.295898	2415.612061
3128.457031	2465.913818
3127.619141	2510.236572
3126.780273	2450.217041
3125.941406	2464.724609
3125.102539	2392.812256
3124.262695	2368.592529
3123.423828	2398.000732
3122.583984	2341.025391
3121.745117	2394.251709
3120.905273	2343.250244
3120.065430	2518.514404
3119.225586	2428.814941
3118.385742	2452.232422
3117.544922	2398.278564
3116.705078	2457.394043
3115.864258	2403.456543
3115.024414	2379.277344
3114.183594	2521.628418
3113.342773	2381.485352
3112.500977	2452.446533
3111.660156	2297.498535
3110.819336	2362.506592
3109.977539	2252.191162
3109.135742	2391.454346
3108.293945	2301.961670
3107.452148	2334.259277
3106.610352	2336.853027
3105.768555	2425.542480
3104.926758	2342.038330
3104.083984	2288.239746
3103.241211	2341.285156
3102.398438	2358.710205
3101.555664	2497.754150
3100.712891	2280.836182
3099.870117	2366.468994
3099.027344	2360.158203
3098.183594	2433.892334
3097.339844	2303.081787
3096.497070	2284.929932
3095.653320	2246.041748
3094.809570	2387.887207
3093.964844	2334.184326
3093.121094	2327.885498
3092.276367	2283.093018
3091.432617	2276.804199
3090.587891	2232.034180
3089.743164	2287.910889
3088.898438	2249.072021
3088.053711	2275.339600
3087.208984	2313.432373
3086.363281	2327.849609
3085.517578	2206.221680
3084.672852	2256.134521
3083.827148	2288.292480
3082.981445	2355.911865
3082.135742	2305.289307
3081.289063	2236.952881
3080.443359	2340.002197
3079.596680	2194.876221
3078.750000	2256.548828
3077.904297	2241.420166
3077.056641	2288.301758
3076.209961	2270.220703
3075.363281	2225.580078
3074.516602	2213.416992
3073.668945	2286.829590
3072.821289	2183.202148
3071.973633	2374.587891
3071.125977	2191.347656
3070.278320	2211.636963
3069.430664	2290.887207
3068.583008	2149.019531
3067.734375	2307.834717
3066.885742	2272.100098
3066.038086	2239.323242
3065.189453	2227.178711
3064.339844	2241.548096
3063.491211	2303.033447
3062.642578	2217.270020
3061.792969	2305.236572
3060.944336	2257.767334
3060.094727	2254.460938
3059.245117	2177.588379
3058.395508	2180.180176
3057.545898	2238.664063
3056.695313	2229.479980
3055.845703	2135.015869
3054.995117	2134.672363
3054.144531	2104.930176
3053.293945	2181.015137
3052.443359	2212.992188
3051.592773	2200.882324
3050.742188	2232.845459
3049.890625	2217.798828
3049.039063	2267.370850
3048.188477	2287.561768
3047.336914	2243.152588
3046.485352	2189.950928
3045.633789	2198.403809
3044.781250	2148.161133
3043.929688	2174.222900
3043.077148	2132.801025
3042.224609	2100.192139
3041.372070	2146.778320
3040.519531	2125.906738
3039.666992	2096.246338
3038.814453	2186.780518
3037.960938	2186.428467
3037.108398	2180.215820
3036.254883	2115.406494
3035.401367	2179.513916
3034.547852	2179.163086
3033.694336	2172.955078
3032.840820	2149.181152
3031.986328	2069.790771
3031.132813	2089.947266
3030.278320	2069.124268
3029.423828	2042.455811
3028.569336	2106.491943
3027.714844	2068.125244
3026.860352	2187.706543
3026.004883	2035.292236
3025.150391	2081.745361
3024.294922	2245.116699
3023.439453	2136.609375
3022.583984	2121.653320
3021.728516	2141.765137
3020.873047	2118.048828
3020.016602	2176.127197
3019.161133	2000.546509
3018.304688	2023.584595
3017.448242	2177.995850
3016.591797	2049.204834
3015.735352	2086.816895
3014.878906	1955.163940
3014.021484	2001.532104
3013.165039	2129.567139
3012.307617	2015.471191
3011.450195	2050.141846
3010.592773	2032.317017
3009.735352	2046.566406
3008.877930	2116.193604
3008.020508	2107.109619
3007.162109	2001.868774
3006.303711	2091.863525
3005.445313	2047.831909
3004.587891	2117.402588
3003.728516	2090.853027
3002.870117	2023.549927
3002.011719	2133.846191
3001.152344	2054.915283
3000.293945	2080.775879
2999.434570	1937.864990
2998.575195	1902.641968
2997.715820	2076.861572
2996.855469	2108.518555
2995.996094	2050.022217
2995.136719	1994.452026
2994.276367	1962.154907
2993.416016	1993.809448
2992.555664	2063.231445
2991.695313	2068.709961
2990.834961	1987.036011
2989.973633	2041.902466
2989.113281	2076.422607
2988.251953	2078.991699
2987.390625	2052.528320
2986.530273	2005.754761
2985.667969	2104.106934
2984.806641	1932.564819
2983.945313	2071.514893
2983.083008	2050.875488
2982.221680	2186.861328
2981.359375	1945.818970
2980.497070	1939.706665
2979.634766	1878.516357
2978.772461	1994.152710
2977.909180	2048.893555
2977.046875	2028.280640
2976.183594	2117.763184
2975.320313	1969.694824
2974.457031	2001.234985
2973.593750	2067.513184
2972.730469	2038.227905
2971.867188	2008.952026
2971.002930	1956.531250
2970.139648	2008.304565
2969.275391	1967.474121
2968.411133	2004.764404
2967.546875	1992.871704
2966.682617	1859.520996
2965.817383	2041.384521
2964.953125	1983.235229
2964.087891	1974.244019
2963.222656	1953.695190
2962.357422	1993.834961
2961.492188	1990.624512
2960.626953	1955.639404
2959.761719	2027.529663
2958.895508	2035.866089
2958.030273	2032.650635
2957.164063	1873.547852
2956.297852	1930.973022
2955.431641	1976.835938
2954.565430	1959.204712
2953.698242	1958.888916
2952.832031	2022.032104
2951.964844	1946.721313
2951.097656	1983.893921
2950.230469	1957.626099
2949.363281	1991.902222
2948.496094	1899.351563
2947.628906	1924.980713
2946.760742	2039.920166
2945.893555	2030.948853
2945.025391	2062.304932
2944.157227	2010.135132
2943.289063	1983.896606
2942.419922	1937.514038
2941.551758	1902.660156
2940.683594	1974.303223
2939.814453	1999.882568
2938.945313	1996.683105
2938.076172	1933.075928
2937.207031	1993.163086
2936.337891	1946.830933
2935.468750	2052.899658
2934.598633	1888.708252
2933.728516	2040.740601
2932.859375	1957.070801
2931.989258	1948.135132
2931.119141	2002.405884
2930.248047	1976.231201
2929.377930	1950.064819
2928.506836	1889.448730
2927.636719	1903.499268
2926.765625	1929.027466
2925.894531	2034.910522
2925.023438	1916.926636
2924.152344	1910.879150
2923.280273	1890.489868
2922.409180	1959.023193
2921.537109	2018.931030
2920.665039	2024.340088
2919.792969	1955.208618
2918.920898	1966.358887
2918.048828	2052.020264
2917.176758	2091.806152
2916.303711	1956.812500
2915.430664	2005.194336
2914.558594	1870.258179
2913.685547	1990.229370
2912.811523	1961.276489
2911.938477	1975.273682
2911.065430	1997.853027
2910.191406	2069.075684
2909.318359	1945.704590
2908.444336	1896.755859
2907.570313	1930.774780
2906.696289	1881.844238
2905.821289	1941.589844
2904.947266	2027.047241
2904.072266	1886.650635
2903.198242	1966.373047
2902.323242	2006.062744
2901.448242	1900.023560
2900.573242	1896.860229
2899.697266	1873.704102
2898.822266	1913.382935
2897.946289	1984.457520
2897.071289	1887.071655
2896.195313	1995.234863
2895.319336	1940.687744
2894.443359	1937.521118
2893.566406	1942.914551
2892.690430	2022.473022
2891.813477	1868.132568
2890.937500	1845.017944
2890.060547	1864.678467
2889.183594	1884.332642
2888.306641	1801.370728
2887.428711	1863.775879
2886.551758	1815.036133
2885.673828	1891.663208
2884.796875	1882.812622
2883.918945	1930.924194
2883.041016	1927.765015
2882.162109	1850.583496
2881.284180	1881.597290
2880.406250	1770.294434
2879.527344	1846.841919
2878.648438	1803.865601
2877.769531	1786.505859
2876.890625	1891.456421
2876.011719	1930.964844
2875.132813	1919.279541
2874.252930	1873.483032
2873.374023	1813.489014
2872.494141	1915.508301
2871.614258	1903.832886
2870.734375	1892.161133
2869.854492	1803.796387
2868.973633	1877.349487
2868.093750	1871.366943
2867.212891	1831.315308
2866.332031	1884.956665
2865.452148	1782.472412
2864.570313	1841.779907
2863.689453	1895.393433
2862.808594	1827.000488
2861.926758	1872.089478
2861.045898	1834.918579
2860.164063	1792.088623
2859.282227	1786.128906
2858.400391	1831.195190
2857.518555	1774.215332
2856.635742	1864.608887
2855.753906	1816.141724
2854.871094	1917.830566
2853.988281	1826.884766
2853.105469	1750.127808
2852.222656	1874.429688
2851.339844	1715.590576
2850.456055	1854.010376
2849.573242	1799.939209
2848.689453	1785.500366
2847.805664	1793.699463
2846.921875	1739.664063
2846.038086	1829.887573
2845.154297	1866.353516
2844.269531	1868.879395
2843.385742	1797.905151
2842.500977	1738.259521
2841.616211	1825.584229
2840.731445	1808.336182
2839.846680	1760.017944
2838.961914	1785.155151
2838.076172	1742.504395
2837.190430	1750.693970
2836.305664	1741.941406
2835.419922	1786.824707
2834.534180	1786.536011
2833.648438	1715.700439
2832.761719	1732.351807
2831.875977	1794.133179
2830.989258	1785.381714
2830.102539	1751.252686
2829.215820	1767.887329
2828.329102	1756.325073
2827.442383	1719.398438
2826.555664	1778.303467
2825.667969	1724.478394
2824.781250	1769.276855
2823.893555	1780.258423
2823.005859	1830.666138
2822.118164	1734.627808
2821.229492	1841.336548
2820.341797	1756.587646
2819.453125	1657.793091
2818.565430	1739.135132
2817.676758	1747.295166
2816.788086	1772.331787
2815.899414	1811.424072
2815.009766	1833.629883
2814.121094	1701.176025
2813.231445	1723.392456
2812.342773	1709.059082
2811.453125	1753.750854
2810.563477	1815.288330
2809.673828	1770.041504
2808.783203	1730.427490
2807.893555	1775.086670
2807.002930	1738.292847
2806.113281	1743.627441
2805.222656	1701.235718
2804.332031	1743.063721
2803.440430	1742.781982
2802.549805	1764.947876
2801.659180	1730.996582
2800.767578	1699.861206
2799.875977	1693.977173
2798.984375	1735.765503
2798.092773	1794.362305
2797.201172	1693.155762
2796.309570	1771.359985
2795.416992	1838.329468
2794.524414	1728.759033
2793.632813	1686.458130
2792.740234	1823.433105
2791.846680	1739.122681
2790.954102	1814.443359
2790.061523	1825.348389
2789.167969	1724.283447
2788.275391	1749.192993
2787.381836	1785.287476
2786.488281	1636.715210
2785.593750	1751.141846
2784.700195	1638.982788
2783.806641	1750.575562
2782.912109	1747.496460
2782.017578	1755.600464
2781.124023	1735.750977
2780.228516	1769.005859
2779.333984	1768.719849
2778.439453	1695.796631
2777.543945	1720.661865
2776.649414	1765.068848
2775.753906	1759.198608
2774.858398	1711.451416
2773.962891	1713.966064
2773.067383	1783.464355
2772.170898	1755.270142
2771.275391	1671.282593
2770.378906	1712.857300
2769.482422	1732.104736
2768.585938	1754.134766
2767.689453	1776.157471
2766.792969	1745.203613
2765.896484	1761.645752
2764.999023	1780.869507
2764.101563	1713.705078
2763.205078	1691.139404
2762.307617	1754.934814
2761.409180	1726.799316
2760.511719	1648.548096
2759.614258	1706.750732
2758.715820	1784.421265
2757.817383	1722.898682
2756.918945	1725.402832
2756.020508	1705.646362
2755.122070	1744.318481
2754.223633	1752.380981
2753.324219	1735.410767
2752.425781	1737.910522
2751.526367	1687.585571
2750.626953	1634.497070
2749.727539	1739.846313
2748.828125	1767.353271
2747.927734	1617.033325
2747.028320	1719.556030
2746.127930	1752.607788
2745.227539	1777.317749
2744.327148	1732.604248
2743.426758	1679.576782
2742.526367	1673.753540
2741.625000	1695.684814
2740.724609	1731.482910
2739.823242	1706.233276
2738.921875	1680.991943
2738.020508	1622.477051
2737.119141	1783.049316
2736.216797	1757.807617
2735.315430	1699.308594
2734.413086	1735.065186
2733.511719	1707.072144
2732.609375	1720.649658
2731.707031	1723.141357
2730.803711	1722.862427
2729.901367	1661.656128
2728.998047	1630.928345
2728.095703	1658.349609
2727.192383	1707.906494
2726.289063	1743.609253
2725.385742	1643.708252
2724.482422	1723.677490
2723.578125	1662.540039
2722.674805	1653.973389
2721.770508	1722.840332
2720.866211	1678.322266
2719.961914	1678.050415
2719.057617	1746.880005
2718.152344	1685.797852
2717.248047	1693.814331
2716.342773	1607.896118
2715.438477	1679.454468
2714.533203	1767.560547
2713.627930	1687.194580
2712.721680	1689.682251
2711.816406	1609.354980
2710.910156	1647.734619
2710.004883	1636.429443
2709.098633	1669.273926
2708.192383	1633.140747
2707.286133	1599.777344
2706.379883	1649.158447
2705.472656	1701.280762
2704.565430	1563.160400
2703.659180	1607.010376
2702.751953	1656.358154
2701.844727	1650.578735
2700.937500	1611.739746
2700.029297	1762.985229
2699.122070	1572.658569
2698.213867	1712.846069
2697.305664	1618.955566
2696.397461	1679.256592
2695.489258	1637.697998
2694.581055	1736.504272
2693.672852	1604.148926
2692.763672	1702.928467
2691.855469	1688.899292
2690.946289	1718.877808
2690.037109	1699.351074
2689.127930	1718.320801
2688.217773	1676.809448
2687.308594	1654.550293
2686.398438	1695.501831
2685.489258	1601.811035
2684.579102	1664.734375
2683.668945	1683.691162
2682.757813	1601.032349
2681.847656	1606.264404
2680.937500	1625.221191
2680.026367	1564.570923
2679.115234	1643.905396
2678.204102	1690.286377
2677.292969	1717.447754
2676.381836	1654.078491
2675.469727	1681.236694
2674.558594	1650.800171
2673.646484	1576.505371
2672.734375	1677.677979
2671.822266	1622.588867
2670.910156	1679.874512
2669.998047	1663.162476
2669.084961	1671.111328
2668.172852	1618.797852
2667.259766	1604.842285
2666.346680	1582.676514
2665.433594	1700.143188
2664.520508	1653.333374
2663.606445	1694.118286
2662.693359	1674.688599
2661.779297	1638.849487
2660.865234	1627.641602
2659.951172	1654.728516
2659.037109	1706.418457
2658.123047	1829.180908
2657.208008	1634.787476
2656.293945	1607.189209
2655.378906	1653.387451
2654.463867	1661.316528
2653.548828	1721.150879
2652.633789	1693.556274
2651.718750	1676.895020
2650.802734	1594.703369
2649.886719	1659.969849
2648.971680	1662.430420
2648.055664	1645.784790
2647.138672	1550.006958
2646.222656	1680.720825
2645.306641	1688.632202
2644.389648	1762.002319
2643.473633	1622.633667
2642.556641	1570.563721
2641.639648	1671.179443
2640.721680	1627.295776
2639.804688	1577.975464
2638.887695	1645.842163
2637.969727	1675.544189
2637.051758	1656.204224
2636.133789	1544.268921
2635.215820	1617.542969
2634.297852	1592.776367
2633.379883	1657.852051
2632.460938	1692.966553
2631.541992	1627.379028
2630.623047	1667.928955
2629.704102	1643.173950
2628.785156	1564.026001
2627.866211	1620.883911
2626.946289	1626.059204
2626.027344	1579.577026
2625.107422	1628.249756
2624.187500	1608.960693
2623.267578	1630.438721
2622.347656	1613.872437
2621.426758	1662.507813
2620.506836	1683.966553
2619.585938	1648.390015
2618.665039	1626.401001
2617.744141	1726.582886
2616.823242	1642.158936
2615.902344	1609.325928
2614.981445	1600.924438
2614.059570	1665.776367
2613.137695	1725.182129
2612.215820	1638.114624
2611.293945	1578.191895
2610.372070	1558.957153
2609.450195	1637.317017
2608.527344	1637.051147
2607.604492	1693.693481
2606.682617	1679.871216
2605.759766	1622.708862
2604.835938	1695.577393
2603.913086	1754.881348
2602.990234	1648.995728
2602.066406	1754.311646
2601.142578	1729.665283
2600.218750	1788.925049
2599.294922	1585.688232
2598.371094	1669.301636
2597.447266	1644.684937
2596.522461	1730.966187
2595.598633	1644.150879
2594.673828	1716.885254
2593.749023	1749.046265
2592.824219	1681.190308
2591.898438	1767.395264
2590.973633	1648.220215
2590.047852	1720.894775
2589.122070	1720.615234
2588.197266	1666.322144
2587.271484	1744.358643
2586.344727	1665.780884
2585.418945	1603.424927
2584.492188	1705.723755
2583.566406	1635.285889
2582.639648	1686.283325
2581.712891	1591.592896
2580.786133	1653.369385
2579.858398	1720.519287
2578.931641	1801.128784
2578.003906	1714.568604
2577.077148	1652.295288
2576.149414	1660.111816
2575.221680	1694.871338
2574.292969	1581.443237
2573.365234	1594.654663
2572.437500	1615.941528
2571.508789	1704.541260
2570.580078	1712.341431
2569.651367	1690.527832
2568.722656	1657.955322
2567.793945	1649.612793
2566.864258	1539.029663
2565.935547	1665.217773
2565.005859	1592.324219
2564.076172	1699.637451
2563.146484	1642.895142
2562.216797	1634.562866
2561.286133	1712.248901
2560.356445	1623.281494
2559.425781	1668.698608
2558.495117	1587.827026
2557.564453	1713.822388
2556.633789	1662.513550
2555.703125	1576.311523
2554.771484	1624.384033
2553.839844	1688.547974
2552.909180	1653.380737
2551.977539	1569.919556
2551.045898	1566.981201
2550.113281	1564.043701
2549.181641	1668.399780
2548.249023	1673.492310
2547.317383	1587.414063
2546.384766	1565.708008
2545.452148	1578.856323
2544.519531	1597.360474
2543.585938	1661.413574
2542.653320	1607.558228
2541.719727	1588.545044
2540.786133	1545.432495
2539.853516	1577.316650
2538.918945	1577.060181
2537.985352	1560.741211
2537.051758	1552.457520
2536.117188	1570.938599
2535.182617	1667.011230
2534.249023	1578.453735
2533.313477	1505.974487
2532.378906	1564.567993
2531.444336	1609.772217
2530.508789	1609.510498
2529.574219	1702.809692
2528.638672	1608.986938
2527.703125	1592.691406
2526.767578	1538.995117
2525.832031	1608.202026
2524.895508	1618.624390
2523.959961	1594.326050
2523.023438	1599.406982
2522.086914	1631.183105
2521.150391	1625.579224
2520.213867	1539.912354
2519.276367	1635.723999
2518.339844	1630.121948
2517.402344	1571.171265
2516.464844	1584.251099
2515.527344	1530.660156
2514.589844	1522.412476
2513.652344	1495.506958
2512.713867	1601.877808
2511.776367	1569.638062
2510.837891	1620.007935
2509.899414	1558.471069
2508.960938	1603.499023
2508.021484	1645.849121
2507.083008	1589.663452
2506.143555	1602.716431
2505.205078	1578.498535
2504.265625	1575.580322
2503.326172	1591.289917
2502.386719	1540.479858
2501.446289	1566.830688
2500.506836	1622.429810
2499.566406	1542.387085
2498.625977	1566.065796
2497.685547	1579.103027
2496.745117	1634.663696
2495.804688	1589.219238
2494.863281	1594.274780
2493.922852	1609.955322
2492.981445	1500.786621
2492.040039	1566.937988
2491.098633	1617.135498
2490.157227	1523.948486
2489.214844	1563.518311
2488.273438	1629.616211
2487.331055	1544.433594
2486.388672	1589.287231
2485.446289	1618.209229
2484.503906	1548.984131
2483.561523	1567.295532
2482.618164	1577.646362
2481.675781	1476.648560
2480.732422	1585.084473
2479.789063	1560.974487
2478.845703	1581.918579
2477.902344	1589.609009
2476.958008	1570.807739
2476.013672	1546.715576
2475.070313	1525.279175
2474.125977	1554.154663
2473.181641	1553.901489
2472.237305	1508.653564
2471.291992	1587.797729
2470.347656	1553.142456
2469.402344	1589.926025
2468.457031	1584.376953
2467.511719	1512.714478
2466.566406	1496.603027
2465.621094	1551.877930
2464.674805	1585.988159
2463.728516	1519.657715
2462.783203	1590.756348
2461.836914	1524.446655
2460.890625	1624.578857
2459.943359	1568.849731
2458.997070	1573.875610
2458.049805	1584.180420
2457.103516	1583.922241
2456.156250	1486.004883
2455.208984	1535.904053
2454.260742	1575.232422
2453.313477	1495.831299
2452.365234	1558.892822
2451.417969	1516.442139
2450.469727	1561.021606
2449.521484	1447.400757
2448.573242	1513.064941
2447.624023	1612.970093
2446.675781	1586.355713
2445.726563	1609.809570
2444.778320	1575.301636
2443.829102	1514.466187
2442.878906	1519.486206
2441.929688	1590.329468
2440.980469	1479.502441
2440.030273	1545.064697
2439.080078	1497.442017
2438.129883	1565.611206
2437.179688	1575.879395
2436.229492	1517.753296
2435.279297	1609.555542
2434.328125	1601.404541
2433.377930	1566.964722
2432.426758	1529.907349
2431.475586	1553.312378
2430.523438	1550.431274
2429.572266	1537.041382
2428.621094	1547.298706
2427.668945	1457.743286
2426.716797	1412.861328
2425.764648	1536.039185
2424.812500	1596.170166
2423.860352	1551.287354
2422.907227	1532.663452
2421.955078	1495.677612
2421.001953	1498.057251
2420.048828	1560.768311
2419.095703	1547.400146
2418.142578	1534.036377
2417.188477	1591.467041
2416.235352	1604.314575
2415.281250	1554.253906
2414.327148	1574.964966
2413.373047	1603.529663
2412.418945	1522.056885
2411.463867	1542.762939
2410.509766	1521.560303
2409.554688	1468.943359
2408.599609	1573.424194
2407.644531	1484.169678
2406.689453	1520.567749
2405.734375	1515.086182
2404.778320	1446.815186
2403.822266	1501.512451
2402.867188	1566.653687
2401.912109	1490.562500
2400.955078	1448.485718
2399.998047	1450.863525
2399.042969	1479.378052
2398.085938	1481.749878
2397.128906	1455.379272
2396.171875	1439.466919
2395.214844	1554.161621
2394.257813	1488.617798
2393.300781	1475.318970
2392.341797	1469.856689
2391.384766	1490.499390
2390.427734	1505.915527
2389.468750	1445.651733
2388.509766	1539.341797
2387.552734	1541.699097
2386.593750	1416.253784
2385.634766	1468.178101
2384.675781	1556.588379
2383.716797	1462.484985
2382.757813	1496.130737
2381.798828	1506.310791
2380.839844	1498.247925
2379.878906	1487.582520
2378.919922	1487.339600
2377.960938	1497.514282
2377.000000	1426.963257
2376.039063	1455.369019
2375.080078	1478.559204
2374.119141	1465.304443
2373.158203	1457.258423
2372.197266	1506.455200
2371.236328	1412.558838
2370.275391	1446.140869
2369.314453	1440.703613
2368.351563	1385.865723
2367.390625	1455.831299
2366.429688	1465.990601
2365.466797	1481.344360
2364.503906	1488.897705
2363.542969	1470.468506
2362.580078	1452.045288
2361.617188	1469.988159
2360.654297	1399.636475
2359.691406	1425.370850
2358.728516	1396.583374
2357.765625	1406.737061
2356.802734	1416.887329
2355.837891	1382.926025
2354.875000	1424.207031
2353.910156	1553.662354
2352.947266	1348.535034
2351.982422	1426.102051
2351.017578	1547.716064
2350.054688	1415.267822
2349.089844	1394.303467
2348.125000	1464.038574
2347.160156	1396.438721
2346.195313	1455.789063
2345.228516	1416.701904
2344.263672	1450.134277
2343.298828	1361.867798
2342.332031	1405.652832
2341.367188	1413.187866
2340.400391	1340.497559
2339.433594	1345.453369
2338.468750	1272.797852
2337.501953	1388.985229
2336.535156	1360.310669
2335.568359	1450.588501
2334.601563	1357.280640
2333.632813	1357.058838
2332.666016	1413.694946
2331.699219	1519.409058
2330.730469	1676.760742
2329.763672	1624.822876
2328.794922	1578.067627
2327.828125	1471.933716
2326.859375	1494.930298
2325.890625	1499.848877
2324.921875	1417.009277
2323.953125	1357.422729
2322.984375	1385.583252
2322.015625	1382.776855
2321.046875	1385.130249
2320.076172	1387.482666
2319.107422	1351.156250
2318.136719	1394.763306
2317.167969	1412.579102
2316.197266	1422.657227
2315.226563	1378.618042
2314.257813	1396.427612
2313.287109	1427.111450
2312.316406	1406.273315
2311.345703	1413.768799
2310.375000	1351.743530
2309.402344	1390.137451
2308.431641	1356.449219
2307.460938	1333.066040
2306.488281	1317.409546
2305.517578	1430.390381
2304.544922	1355.562012
2303.572266	1383.630005
2302.601563	1288.262573
2301.628906	1411.458008
2300.656250	1321.258057
2299.683594	1357.023682
2298.710938	1364.510742
2297.736328	1292.347656
2296.763672	1320.393677
2295.791016	1317.609131
2294.816406	1355.913818
2293.843750	1376.232788
2292.869141	1304.126587
2291.896484	1373.215698
2290.921875	1388.389038
2289.947266	1336.843384
2288.972656	1328.928101
2287.998047	1456.964600
2287.023438	1282.329346
2286.048828	1330.840088
2285.072266	1353.696533
2284.097656	1461.137817
2283.123047	1325.060669
2282.146484	1358.157104
2281.171875	1299.005615
2280.195313	1334.656982
2279.218750	1349.806396
2278.242188	1265.076294
2277.265625	1300.715698
2276.289063	1303.062744
2275.312500	1382.197876
2274.335938	1274.484863
2273.359375	1386.862915
2272.382813	1340.585205
2271.404297	1350.597534
2270.427734	1375.951660
2269.449219	1352.712402
2268.472656	1342.264160
2267.494141	1357.381958
2266.515625	1277.928101
2265.537109	1282.829712
2264.558594	1341.385132
2263.580078	1246.645264
2262.601563	1358.825073
2261.623047	1368.817627
2260.642578	1302.206421
2259.664063	1363.263428
2258.685547	1322.199951
2257.705078	1296.462524
2256.724609	1372.800415
2255.746094	1318.999146
2254.765625	1293.274780
2253.785156	1290.512451
2252.804688	1402.501099
2251.824219	1356.378906
2250.843750	1279.681641
2249.863281	1358.483276
2248.880859	1342.970703
2247.900391	1345.298584
2246.919922	1263.558350
2245.937500	1316.839966
2244.955078	1306.437500
2243.974609	1339.324707
2242.992188	1384.930054
2242.009766	1272.705078
2241.027344	1308.126465
2240.044922	1348.625366
2239.062500	1353.492676
2238.080078	1261.696045
2237.097656	1253.859375
2236.113281	1329.941162
2235.130859	1372.945557
2234.146484	1410.851563
2233.164063	1303.870728
2232.179688	1341.775635
2231.195313	1336.474121
2230.210938	1267.663940
2229.226563	1333.495972
2228.242188	1325.658691
2227.257813	1287.354004
2226.273438	1360.766479
2225.289063	1340.236816
2224.302734	1307.024170
2223.318359	1304.272461
2222.332031	1408.078857
2221.347656	1222.671631
2220.361328	1230.079834
2219.375000	1270.451416
2218.390625	1366.588989
2217.404297	1325.804810
2216.417969	1259.688232
2215.429688	1343.109253
2214.443359	1302.348999
2213.457031	1279.335327
2212.470703	1327.251099
2211.482422	1306.773315
2210.496094	1288.834351
2209.507813	1270.901245
2208.521484	1280.817871
2207.533203	1278.076904
2206.544922	1336.067261
2205.556641	1394.038452
2204.568359	1267.329712
2203.580078	1259.534302
2202.591797	1304.845581
2201.601563	1284.404663
2200.613281	1301.889526
2199.625000	1286.510742
2198.634766	1314.098022
2197.646484	1291.142090
2196.656250	1316.193115
2195.666016	1232.623535
2194.675781	1323.337524
2193.685547	1307.970215
2192.695313	1229.492188
2191.705078	1252.008423
2190.714844	1324.993042
2189.724609	1236.457153
2188.734375	1216.070557
2187.742188	1261.276978
2186.751953	1250.981445
2185.759766	1228.080566
2184.767578	1182.495361
2183.777344	1283.137207
2182.785156	1285.447144
2181.792969	1270.115723
2180.800781	1267.387573
2179.808594	1252.064087
2178.816406	1254.377319
2177.822266	1309.576660
2176.830078	1236.339600
2175.837891	1281.453247
2174.843750	1281.242798
2173.849609	1230.697266
2172.857422	1187.717163
2171.863281	1280.611938
2170.869141	1247.699829
2169.875000	1302.827393
2168.880859	1196.996216
2167.886719	1262.171021
2166.892578	1226.769531
2165.898438	1284.377686
2164.902344	1206.262329
2163.908203	1236.215820
2162.912109	1218.427246
2161.917969	1293.581421
2160.921875	1245.652466
2159.925781	1235.403931
2158.931641	1280.391235
2157.935547	1305.282593
2156.939453	1292.519409
2155.943359	1229.573730
2154.945313	1241.916382
2153.949219	1274.322998
2152.953125	1226.459839
2151.955078	1303.996582
2150.958984	1266.173340
2149.960938	1250.924072
2148.964844	1260.744385
2147.966797	1135.235352
2146.968750	1237.779541
2145.970703	1240.081421
2144.972656	1224.848755
2143.974609	1282.248535
2142.976563	1219.438354
2141.976563	1249.280762
2140.978516	1241.566040
2139.980469	1236.356445
2138.980469	1213.632324
2137.980469	1180.907837
2136.982422	1213.233398
2135.982422	1200.528564
2134.982422	1302.859497
2133.982422	1315.146729
2132.982422	1244.934326
2131.982422	1199.739380
2130.982422	1289.507935
2129.982422	1179.355957
2128.980469	1206.642578
2127.980469	1316.348022
2126.978516	1253.696533
2125.978516	1231.017456
2124.976563	1235.808228
2123.974609	1215.635742
2122.972656	1257.863770
2121.970703	1257.656982
2120.968750	1269.924927
2119.966797	1222.320068
2118.964844	1217.130737
2117.962891	1199.474731
2116.958984	1201.770752
2115.957031	1184.122925
2114.953125	1243.747681
2113.951172	1208.654175
2112.947266	1223.405273
2111.943359	1178.361572
2110.939453	1133.332642
2109.935547	1237.744385
2108.931641	1252.480957
2107.927734	1170.117676
2106.923828	1192.328003
2105.919922	1259.329346
2104.914063	1264.098999
2103.910156	1229.059326
2102.904297	1218.906860
2101.898438	1201.296265
2100.894531	1208.558838
2099.888672	1220.791748
2098.882813	1188.273804
2097.876953	1198.020386
2096.871094	1227.644531
2095.865234	1157.870972
2094.859375	1157.680420
2093.851563	1204.683716
2092.845703	1226.836792
2091.837891	1246.499390
2090.832031	1266.155518
2089.824219	1188.997437
2088.816406	1255.811401
2087.810547	1218.383301
2086.802734	1185.929443
2085.794922	1190.695435
2084.787109	1195.459961
2083.777344	1158.066162
2082.769531	1187.628174
2081.761719	1132.895142
2080.751953	1174.844360
2079.744141	1204.388916
2078.734375	1191.801880
2077.726563	1184.173584
2076.716797	1221.132813
2075.707031	1201.119507
2074.697266	1240.539795
2073.687500	1213.102661
2072.677734	1212.902832
2071.667969	1165.679932
2070.656250	1212.503418
2069.646484	1222.200195
2068.636719	1167.577881
2067.625000	1184.698486
2066.613281	1127.627441
2065.603516	1233.757568
2064.591797	1166.808960
2063.580078	1206.163086
2062.568359	1196.079468
2061.556641	1136.582520
2060.544922	1111.691040
2059.533203	1190.548462
2058.519531	1155.777832
2057.507813	1153.118286
2056.496094	1207.241821
2055.482422	1137.927979
2054.468750	1164.888428
2053.457031	1174.566772
2052.443359	1236.052490
2051.429688	1122.377686
2050.416016	1156.721802
2049.402344	1195.986450
2048.388672	1190.858276
2047.375000	1094.521606
2046.359375	1195.395386
2045.345703	1160.697754
2044.330078	1177.753906
2043.316406	1194.804443
2042.300781	1194.607544
2041.285156	1157.470093
2040.269531	1137.581055
2039.255859	1176.783813
2038.240234	1159.359375
2037.222656	1208.389893
2036.207031	1166.359253
2035.191406	1092.359009
2034.175781	1165.974731
2033.158203	1197.755493
2032.142578	1155.754150
2031.125000	1123.601196
2030.107422	1224.203857
2029.091797	1150.266968
2028.074219	1154.992188
2027.056641	1199.028198
2026.039063	1159.524536
2025.021484	1088.103149
2024.001953	1078.100464
2022.984375	1100.021362
2021.966797	1114.569946
2020.947266	1126.659180
2019.929688	1136.290161
2018.910156	1104.203491
2017.890625	1165.355957
2016.871094	1170.069702
2015.853516	1162.519043
2014.833984	1194.205444
2013.812500	1198.911987
2012.792969	1159.492432
2011.773438	1193.614624
2010.753906	1112.549561
2009.732422	1122.166626
2008.712891	1185.674683
2007.691406	1126.695068
2006.671875	1131.406982
2005.650391	1160.602661
2004.628906	1140.826294
2003.607422	1140.638062
2002.585938	1125.765869
2001.564453	1079.088745
2000.542969	1127.840942
1999.519531	1132.546997
1998.498047	1173.937134
1997.476563	1173.743408
1996.453125	1048.859985
1995.429688	1114.688232
1994.408203	1116.948242
1993.384766	1058.115479
1992.361328	1160.558716
1991.337891	1138.381226
1990.314453	1140.635864
1989.291016	1079.395752
1988.267578	1088.984253
1987.242188	1079.039429
1986.218750	1196.022705
1985.193359	1095.766357
1984.169922	1134.626465
1983.144531	1107.602905
1982.119141	1073.270508
1981.095703	1116.992554
1980.070313	1136.315674
1979.044922	1075.177002
1978.019531	1070.124268
1976.992188	1082.133667
1975.966797	1103.886475
1974.941406	1093.958496
1973.914063	1066.981567
1972.888672	1117.953491
1971.861328	1168.908569
1970.833984	1022.626099
1969.808594	1207.473267
1968.781250	1078.270752
1967.753906	1097.561646
1966.726563	1087.647461
1965.699219	1087.467896
1964.669922	1121.341919
1963.642578	1096.836670
1962.615234	1086.928955
1961.585938	1052.712524
1960.558594	1091.431519
1959.529297	1088.820801
1958.500000	1105.650879
1957.470703	1117.616211
1956.441406	1080.993530
1955.412109	1054.098145
1954.382813	1112.205566
1953.353516	1131.445679
1952.324219	1031.727417
1951.294922	1092.236694
1950.263672	1079.922241
1949.234375	1133.124390
1948.203125	1081.991333
1947.171875	1052.705444
1946.140625	1171.365601
1945.111328	1112.977173
1944.080078	1139.461426
1943.046875	1061.705566
1942.015625	1119.696045
1940.984375	1126.780518
1939.953125	1102.366455
1938.919922	1092.494629
1937.888672	1053.562378
1936.855469	1123.614014
1935.824219	1084.689331
1934.791016	1077.247681
1933.757813	1079.489990
1932.724609	994.612122
1931.691406	1030.741333
1930.658203	1074.116211
1929.625000	1086.032471
1928.591797	1097.944702
1927.556641	1085.673340
1926.523438	1092.746460
1925.488281	1068.393921
1924.455078	1082.717896
1923.419922	1065.624146
1922.384766	1070.279907
1921.349609	1072.518433
1920.314453	1065.095459
1919.279297	1098.726318
1918.244141	1100.958862
1917.208984	1105.604736
1916.171875	1103.008301
1915.136719	1069.041138
1914.099609	1035.085327
1913.064453	1092.811401
1912.027344	1039.566772
1910.990234	1138.269897
1909.955078	1072.979492
1908.917969	1104.142212
1907.880859	1050.930908
1906.841797	1055.576904
1905.804688	1016.848755
1904.767578	1120.275879
1903.730469	1074.323364
1902.691406	1006.710388
1901.652344	1131.759766
1900.615234	963.040405
1899.576172	1078.426758
1898.537109	1046.959717
1897.498047	1066.037720
1896.458984	1150.071533
1895.419922	1068.090454
1894.380859	1017.404175
1893.341797	1043.688721
1892.300781	1079.582153
1891.261719	976.030640
1890.220703	1019.134216
1889.181641	1045.400879
1888.140625	1023.602356
1887.099609	1052.261963
1886.058594	1059.293823
1885.019531	1063.921631
1883.976563	1046.936890
1882.935547	1080.375122
1881.894531	1041.789307
1880.853516	1075.217285
1879.810547	1127.831299
1878.769531	1094.055054
1877.726563	1021.908508
1876.685547	1002.551636
1875.642578	1016.773926
1874.599609	1002.219543
1873.556641	1030.820679
1872.513672	1018.665588
1871.470703	1073.615479
1870.427734	1095.002197
1869.382813	1061.281372
1868.339844	977.271057
1867.294922	1010.637390
1866.251953	1055.965088
1865.207031	1039.031494
1864.164063	1072.370972
1863.119141	988.428162
1862.074219	1012.193237
1861.029297	1012.025513
1859.984375	1009.465698
1858.937500	1021.256958
1857.892578	990.000732
1856.847656	1016.136658
1855.800781	1020.749268
1854.755859	1027.750366
1853.708984	1027.580078
1852.664063	974.844604
1851.617188	1017.683716
1850.570313	974.521423
1849.523438	1019.734436
1848.476563	1005.238953
1847.429688	988.360901
1846.380859	1057.418579
1845.333984	1064.402954
1844.287109	992.641724
1843.238281	887.503540
1842.189453	1028.093018
1841.142578	968.298279
1840.093750	944.291992
1839.044922	960.824646
1837.996094	989.270691
1836.947266	981.956482
1835.898438	998.474609
1834.849609	998.309021
1833.798828	1002.907837
1832.750000	1026.559570
1831.701172	947.802673
1830.650391	957.169495
1829.599609	1011.765076
1828.550781	999.696106
1827.500000	966.212585
1826.449219	1023.158813
1825.398438	982.545349
1824.347656	1020.440735
1823.294922	996.488892
1822.244141	989.189941
1821.193359	1036.575195
1820.140625	953.205627
1819.089844	974.437561
1818.037109	1005.167542
1816.984375	1012.128418
1815.931641	997.707520
1814.878906	1035.543579
1813.826172	930.884583
1812.773438	1051.819946
1811.720703	937.697388
1810.667969	987.385742
1809.613281	1001.460632
1808.560547	922.994141
1807.505859	1015.362244
1806.453125	953.523071
1805.398438	1010.282043
1804.343750	927.123718
1803.289063	979.126709
1802.234375	967.112244
1801.179688	995.391479
1800.125000	950.204041
1799.070313	957.153870
1798.013672	933.306946
1796.958984	1011.309387
1795.904297	949.573120
1794.847656	1055.958252
1793.791016	942.156067
1792.734375	996.436768
1791.677734	946.576050
1790.621094	1010.302124
1789.564453	988.843445
1788.507813	969.757080
1787.451172	976.690613
1786.394531	971.799438
1785.335938	1023.647827
1784.279297	1011.659302
1783.220703	985.494995
1782.162109	956.976440
1781.105469	978.080078
1780.046875	1015.711487
1778.988281	1034.436523
1777.929688	975.231323
1776.869141	970.347351
1775.810547	977.267761
1774.751953	986.546021
1773.691406	1031.217651
1772.632813	1012.171265
1771.572266	1016.721069
1770.513672	1035.420776
1769.453125	1044.681519
1768.392578	994.993958
1767.332031	1023.117554
1766.271484	973.450012
1765.210938	985.071411
1764.150391	994.332581
1763.087891	1005.946533
1762.027344	1012.845703
1760.964844	979.706421
1759.904297	970.124878
1758.841797	1002.923523
1757.779297	974.510071
1756.716797	979.055054
1755.654297	1016.541992
1754.591797	1002.256653
1753.529297	940.929626
1752.466797	987.811768
1751.404297	933.562073
1750.339844	1010.994812
1749.277344	996.722107
1748.212891	956.600098
1747.148438	1008.140503
1746.085938	932.786011
1745.021484	916.186523
1743.957031	1028.776733
1742.892578	965.198486
1741.828125	969.733948
1740.761719	941.401062
1739.697266	957.675171
1738.632813	992.718628
1737.566406	994.899902
1736.501953	966.581543
1735.435547	945.309631
1734.369141	879.484192
1733.302734	949.684875
1732.236328	869.813477
1731.169922	1000.939514
1730.103516	958.585815
1729.037109	998.263062
1727.970703	1009.811707
1726.902344	962.792419
1725.835938	894.709229
1724.767578	999.940491
1723.699219	899.094238
1722.632813	903.626587
1721.564453	922.201050
1720.496094	978.212891
1719.427734	903.175415
1718.359375	963.850586
1717.289063	1010.471191
1716.220703	956.513672
1715.152344	935.309998
1714.082031	1000.615051
1713.013672	909.286072
1711.943359	892.774963
1710.873047	899.636475
1709.802734	871.450684
1708.732422	962.407227
1707.662109	927.213745
1706.591797	966.757080
1705.521484	917.565857
1704.449219	915.078613
1703.378906	921.928223
1702.308594	893.771362
1701.236328	898.288940
1700.164063	940.130249
1699.093750	944.638550
1698.021484	895.508118
1696.949219	930.333862
1695.876953	862.571899
1694.802734	871.751770
1693.730469	962.495972
1692.658203	943.694763
1691.583984	899.272766
1690.511719	917.757629
1689.437500	903.631042
1688.365234	957.037292
1687.291016	903.329895
1686.216797	975.340637
1685.142578	898.374084
1684.068359	926.148438
1682.994141	907.381165
1681.919922	895.598755
1680.843750	925.685425
1679.769531	930.182068
1678.693359	960.252930
1677.619141	897.326477
1676.542969	878.582581
1675.466797	948.153259
1674.390625	908.495422
1673.314453	854.911926
1672.238281	910.515259
1671.162109	938.231689
1670.085938	938.075256
1669.007813	970.421021
1667.931641	951.689636
1666.853516	935.285339
1665.777344	881.759705
1664.699219	872.332520
1663.621094	969.612183
1662.542969	918.426758
1661.464844	966.969910
1660.386719	936.668335
1659.308594	971.283630
1658.230469	950.262207
1657.152344	940.834412
1656.072266	987.016235
1654.994141	926.621216
1653.914063	982.054626
1652.833984	972.627686
1651.753906	923.842163
1650.673828	979.248230
1649.593750	962.882507
1648.513672	939.579468
1647.433594	985.699707
1646.353516	967.027527
1645.271484	978.431580
1644.191406	941.265259
1643.109375	994.291199
1642.029297	984.877563
1640.947266	936.171021
1639.865234	986.859985
1638.783203	993.627625
1637.701172	1039.669312
1636.619141	958.646057
1635.537109	1011.606995
1634.455078	981.418274
1633.371094	1008.960449
1632.289063	877.210449
1631.205078	953.230103
1630.123047	916.148132
1629.039063	1010.594177
1627.955078	959.673462
1626.871094	938.754517
1625.787109	1017.006470
1624.703125	982.250366
1623.619141	945.200500
1622.533203	933.517700
1621.449219	993.281372
1620.363281	972.377563
1619.279297	1032.114746
1618.193359	925.983948
1617.107422	1029.466919
1616.021484	921.069336
1614.935547	943.938354
1613.849609	985.214966
1612.763672	964.336731
1611.677734	943.465393
1610.591797	952.510803
1609.503906	945.450562
1608.417969	867.093262
1607.330078	926.737915
1606.242188	942.677551
1605.156250	942.520081
1604.068359	882.603027
1602.980469	903.138062
1601.892578	914.475525
1600.802734	951.079407
1599.714844	838.371948
1598.626953	902.534546
1597.537109	886.310730
1596.449219	883.866821
1595.359375	906.672852
1594.269531	876.686401
1593.181641	871.950684
1592.091797	910.806702
1591.001953	857.896118
1589.910156	908.208801
1588.820313	804.868652
1587.730469	898.734375
1586.640625	834.399536
1585.548828	919.061218
1584.458984	868.493652
1583.367188	797.322571
1582.275391	904.855591
1581.183594	895.542725
1580.091797	872.492920
1579.000000	842.581909
1577.908203	860.754944
1576.816406	894.943848
1575.724609	885.640259
1574.630859	878.627869
1573.539063	871.617798
1572.445313	866.897339
1571.351563	905.630371
1570.259766	875.753601
1569.166016	871.034729
1568.072266	889.175415
1566.978516	825.035034
1565.882813	884.307861
1564.789063	895.583130
1563.695313	915.991699
1562.599609	808.495789
1561.505859	872.298645
1560.410156	881.285156
1559.314453	926.792480
1558.220703	917.507996
1557.125000	851.177124
1556.029297	919.482483
1554.933594	885.110413
1553.835938	910.051453
1552.740234	889.375061
1551.644531	905.186646
1550.546875	920.992981
1549.451172	888.928528
1548.353516	843.201294
1547.255859	918.251953
1546.158203	872.535034
1545.060547	897.444519
1543.962891	895.016907
1542.865234	913.083191
1541.767578	865.120972
1540.669922	880.909851
1539.570313	871.658875
1538.472656	864.686462
1537.373047	807.663940
1536.273438	875.770508
1535.175781	864.252136
1534.076172	857.285461
1532.976563	820.764526
1531.876953	852.451904
1530.775391	847.763489
1529.675781	870.345886
1528.576172	831.575073
1527.474609	890.499512
1526.375000	738.173096
1525.273438	885.659302
1524.171875	824.206360
1523.072266	851.310181
1521.970703	821.660400
1520.869141	844.216736
1519.767578	875.841553
1518.664063	882.500671
1517.562500	861.938477
1516.460938	832.311646
1515.357422	866.184631
1514.253906	816.162842
1513.152344	820.559509
1512.048828	795.492065
1510.945313	770.432983
1509.841797	802.022217
1508.738281	770.174683
1507.634766	826.666626
1506.531250	826.528015
1505.425781	871.671082
1504.322266	792.295410
1503.216797	783.109314
1502.113281	823.710938
1501.007813	814.522583
1499.902344	827.959106
1498.796875	845.914734
1497.691406	771.145874
1496.585938	789.104919
1495.480469	800.275940
1494.375000	779.799133
1493.267578	838.425964
1492.162109	777.278076
1491.054688	747.778748
1489.947266	792.828735
1488.841797	794.954163
1487.734375	810.626892
1486.626953	794.687500
1485.519531	799.068665
1484.412109	760.567749
1483.302734	812.339600
1482.195313	771.593140
1481.087891	742.139038
1479.978516	787.121765
1478.869141	798.264648
1477.761719	802.639893
1476.652344	757.420654
1475.542969	815.893677
1474.433594	745.899109
1473.324219	842.656982
1472.214844	770.428650
1471.103516	817.598450
1469.994141	763.414185
1468.882813	752.028137
1467.773438	846.452454
1466.662109	810.297180
1465.550781	780.905334
1464.441406	783.024292
1463.330078	805.389771
1462.218750	812.002502
1461.105469	787.127869
1459.994141	798.238525
1458.882813	750.892700
1457.769531	777.740234
1456.658203	770.867371
1455.544922	799.949585
1454.431641	770.608521
1453.320313	723.306885
1452.207031	788.317017
1451.093750	772.465881
1449.980469	772.336121
1448.865234	769.961609
1447.751953	751.877014
1446.638672	742.774597
1445.523438	792.010254
1444.410156	767.201111
1443.294922	802.958679
1442.179688	733.305481
1441.064453	737.666626
1439.949219	793.586914
1438.833984	809.143372
1437.718750	741.776855
1436.603516	788.705688
1435.486328	817.696594
1434.371094	757.082214
1433.253906	806.224243
1432.138672	792.653931
1431.021484	817.147095
1429.904297	714.044128
1428.787109	798.968384
1427.669922	821.210388
1426.552734	785.276306
1425.435547	762.775513
1424.316406	805.140808
1423.199219	796.060974
1422.080078	822.756165
1420.962891	786.851868
1419.843750	831.419495
1418.724609	784.352661
1417.605469	784.220764
1416.486328	835.467957
1415.367188	797.358032
1414.248047	723.531006
1413.128906	743.504028
1412.009766	790.258728
1410.888672	807.981812
1409.767578	778.834839
1408.648438	756.391418
1407.527344	751.802490
1406.406250	767.289490
1405.285156	729.248413
1404.164063	749.193420
1403.042969	809.260315
1401.921875	777.918274
1400.798828	717.614746
1399.677734	797.710693
1398.554688	770.842102
1397.433594	792.987305
1396.310547	757.220032
1395.187500	792.720459
1394.064453	761.417969
1392.941406	781.323730
1391.818359	803.448425
1390.695313	754.357849
1389.572266	743.106567
1388.447266	803.042847
1387.324219	773.994141
1386.199219	704.927673
1385.074219	784.850464
1383.951172	800.279297
1382.826172	746.801636
1381.701172	817.787903
1380.576172	702.112671
1379.449219	730.874023
1378.324219	744.077698
1377.199219	735.069397
1376.072266	772.692139
1374.947266	763.682007
1373.820313	712.501831
1372.693359	794.494385
1371.566406	743.326294
1370.439453	743.201111
1369.312500	709.803894
1368.185547	756.257385
1367.058594	722.869141
1365.931641	778.172791
1364.802734	758.091919
1363.675781	793.424561
1362.546875	760.052429
1361.417969	755.493347
1360.289063	711.063049
1359.160156	710.943298
1358.031250	748.468384
1356.902344	768.268494
1355.773438	763.711731
1354.644531	772.436218
1353.513672	705.918701
1352.384766	745.625427
1351.253906	692.407837
1350.123047	745.374146
1348.994141	659.003174
1347.863281	753.967102
1346.732422	758.261353
1345.601563	769.185059
1344.468750	724.856812
1343.337891	707.058228
1342.207031	671.592041
1341.074219	695.775757
1339.943359	722.159729
1338.810547	741.910583
1337.677734	708.670105
1336.544922	761.526367
1335.412109	723.879761
1334.279297	661.973511
1333.146484	758.934998
1332.013672	774.247864
1330.878906	745.446289
1329.746094	727.679810
1328.611328	705.509888
1327.478516	731.843079
1326.343750	681.028198
1325.208984	705.152954
1324.074219	771.130981
1322.939453	691.697937
1321.804688	678.366333
1320.669922	680.454041
1319.533203	719.970642
1318.398438	684.627197
1317.261719	710.923706
1316.126953	706.402466
1314.990234	743.687683
1313.853516	677.565552
1312.716797	688.448792
1311.580078	675.137756
1310.443359	683.818909
1309.306641	663.917908
1308.167969	694.578308
1307.031250	703.251709
1305.892578	663.581787
1304.755859	670.060547
1303.617188	691.912903
1302.478516	709.365540
1301.339844	702.658386
1300.201172	680.585388
1299.062500	680.470459
1297.923828	691.329102
1296.783203	737.293152
1295.644531	691.095642
1294.503906	730.463440
1293.365234	662.350464
1292.224609	695.131287
1291.083984	703.783813
1289.943359	714.625427
1288.802734	725.463440
1287.662109	653.025940
1286.521484	666.061584
1285.380859	672.520996
1284.238281	687.739136
1283.097656	670.103882
1281.955078	669.990723
1280.814453	687.390686
1279.671875	671.953125
1278.529297	709.042419
1277.386719	700.170532
1276.244141	665.049622
1275.101563	680.248291
1273.957031	656.077209
1272.814453	706.257080
1271.669922	675.531128
1270.527344	631.700684
1269.382813	743.051636
1268.238281	686.114075
1267.093750	718.768738
1265.949219	653.117126
1264.804688	703.237976
1263.660156	674.732300
1262.515625	683.351196
1261.369141	643.944153
1260.224609	685.302673
1259.078125	731.011414
1257.933594	680.707458
1256.787109	748.215332
1255.640625	745.907776
1254.494141	719.613892
1253.347656	726.033020
1252.201172	686.671875
1251.052734	690.914856
1249.906250	749.635681
1248.759766	701.575195
1247.611328	703.634949
1246.462891	736.187012
1245.316406	733.884766
1244.167969	744.647278
1243.019531	655.265869
1241.871094	703.040100
1240.720703	718.154724
1239.572266	774.605530
1238.423828	700.507813
1237.273438	704.739563
1236.125000	667.649475
1234.974609	695.803528
1233.824219	717.425964
1232.673828	741.214722
1231.525391	656.331299
1230.373047	675.776489
1229.222656	756.046326
1228.072266	699.441711
1226.921875	790.539429
1225.769531	729.605164
1224.619141	751.192444
1223.466797	753.236023
1222.314453	763.960205
1221.162109	726.941345
1220.009766	748.514343
1218.857422	735.372131
1217.705078	759.105225
1216.552734	802.346802
1215.398438	763.184509
1214.246094	782.565186
1213.091797	760.758667
1211.939453	773.632019
1210.785156	756.167664
1209.630859	792.866760
1208.476563	836.051208
1207.322266	827.247314
1206.167969	803.289978
1205.013672	835.626465
1203.857422	820.333618
1202.703125	921.907471
1201.546875	804.909546
1200.392578	832.896973
1199.236328	826.266907
1198.080078	927.770752
1196.923828	825.986938
1195.767578	875.570740
1194.611328	825.707031
1193.453125	933.625671
1192.296875	870.804138
1191.140625	937.630127
1189.982422	894.269775
1188.824219	945.951172
1187.667969	906.922729
1186.509766	915.404907
1185.351563	874.236206
1184.193359	949.626465
1183.033203	960.254883
1181.875000	929.886963
1180.716797	983.657898
1179.556641	946.825928
1178.398438	1015.670593
1177.238281	1065.087524
1176.078125	1017.481934
1174.917969	1006.532776
1173.757813	1083.940308
1172.597656	988.954773
1171.437500	1053.413696
1170.277344	992.927124
1169.117188	1059.516846
1167.955078	1072.255981
1166.792969	1080.685059
1165.632813	1102.025757
1164.470703	1060.950317
1163.308594	1125.320190
1162.146484	1112.221558
1160.984375	1137.843994
1159.822266	1090.338501
1158.660156	1135.307739
1157.496094	1120.066284
1156.333984	1169.314209
1155.169922	1130.431763
1154.005859	1175.363647
1152.843750	1170.867432
1151.679688	1147.040527
1150.515625	1142.550537
1149.351563	1254.015503
1148.185547	1146.456665
1147.021484	1328.719482
1145.857422	1253.377197
1144.691406	1238.143555
1143.527344	1276.551758
1142.361328	1278.480225
1141.195313	1267.539429
1140.029297	1348.810425
1138.863281	1387.173584
1137.697266	1419.092773
1136.531250	1281.681763
1135.363281	1309.322144
1134.197266	1439.795532
1133.029297	1413.844727
1131.863281	1460.724854
1130.695313	1471.184082
1129.527344	1468.793091
1128.359375	1481.388062
1127.191406	1513.241943
1126.023438	1480.884888
1124.855469	1502.029663
1123.687500	1555.256592
1122.517578	1550.714478
1121.349609	1531.204102
1120.179688	1601.504272
1119.009766	1708.123535
1117.839844	1643.709351
1116.671875	1662.663940
1115.500000	1752.124390
1114.330078	1741.144775
1113.160156	1670.360596
1111.990234	1714.925293
1110.818359	1836.345093
1109.648438	1842.437744
1108.476563	1865.604858
1107.304688	1871.690308
1106.132813	1813.758667
1104.962891	1879.587891
1103.789063	1996.589355
1102.617188	2023.975708
1101.445313	2034.293457
1100.273438	2142.680664
1099.099609	2125.263184
1097.927734	2146.214844
1096.753906	2190.599365
1095.580078	2179.573975
1094.406250	2251.630615
1093.232422	2261.896973
1092.058594	2338.173584
1090.884766	2373.971191
1089.710938	2454.460205
1088.535156	2462.556396
1087.361328	2517.466309
1086.185547	2568.102295
1085.011719	2682.540283
1083.835938	2567.228760
1082.660156	2598.690918
1081.484375	2749.210693
1080.308594	2646.701660
1079.132813	2714.267334
1077.955078	2796.686035
1076.779297	2808.958740
1075.601563	2844.595947
1074.425781	2895.089355
1073.248047	2894.596680
1072.070313	2983.283936
1070.892578	2902.103271
1069.714844	2939.816406
1068.537109	3019.961670
1067.359375	3095.835449
1066.179688	2995.596680
1065.001953	2961.148193
1063.822266	3011.543457
1062.644531	3140.377930
1061.464844	3105.921875
1060.285156	3171.104492
1059.105469	3043.402832
1057.925781	3159.429688
1056.746094	3186.434082
1055.566406	3166.826904
1054.384766	3087.924561
1053.205078	3244.098145
1052.023438	3196.967285
1050.843750	3137.151367
1049.662109	3195.878418
1048.480469	3248.236816
1047.298828	3245.567871
1046.117188	3164.630127
1044.935547	3142.940674
1043.751953	3275.629639
1042.570313	3190.499023
1041.388672	3270.285645
1040.205078	3219.002197
1039.021484	3275.510986
1037.837891	3205.228271
1036.656250	3223.694580
1035.472656	3187.238770
1034.287109	3152.906738
1033.103516	3103.806641
1031.919922	3107.499756
1030.734375	3170.291504
1029.550781	3146.537354
1028.365234	3202.970703
1027.179688	3080.066162
1025.996094	3047.901855
1024.810547	3024.184326
1023.625000	3158.616211
1022.439453	3058.992432
1021.251953	3151.215820
1020.066406	3051.627197
1018.878906	2962.607910
1017.693359	3052.693359
1016.505859	2953.171875
1015.318359	2977.940918
1014.132813	3013.229492
1012.945313	2976.925293
1011.755859	2902.743896
1010.568359	2853.842773
1009.380859	2941.734375
1008.193359	2915.985840
1007.003906	2982.801270
1005.814453	2866.618408
1004.626953	2872.437744
1003.437500	2756.312744
1002.248047	2726.413330
1001.058594	2835.238281
999.869141	2723.381592
998.679688	2718.714844
997.488281	2768.666748
996.298828	2709.385986
995.107422	2702.623779
993.917969	2634.975830
992.726563	2718.495117
991.535156	2631.977783
990.343750	2560.179199
989.152344	2530.368164
987.960938	2597.065430
986.769531	2602.914551
985.576172	2577.305176
984.384766	2595.735596
983.191406	2599.485352
982.000000	2393.633301
980.806641	2525.250244
979.613281	2459.864990
978.419922	2545.337158
977.226563	2482.065430
976.033203	2502.583496
974.837891	2521.000977
973.644531	2413.802002
972.449219	2425.948486
971.255859	2358.565186
970.060547	2412.565430
968.865234	2311.734131
967.669922	2351.081787
966.474609	2329.766602
965.279297	2375.370361
964.083984	2220.257324
962.886719	2353.656006
961.691406	2252.937500
960.494141	2252.552490
959.298828	2356.628174
958.101563	2304.004150
956.904297	2318.229980
955.707031	2303.216797
954.509766	2231.838623
953.312500	2254.418701
952.113281	2295.774658
950.916016	2257.821533
949.716797	2138.513428
948.519531	2238.275879
947.320313	2210.779785
946.121094	2279.216309
944.921875	2239.212891
943.722656	2138.770752
942.523438	2205.099854
941.324219	2146.374756
940.125000	2112.671631
938.923828	2220.634033
937.724609	2189.012451
936.523438	2169.896240
935.322266	2132.047607
934.121094	2075.476563
932.919922	2129.237061
931.718750	2089.333740
930.517578	2130.589355
929.316406	2051.173584
928.113281	2005.063965
926.912109	2033.835205
925.708984	2014.774170
924.505859	2085.111328
923.304688	1982.906982
922.101563	1968.020630
920.898438	2098.585693
919.695313	1994.354004
918.490234	2035.554688
917.287109	1993.671509
916.083984	1943.497070
914.878906	1984.685059
913.673828	1909.620972
912.470703	1913.444824
911.265625	1931.791992
910.060547	1875.446777
908.855469	1870.977295
907.648438	1918.356689
906.443359	1872.410278
905.238281	1892.821533
904.031250	1892.497437
902.826172	1929.478027
901.619141	1908.426392
900.412109	1891.525513
899.205078	1793.845093
897.998047	1855.669678
896.791016	1739.392334
895.583984	1871.596924
894.375000	1773.986572
893.167969	1819.214722
891.958984	1814.764526
890.751953	1804.109009
889.542969	1849.308716
888.333984	1820.036743
887.125000	1782.503296
885.916016	1780.130371
884.707031	1843.907349
883.496094	1765.052734
882.287109	1775.082642
881.076172	1807.835938
879.867188	1689.778809
878.656250	1765.908569
877.445313	1798.646484
876.234375	1719.880371
875.023438	1781.515381
873.812500	1816.297607
872.601563	1731.377808
871.388672	1687.752441
870.177734	1802.986206
868.964844	1687.173828
867.753906	1697.195557
866.541016	1828.863159
865.328125	1750.212646
864.115234	1737.545654
862.902344	1726.943726
861.687500	1697.801392
860.474609	1637.767822
859.261719	1674.562134
858.046875	1694.868774
856.832031	1606.039917
855.619141	1694.287354
854.404297	1652.830322
853.189453	1648.430908
851.974609	1718.106934
850.759766	1619.063721
849.542969	1653.753418
848.328125	1645.243530
847.111328	1624.399170
845.896484	1550.109863
844.679688	1654.674194
843.462891	1574.239746
842.246094	1643.832397
841.029297	1565.481689
839.812500	1616.565186
838.595703	1622.448975
837.378906	1587.262939
836.160156	1615.732910
834.941406	1635.982300
833.724609	1528.980713
832.505859	1516.406372
831.287109	1587.952759
830.068359	1542.552246
828.849609	1577.152954
827.630859	1537.921509
826.410156	1545.858276
825.191406	1578.390503
823.970703	1547.376953
822.751953	1534.816284
821.531250	1550.943115
820.310547	1511.756226
819.089844	1503.304199
817.869141	1531.714478
816.648438	1545.783081
815.427734	1596.693604
814.205078	1539.112061
812.984375	1575.681763
811.761719	1579.503052
810.539063	1640.600708
809.318359	1564.643311
808.095703	1574.599121
806.873047	1656.111938
805.648438	1600.633057
804.425781	1620.796753
803.203125	1702.259399
801.978516	1657.016968
800.755859	1662.860718
799.531250	1578.833374
798.306641	1572.435669
797.082031	1719.172974
795.857422	1641.303467
794.632813	1638.980225
793.408203	1648.902100
792.183594	1679.224121
790.957031	1707.495728
789.732422	1686.805420
788.505859	1741.577026
787.279297	1694.381348
786.052734	1704.282959
784.826172	1732.525635
783.599609	1715.924438
782.373047	1674.877930
781.146484	1729.594727
779.917969	1666.154419
778.691406	1718.817261
777.462891	1712.413086
776.234375	1742.655640
775.007813	1746.426880
773.779297	1768.512573
772.550781	1796.695068
771.320313	1788.248291
770.091797	1765.565918
768.863281	1734.756348
767.632813	1742.591309
766.404297	1776.852661
765.173828	1748.089600
763.943359	1737.627197
762.712891	1712.944580
761.482422	1836.578247
760.251953	1736.730225
759.021484	1750.647583
757.789063	1792.988159
756.558594	1845.465088
755.326172	1774.102051
754.095703	1761.619507
752.863281	1860.745361
751.630859	1807.675781
750.398438	1910.816406
749.166016	1857.756226
747.933594	1922.324951
746.699219	1810.485840
745.466797	1905.446411
744.232422	1949.706055
742.998047	1904.790039
741.765625	1957.138672
740.531250	1898.057007
739.296875	1952.413818
738.062500	1856.903564
736.826172	2034.750977
735.591797	2064.764648
734.357422	1936.901245
733.121094	2015.487183
731.886719	2047.511597
730.650391	2099.753906
729.414063	1973.994751
728.177734	2064.653076
726.941406	2046.100708
725.705078	2043.726563
724.466797	2106.029785
723.230469	2002.606323
721.992188	2097.221924
720.755859	2195.845215
719.517578	2165.170410
718.279297	2209.224121
717.041016	2186.633545
715.802734	2157.994873
714.564453	2240.375244
713.326172	2292.457275
712.085938	2290.044189
710.847656	2263.424316
709.607422	2295.305420
708.367188	2258.610596
707.128906	2373.148438
705.888672	2360.643555
704.648438	2338.065186
703.406250	2347.738037
702.166016	2367.481689
700.925781	2252.245117
699.683594	2390.835205
698.443359	2416.602539
697.201172	2428.266602
695.958984	2427.847656
694.716797	2405.288086
693.474609	2481.345947
692.232422	2511.099365
690.990234	2542.854004
689.746094	2502.187012
688.503906	2523.876953
687.259766	2652.126709
686.017578	2665.741455
684.773438	2623.071045
683.529297	2711.043701
682.285156	2620.156250
681.041016	2736.224609
679.794922	2627.286133
678.550781	2642.898926
677.306641	2714.728271
676.060547	2696.191162
674.814453	2840.247070
673.570313	2741.418945
672.324219	2879.397217
671.078125	2852.819336
669.830078	2820.233154
668.583984	2797.685303
667.337891	2847.331299
666.089844	2826.791260
664.843750	2910.490723
663.595703	2809.781738
662.347656	2883.436279
661.099609	2925.010254
659.851563	2916.492432
658.603516	2919.994141
657.355469	2865.425049
656.107422	2997.064941
654.857422	2970.524902
653.609375	3034.054932
652.359375	3003.515625
651.109375	2916.968018
649.859375	2998.476807
648.609375	3017.958252
647.359375	3009.438232
646.109375	3106.882813
644.859375	3088.355225
643.607422	3047.849609
642.357422	3093.282471
641.105469	3040.802246
639.853516	3128.168945
638.601563	3073.703369
637.349609	3135.074707
636.097656	3008.751953
634.845703	3052.147461
633.593750	3083.552979
632.339844	2975.263672
631.087891	3114.408691
629.833984	3113.869873
628.580078	3181.142578
627.326172	3106.810547
626.072266	3144.154541
624.818359	3171.518311
623.564453	3137.087646
622.310547	3150.493896
621.054688	3173.857422
619.800781	3115.539307
618.544922	3228.526367
617.289063	3208.054443
616.033203	3123.877197
614.777344	3195.000244
613.521484	3331.778564
612.265625	3277.472900
611.009766	3239.103027
609.751953	3290.263428
608.496094	3222.070313
607.238281	3215.546631
605.980469	3320.366943
604.722656	3441.054199
603.464844	3434.495605
602.207031	3435.888184
600.949219	3353.831787
599.689453	3416.819824
598.431641	3444.034668
597.171875	3463.296631
595.914063	3428.943604
594.654297	3404.528076
593.394531	3431.725586
592.134766	3615.686035
590.875000	3430.536865
589.615234	3598.563232
588.353516	3584.055908
587.093750	3539.807129
585.832031	3541.176758
584.572266	3661.489502
583.310547	3569.680664
582.048828	3600.769531
580.787109	3655.624023
579.525391	3617.351074
578.263672	3747.449219
577.000000	3758.681641
575.738281	3597.650635
574.474609	3860.320801
573.210938	3748.810547
571.949219	3754.097656
570.685547	3723.767578
569.421875	3820.057861
568.158203	3856.976318
566.892578	3834.554199
565.628906	3719.208740
564.365234	3839.155518
563.099609	3885.927246
561.833984	3820.038086
560.568359	3983.373779
559.302734	3947.123291
558.037109	3855.579834
556.771484	3949.704102
555.505859	3994.432861
554.240234	3985.843262
552.972656	3912.120361
551.707031	3988.407715
550.439453	4119.916016
549.171875	4115.255859
547.904297	4098.762207
546.636719	4171.019531
545.369141	4097.340332
544.101563	4201.114746
542.832031	4170.819824
541.564453	4233.159668
540.294922	4224.543457
539.025391	4239.570801
537.757813	4272.320313
536.488281	4316.874512
535.218750	4270.837402
533.947266	4388.217773
532.677734	4491.778809
531.408203	4490.999023
530.136719	4557.120117
528.867188	4595.675293
527.595703	4630.283203
526.324219	4668.812012
525.052734	4740.754883
523.781250	4686.850586
522.509766	4634.930664
521.236328	4905.333984
519.964844	4871.078125
518.691406	4933.099121
517.419922	4985.277344
516.146484	4980.483398
514.873047	5064.052246
513.599609	5110.290039
512.326172	5024.998047
511.052734	5340.095215
509.777344	5172.379883
508.503906	5198.947266
507.230469	5300.043457
505.955078	5283.433105
504.679688	5296.240723
503.404297	5544.304199
502.128906	5345.364258
500.853516	5320.917480
499.578125	5378.777344
498.300781	5446.412109
497.025391	5425.877441
495.748047	5528.732910
494.472656	5474.902344
493.195313	5385.850586
491.917969	5457.339844
490.640625	5397.677734
489.363281	5551.323242
488.085938	5427.103516
486.806641	5402.687012
485.529297	5331.340820
484.250000	5480.979492
482.970703	5339.262207
481.693359	5258.189941
480.414063	5288.545898
479.134766	5359.925293
477.853516	5345.316895
476.574219	5318.993652
475.294922	5255.571777
474.013672	5356.196777
472.734375	5113.174805
471.453125	5143.517090
470.171875	5167.993652
468.890625	5133.921875
467.609375	5144.734863
466.328125	5034.603516
465.044922	5086.385254
463.763672	4974.352539
462.482422	5086.564941
461.199219	5033.048828
459.916016	5258.250000
458.632813	4951.403809
457.349609	4934.956055
456.066406	5035.389160
454.783203	4956.608887
453.500000	4936.273438
452.214844	5015.237305
450.931641	4825.546875
449.646484	4945.373047
448.361328	4814.136719
447.076172	4947.541504
445.791016	4864.980957
444.505859	4899.141602
443.220703	4713.557129
441.933594	4866.328125
440.648438	4807.164551
439.361328	4880.180664
438.076172	4873.500977
436.789063	4724.996094
435.501953	4790.217773
434.214844	4651.489746
432.927734	4815.734375
431.638672	4743.060059
430.351563	4815.997559
429.062500	4881.145996
427.775391	4763.866699
426.486328	4910.486816
425.197266	4740.868652
423.908203	4786.589355
422.619141	4754.729004
421.330078	4707.369629
420.041016	4586.365234
418.750000	4653.399414
417.460938	4670.027832
416.169922	4593.653809
414.878906	4585.104492
413.587891	4601.735840
412.296875	4655.153320
411.005859	4600.131348
409.714844	4734.831055
408.421875	4536.593750
407.130859	4560.958496
405.837891	4683.985840
404.546875	4661.890625
403.253906	4541.166016
401.960938	4577.114258
400.667969	4481.580078
399.375000	4473.065918
398.080078	4532.199707
396.787109	4498.558594
395.492188	4491.977539
394.199219	4495.057129
392.904297	4565.732910
391.609375	4535.970703
390.314453	4446.367676
389.019531	4457.173828
387.724609	4523.946289
386.429688	4525.086426
385.132813	4495.356445
383.837891	4382.689453
382.541016	4486.072266
381.244141	4309.811523
379.947266	4401.602539
378.650391	4389.268066
377.353516	4409.702148
376.056641	4518.770020
374.759766	4437.062012
373.460938	4472.887207
372.162109	4549.144531
370.865234	4436.663574
369.566406	4447.440430
368.267578	4521.737305
366.968750	4411.243652
365.669922	4439.337402
364.369141	4459.725098
363.070313	4355.070801
361.769531	4413.931641
360.470703	4451.619629
359.169922	4512.365234
357.869141	4444.296875
356.568359	4453.130371
355.267578	4554.196777
353.966797	4440.046387
352.664063	4481.530762
351.363281	4444.256348
350.060547	4493.406250
348.759766	4477.261230
347.457031	4610.850098
346.154297	4531.354492
344.851563	4469.157227
343.548828	4393.550781
342.246094	4367.845703
340.941406	4472.566895
339.638672	4466.032227
338.333984	4536.188965
337.029297	4416.547852
335.724609	4503.937500
334.419922	4495.484863
333.115234	4410.399414
331.810547	4476.672363
330.505859	4462.482910
329.199219	4561.276855
327.894531	4508.785645
326.587891	4431.428223
325.281250	4430.652832
323.974609	4269.139160
322.667969	4352.573730
321.361328	4397.721680
320.054688	4381.651367
318.748047	4342.640625
317.439453	4286.436035
316.130859	4302.889648
314.824219	4309.781250
313.515625	4270.809570
312.207031	4296.809570
310.898438	4305.608398
309.589844	4255.198242
308.279297	4212.443359
306.970703	4299.529297
305.660156	4319.773926
304.351563	4324.743164
303.041016	4276.281250
301.730469	4283.163574
300.419922	4259.523438
299.109375	4327.436523
297.798828	4319.051270
296.486328	4303.042480
295.175781	4317.538574
293.863281	4337.746582
292.550781	4272.198730
291.238281	4420.055664
289.927734	4213.556152
288.613281	4332.803223
287.300781	4280.630859
285.988281	4255.130859
284.673828	4269.613281
283.361328	4371.637695
282.046875	4344.231445
280.732422	4430.986328
279.419922	4388.361816
278.105469	4349.555176
276.789063	4327.876465
275.474609	4207.342285
274.160156	4282.639160
272.843750	4392.119141
271.529297	4309.640625
270.212891	4339.283203
268.896484	4253.043457
267.580078	4324.467285
266.263672	4283.833008
264.947266	4362.819824
263.628906	4293.719727
262.312500	4378.370605
260.994141	4191.645020
259.677734	4348.376953
258.359375	4315.367676
257.041016	4293.749023
255.722656	4253.175293
254.404297	4322.576660
253.085938	4272.534180
251.765625	4402.553711
250.447266	4382.832520
249.126953	4346.067383
247.806641	4358.563965
246.486328	4425.978516
245.166016	4358.928223
243.845703	4335.444824
242.525391	4383.898438
241.205078	4436.120117
239.882813	4422.096191
238.562500	4394.833496
237.240234	4445.133789
235.917969	4472.721680
234.595703	4333.902344
233.273438	4488.166504
231.951172	4457.135254
230.628906	4524.388184
229.304688	4538.710449
227.982422	4339.544922
226.658203	4525.783203
225.335938	4472.108887
224.011719	4405.235352
222.687500	4440.331543
221.361328	4418.788574
220.037109	4518.035645
218.712891	4488.938477
217.386719	4597.570801
216.062500	4491.133789
214.736328	4501.660156
213.410156	4523.496094
212.083984	4528.357422
210.757813	4495.518066
209.431641	4579.534180
208.105469	4443.063477
206.777344	4517.639160
205.451172	4707.087891
204.123047	4617.747559
202.794922	4581.160156
201.466797	4640.598145
200.138672	4496.729980
198.810547	4765.056152
197.482422	4730.349609
196.154297	4684.367188
194.824219	4689.186523
193.494141	4804.959961
192.166016	4749.586914
190.835938	4761.911133
189.505859	4849.416016
188.175781	4743.323242
186.843750	4802.615234
185.513672	4861.886719
184.183594	4825.343750
182.851563	4751.254395
181.519531	4870.587402
180.187500	4956.086426
178.857422	4863.242676
177.523438	5023.778809
176.191406	4947.842285
174.859375	4956.351563
173.527344	4947.976563
172.193359	4947.105957
170.859375	4949.985352
169.527344	5072.842285
168.193359	5049.457520
166.859375	4952.994141
165.523438	5034.563965
164.189453	4969.984375
162.855469	5150.791992
161.519531	5022.542480
160.185547	5089.062988
158.849609	5149.943848
157.513672	5001.172852
156.177734	5148.130371
154.841797	5106.061035
153.505859	5150.059082
152.167969	5132.318359
150.832031	5125.804199
149.494141	5124.901855
148.158203	5221.207031
146.820313	5302.526367
145.482422	5325.885742
144.144531	5210.975098
142.804688	5258.626953
141.466797	5418.326172
140.128906	5439.780762
138.789063	5520.974121
137.449219	5430.396973
136.111328	5429.439941
134.771484	5422.884766
133.431641	5533.875488
132.091797	5624.306641
130.750000	5638.236328
129.410156	5726.751953
128.068359	5651.164551
126.728516	5624.070313
125.386719	5716.269043
124.044922	5845.704102
122.703125	5859.578613
121.361328	5730.011230
120.019531	5866.824707
118.675781	5713.093262
117.333984	5896.406738
115.990234	5900.951172
114.646484	5749.155762
113.304688	5781.637207
111.960938	5756.430664
110.615234	5831.682617
109.271484	5927.366699
107.927734	5972.809570
106.582031	6092.603516
105.238281	6048.774902
103.892578	5926.901855
102.546875	6111.678223
101.201172	6004.699707
99.855469	6092.803223
98.509766	6160.445801
97.164063	6049.801270
95.816406	6154.558105
94.470703	6372.509766
93.123047	6326.842773
91.775391	6357.270996
90.427734	6339.451172
89.080078	6314.217773
87.732422	6363.177734
86.384766	6378.743164
85.035156	6505.540039
83.687500	6487.708496
82.337891	6514.362305
80.988281	6385.356445
79.638672	6562.083496
78.289063	6473.865234
76.939453	6654.217285
75.589844	6651.190430
74.240234	6587.069824
72.888672	6572.949219
71.539063	6519.968750
70.187500	6467.006836
68.835938	6465.864258
67.484375	6492.467773
66.132813	6469.127930
64.781250	6257.192871
63.427734	6239.448730
62.076172	6402.853516
60.722656	6418.354492
59.369141	6123.428711
58.015625	6000.416504
56.662109	5746.304199
55.308594	5675.111328
53.955078	5526.393066
52.601563	5438.648926
51.246094	5175.585449
