#Wave		#Intensity
4002.039063	2541.392822
4001.340820	2670.252197
4000.642578	2587.509521
3999.943359	2551.310791
3999.245117	2597.410889
3998.545898	2518.296631
3997.846680	2682.413330
3997.147461	2521.063232
3996.448242	2624.344727
3995.749023	2602.474121
3995.049805	2637.798340
3994.350586	2662.390137
3993.650391	2604.792725
3992.951172	2672.252197
3992.250977	2728.974121
3991.550781	2674.964844
3990.850586	2563.839844
3990.150391	2663.394531
3989.450195	2691.523682
3988.750000	2487.653320
3988.048828	2497.959229
3987.348633	2601.028076
3986.647461	2547.099609
3985.947266	2507.455566
3985.246094	2425.029541
3984.544922	2560.134521
3983.843750	2645.284912
3983.141602	2584.263428
3982.440430	2605.231934
3981.739258	2597.686523
3981.037109	2672.087646
3980.334961	2571.916504
3979.633789	2489.585449
3978.931641	2635.189209
3978.229492	2552.874512
3977.527344	2523.985107
3976.824219	2555.613770
3976.122070	2640.613770
3975.419922	2558.350830
3974.716797	2525.921143
3974.013672	2461.488281
3973.311523	2514.440186
3972.608398	2510.480225
3971.905273	2545.630615
3971.201172	2555.885986
3970.498047	2466.620117
3969.794922	2508.867676
3969.090820	2469.380859
3968.387695	2547.139160
3967.683594	2468.587646
3966.979492	2525.012695
3966.275391	2599.173584
3965.571289	2449.647217
3964.867188	2577.040771
3964.163086	2562.430664
3963.458008	2462.660889
3962.753906	2469.361328
3962.048828	2500.890869
3961.343750	2592.705811
3960.638672	2574.558350
3959.933594	2581.236084
3959.228516	2527.645264
3958.523438	2548.506348
3957.817383	2579.992676
3957.112305	2583.121582
3956.406250	2490.593750
3955.701172	2550.411865
3954.995117	2503.960449
3954.289063	2521.263916
3953.583008	2496.075195
3952.876953	2559.393799
3952.169922	2484.655273
3951.463867	2420.557373
3950.757813	2558.160889
3950.050781	2561.287842
3949.343750	2412.317383
3948.636719	2518.026611
3947.929688	2545.910156
3947.222656	2439.438721
3946.515625	2654.672852
3945.808594	2537.615234
3945.100586	2565.477539
3944.393555	2526.200928
3943.685547	2465.741455
3942.977539	2550.113770
3942.269531	2447.292480
3941.561523	2436.306885
3940.853516	2322.945557
3940.145508	2562.595215
3939.436523	2562.183838
3938.728516	2385.341797
3938.019531	2522.552734
3937.311523	2550.367432
3936.602539	2525.269531
3935.893555	2496.653320
3935.184570	2372.850098
3934.474609	2506.427246
3933.765625	2424.958008
3933.056641	2466.857666
3932.346680	2498.173340
3931.636719	2430.836182
3930.927734	2416.356445
3930.217773	2511.057617
3929.507813	2327.549316
3928.797852	2475.044434
3928.086914	2502.808105
3927.376953	2428.495605
3926.666992	2424.586670
3925.956055	2381.976318
3925.245117	2451.951416
3924.534180	2448.040283
3923.823242	2423.030273
3923.112305	2338.253174
3922.401367	2373.033936
3921.690430	2337.502686
3920.979492	2460.134033
3920.267578	2407.030518
3919.555664	2526.097900
3918.844727	2346.540527
3918.132813	2405.871582
3917.420898	2496.788330
3916.708984	2387.543701
3915.996094	2478.434326
3915.284180	2499.096191
3914.572266	2291.640381
3913.859375	2508.820557
3913.146484	2483.860107
3912.433594	2381.737549
3911.720703	2437.469727
3911.007813	2363.440186
3910.294922	2461.229492
3909.582031	2450.318115
3908.869141	2414.875977
3908.155273	2382.949219
3907.441406	2372.055420
3906.728516	2445.242188
3906.014648	2322.257080
3905.300781	2384.921875
3904.586914	2360.028564
3903.872070	2405.162354
3903.158203	2443.280762
3902.444336	2372.891846
3901.729492	2438.997314
3901.014648	2330.145752
3900.300781	2476.694336
3899.585938	2388.856934
3898.871094	2343.012207
3898.155273	2423.054932
3897.440430	2478.600830
3896.725586	2415.286621
3896.009766	2439.362549
3895.294922	2306.190430
3894.579102	2449.060791
3893.863281	2385.791992
3893.147461	2490.185547
3892.431641	2451.374023
3891.715820	2360.203613
3890.999023	2391.242676
3890.283203	2261.717773
3889.566406	2425.372803
3888.850586	2372.645752
3888.133789	2501.344238
3887.416992	2330.027588
3886.700195	2399.404053
3885.983398	2374.610352
3885.265625	2370.742920
3884.548828	2328.532715
3883.831055	2415.290771
3883.114258	2432.326660
3882.396484	2379.674316
3881.678711	2386.259521
3880.960938	2392.842773
3880.243164	2423.801270
3879.525391	2402.520752
3878.806641	2457.836914
3878.088867	2447.000244
3877.370117	2390.923828
3876.652344	2387.060547
3875.933594	2355.365479
3875.214844	2452.387451
3874.496094	2347.653809
3873.777344	2535.059326
3873.057617	2374.715820
3872.338867	2353.476807
3871.619141	2339.196045
3870.900391	2269.316650
3870.180664	2494.805420
3869.460938	2431.871338
3868.741211	2341.168945
3868.021484	2441.510010
3867.301758	2510.566895
3866.581055	2284.492432
3865.861328	2436.864014
3865.140625	2339.291748
3864.420898	2422.201416
3863.700195	2428.752197
3862.979492	2334.697021
3862.258789	2292.700195
3861.538086	2330.480225
3860.816406	2371.715332
3860.095703	2364.401123
3859.374023	2419.482910
3858.653320	2474.546875
3857.931641	2394.450439
3857.209961	2359.419922
3856.488281	2307.080322
3855.766602	2421.006592
3855.044922	2354.821777
3854.322266	2299.045410
3853.600586	2478.693359
3852.877930	2370.995361
3852.156250	2387.918945
3851.433594	2294.110596
3850.710938	2342.177490
3849.988281	2272.620117
3849.264648	2296.465332
3848.541992	2444.790039
3847.819336	2309.558594
3847.095703	2329.929199
3846.372070	2319.186768
3845.649414	2453.589355
3844.925781	2397.912598
3844.202148	2183.339600
3843.478516	2341.877930
3842.753906	2465.829834
3842.030273	2354.938721
3841.305664	2382.180420
3840.582031	2402.509766
3839.857422	2319.292480
3839.132813	2381.034668
3838.408203	2335.799805
3837.683594	2380.270996
3836.958984	2338.499756
3836.234375	2224.322266
3835.508789	2372.229980
3834.783203	2427.008789
3834.058594	2378.363037
3833.333008	2350.410645
3832.607422	2350.033936
3831.881836	2432.342773
3831.156250	2332.056641
3830.430664	2342.015137
3829.704102	2276.211426
3828.978516	2265.517334
3828.251953	2413.180908
3827.525391	2343.955322
3826.798828	2274.751709
3826.072266	2274.386963
3825.345703	2291.223633
3824.619141	2256.458984
3823.892578	2393.664063
3823.165039	2345.139648
3822.437500	2282.878174
3821.710938	2344.387451
3820.983398	2354.322510
3820.255859	2419.237061
3819.528320	2336.388184
3818.800781	2439.072998
3818.072266	2373.421387
3817.344727	2245.975098
3816.616211	2324.589111
3815.888672	2231.522461
3815.160156	2220.866943
3814.431641	2436.727539
3813.703125	2402.022217
3812.974609	2353.604248
3812.245117	2195.430420
3811.516602	2277.393799
3810.788086	2208.443604
3810.058594	2232.090332
3809.329102	2444.278564
3808.599609	2337.630615
3807.870117	2237.871094
3807.140625	2234.085693
3806.411133	2237.153564
3805.681641	2360.109863
3804.951172	2226.161621
3804.221680	2311.412598
3803.491211	2198.057861
3802.760742	2327.787598
3802.030273	2337.682373
3801.299805	2460.503906
3800.569336	2350.619141
3799.837891	2435.767822
3799.107422	2363.547363
3798.375977	2311.869629
3797.645508	2321.757080
3796.914063	2246.170654
3796.182617	2303.921387
3795.451172	2224.944092
3794.719727	2310.017090
3793.988281	2360.896484
3793.255859	2199.961670
3792.524414	2261.088867
3791.791992	2253.896240
3791.059570	2308.166016
3790.327148	2270.243164
3789.594727	2344.973145
3788.862305	2385.550781
3788.129883	2344.221191
3787.397461	2384.786133
3786.664063	2336.647461
3785.931641	2360.147217
3785.198242	2352.948730
3784.464844	2332.114258
3783.731445	2243.107178
3782.998047	2263.198242
3782.264648	2303.729980
3781.531250	2279.509277
3780.796875	2306.398193
3780.063477	2346.903564
3779.329102	2370.367188
3778.594727	2346.151123
3777.860352	2362.798096
3777.125977	2423.692627
3776.391602	2222.496582
3775.657227	2375.273926
3774.921875	2347.673828
3774.187500	2258.848633
3773.452148	2394.540039
3772.716797	2305.735596
3771.981445	2410.773682
3771.246094	2315.195557
3770.510742	2352.215332
3769.775391	2236.285400
3769.040039	2358.257324
3768.303711	2330.699219
3767.568359	2228.416260
3766.832031	2343.537842
3766.095703	2356.745850
3765.359375	2339.391357
3764.623047	2339.016357
3763.886719	2430.286377
3763.149414	2409.534668
3762.413086	2337.891846
3761.675781	2330.731934
3760.939453	2279.477295
3760.202148	2407.990234
3759.464844	2414.386230
3758.727539	2352.971191
3757.990234	2393.272949
3757.251953	2331.880859
3756.514648	2301.007813
3755.776367	2365.016113
3755.039063	2320.596680
3754.300781	2384.581299
3753.562500	2357.105957
3752.824219	2387.203125
3752.085938	2393.591553
3751.346680	2230.727051
3750.608398	2409.746826
3749.870117	2389.057129
3749.130859	2310.856201
3748.391602	2334.165771
3747.652344	2293.204102
3746.913086	2417.961670
3746.173828	2339.806152
3745.434570	2207.584717
3744.695313	2399.898682
3743.955078	2416.412109
3743.214844	2409.266846
3742.475586	2327.796387
3741.735352	2276.753662
3740.995117	2418.240967
3740.254883	2360.446289
3739.514648	2231.766602
3738.773438	2278.670410
3738.033203	2426.816895
3737.291992	2436.552246
3736.551758	2382.174805
3735.810547	2408.782227
3735.069336	2300.456787
3734.328125	2293.343018
3733.586914	2397.508301
3732.844727	2373.523682
3732.103516	2373.143311
3731.361328	2409.837402
3730.620117	2392.602051
3729.877930	2355.156006
3729.135742	2348.041016
3728.393555	2512.708496
3727.651367	2364.126953
3726.908203	2363.748291
3726.166016	2450.901611
3725.422852	2389.919434
3724.680664	2433.288574
3723.937500	2365.598389
3723.194336	2378.677246
3722.451172	2512.853027
3721.708008	2408.185547
3720.964844	2448.153809
3720.220703	2447.761475
3719.477539	2417.113281
3718.733398	2403.281006
3717.989258	2318.878662
3717.246094	2412.591309
3716.501953	2539.870117
3715.756836	2364.791016
3715.012695	2441.658691
3714.268555	2478.205322
3713.523438	2340.152344
3712.779297	2521.051270
3712.034180	2386.391846
3711.289063	2432.991211
3710.543945	2405.759033
3709.798828	2462.404541
3709.053711	2465.364258
3708.308594	2562.226563
3707.562500	2410.923828
3706.817383	2574.815918
3706.071289	2557.643066
3705.325195	2573.990967
3704.579102	2385.921875
3703.833008	2512.857666
3703.086914	2458.855957
3702.339844	2498.654785
3701.593750	2545.138428
3700.846680	2494.505859
3700.100586	2544.322998
3699.353516	2584.082275
3698.606445	2510.040527
3697.859375	2576.562012
3697.112305	2606.260010
3696.365234	2538.940186
3695.617188	2705.762207
3694.870117	2625.071777
3694.122070	2611.277100
3693.374023	2507.226563
3692.625977	2667.261719
3691.877930	2583.286865
3691.129883	2612.945313
3690.381836	2615.867432
3689.632813	2685.594482
3688.884766	2748.619385
3688.135742	2741.500732
3687.386719	2767.770996
3686.638672	2727.269531
3685.889648	2696.794189
3685.139648	2789.800293
3684.390625	2685.920410
3683.641602	2772.226318
3682.891602	2708.408203
3682.142578	2741.323486
3681.392578	2774.228516
3680.642578	2780.451660
3679.892578	2813.339600
3679.142578	2862.881104
3678.392578	2899.077393
3677.641602	2851.968506
3676.891602	2794.881104
3676.140625	2891.022705
3675.389648	2747.363525
3674.639648	2920.062988
3673.888672	2892.962402
3673.136719	2925.784424
3672.385742	2938.627686
3671.634766	3037.980957
3670.882813	3037.494141
3670.131836	3033.681152
3669.379883	3019.891602
3668.627930	3122.493164
3667.875977	3188.489258
3667.124023	3111.520020
3666.372070	3174.172607
3665.620117	3216.865723
3664.867188	3176.478271
3664.115234	3278.955811
3663.362305	3178.782227
3662.609375	3248.015625
3661.856445	3466.651367
3661.103516	3409.655518
3660.350586	3319.483398
3659.596680	3461.666260
3658.843750	3391.425049
3658.089844	3417.424805
3657.336914	3343.895264
3656.583008	3466.082275
3655.829102	3641.290527
3655.075195	3640.707031
3654.321289	3683.221680
3653.566406	3649.484619
3652.812500	3622.386719
3652.057617	3588.669922
3651.303711	3700.740723
3650.548828	3759.774170
3649.793945	3643.250244
3649.039063	3672.470215
3648.284180	3863.918945
3647.528320	3760.675781
3646.773438	3872.610840
3646.017578	3852.134033
3645.262695	3897.840820
3644.506836	3860.824707
3643.750977	4108.291504
3642.995117	4114.248047
3642.239258	4011.079590
3641.482422	4050.111572
3640.726563	4029.628662
3639.969727	4022.372803
3639.213867	4163.827148
3638.457031	4166.464355
3637.700195	4274.814453
3636.943359	4297.250977
3636.186523	4322.982422
3635.429688	4246.344238
3634.671875	4291.884277
3633.915039	4317.604004
3633.157227	4465.430176
3632.399414	4510.913086
3631.641602	4378.216797
3630.883789	4443.491699
3630.125977	4422.990234
3629.368164	4524.511719
3628.609375	4523.786621
3627.851563	4532.952148
3627.092773	4690.441895
3626.333984	4511.726074
3625.575195	4649.397949
3624.816406	4576.172363
3624.057617	4575.438965
3623.298828	4752.556641
3622.540039	4613.489258
3621.780273	4820.175781
3621.020508	4779.899902
3620.261719	4914.082520
3619.501953	4965.949219
3618.742188	4955.282715
3617.982422	4829.475098
3617.221680	4884.619629
3616.461914	4910.147461
3615.701172	4876.478516
3614.941406	5099.262207
3614.180664	4970.244629
3613.419922	4936.581543
3612.659180	4932.504883
3611.898438	5072.996094
3611.137695	5105.034180
3610.375977	5183.046387
3609.615234	5172.363770
3608.853516	5217.504395
3608.091797	5141.159668
3607.330078	5225.680176
3606.568359	5149.358398
3605.806641	5250.257324
3605.044922	5216.607422
3604.282227	5133.762695
3603.520508	5234.614746
3602.757813	5115.721191
3601.995117	5252.610840
3601.233398	5376.342773
3600.470703	5280.427246
3599.707031	5394.283691
3598.944336	5245.968750
3598.181641	5408.936035
3597.417969	5365.486328
3596.655273	5430.128906
3595.891602	5435.808594
3595.127930	5506.966797
3594.364258	5371.869629
3593.600586	5498.656738
3592.835938	5507.593262
3592.072266	5294.033203
3591.307617	5404.414063
3590.543945	5423.173828
3589.779297	5576.013184
3589.014648	5441.055176
3588.250000	5662.499023
3587.485352	5370.666992
3586.720703	5588.782227
3585.955078	5561.744629
3585.190430	5521.646973
3584.424805	5524.028809
3583.659180	5493.748047
3582.893555	5525.524902
3582.127930	5704.223145
3581.362305	5553.136230
3580.596680	5565.303223
3579.830078	5802.653320
3579.064453	5651.622559
3578.297852	5543.053711
3577.531250	5620.454102
3576.764648	5515.185547
3575.998047	5553.433594
3575.231445	5627.534180
3574.464844	5639.672363
3573.698242	5658.325684
3572.930664	5683.490234
3572.163086	5636.962402
3571.396484	5642.575195
3570.628906	5856.653809
3569.861328	5490.954590
3569.092773	5789.652344
3568.325195	5827.793457
3567.557617	5686.885254
3566.789063	5806.398438
3566.020508	5880.314453
3565.252930	5785.016113
3564.484375	5771.076660
3563.715820	5718.109863
3562.946289	5769.227539
3562.177734	6008.920410
3561.409180	5695.855957
3560.639648	5772.956055
3559.870117	5794.781738
3559.101563	5972.575684
3558.332031	5792.924805
3557.562500	5743.270020
3556.791992	5745.597656
3556.022461	5790.141113
3555.252930	5912.595703
3554.482422	5781.793457
3553.711914	5790.604492
3552.942383	5799.413086
3552.171875	5993.172852
3551.401367	5700.226074
3550.629883	5910.158203
3549.859375	5873.535156
3549.088867	5739.642090
3548.317383	5920.286621
3547.545898	5971.205566
3546.774414	5876.254395
3546.002930	5872.072754
3545.231445	5819.289551
3544.459961	5841.034668
3543.688477	5904.880859
3542.916016	5829.447266
3542.144531	6071.368164
3541.372070	5798.441895
3540.599609	5842.831055
3539.827148	5981.064941
3539.054688	6041.590332
3538.282227	5898.261719
3537.509766	5774.388672
3536.736328	5938.419434
3535.962891	6076.526367
3535.190430	5862.148438
3534.416992	6019.620605
3533.643555	5895.826172
3532.870117	5962.750488
3532.095703	5816.385254
3531.322266	5876.838867
3530.548828	5862.976074
3529.774414	5781.292480
3529.000000	5760.990723
3528.225586	5856.929688
3527.451172	5862.447754
3526.676758	5855.053223
3525.902344	5954.157715
3525.127930	5801.550293
3524.352539	5878.048828
3523.577148	5822.270996
3522.802734	5727.809570
3522.027344	5936.491211
3521.251953	5854.937988
3520.476563	5679.927246
3519.700195	5717.693848
3518.924805	5755.448242
3518.148438	5764.191895
3517.373047	5824.477051
3516.596680	5726.914063
3515.820313	5574.634277
3515.043945	5689.659668
3514.267578	5820.745117
3513.490234	5678.179688
3512.713867	5802.787598
3511.937500	5824.383301
3511.160156	5672.233398
3510.382813	5632.722168
3509.605469	5789.420410
3508.828125	5778.845703
3508.050781	5887.240234
3507.273438	5728.771973
3506.495117	5724.639648
3505.716797	5640.164551
3504.939453	5822.416016
3504.161133	5525.911133
3503.382813	5823.762695
3502.604492	5720.054688
3501.826172	5603.535156
3501.046875	5759.960938
3500.268555	5733.356445
3499.489258	5722.809082
3498.710938	5750.773926
3497.931641	5724.183594
3497.152344	5620.606934
3496.373047	5728.764648
3495.592773	5439.209473
3494.813477	5739.755371
3494.034180	5742.041504
3493.253906	5670.599609
3492.473633	5563.924805
3491.693359	5431.648438
3490.913086	5501.266113
3490.132813	5561.250977
3489.352539	5531.532715
3488.572266	5572.278320
3487.791016	5472.125488
3487.009766	5624.917480
3486.229492	5515.184570
3485.448242	5527.102539
3484.666992	5452.619141
3483.885742	5589.318848
3483.103516	5409.286621
3482.322266	5571.536133
3481.540039	5471.510254
3480.758789	5812.747559
3479.976563	5370.655273
3479.194336	5497.646973
3478.412109	5474.395508
3477.629883	5534.228516
3476.846680	5546.120605
3476.064453	5366.353516
3475.281250	5445.337402
3474.499023	5447.657715
3473.715820	5344.617676
3472.932617	5500.179688
3472.149414	5310.987793
3471.366211	5456.931641
3470.582031	5443.294434
3469.798828	5723.156738
3469.014648	5364.998047
3468.231445	5475.758301
3467.447266	5299.506348
3466.663086	5474.003418
3465.878906	5409.374023
3465.093750	5347.952637
3464.309570	5321.602539
3463.524414	5438.634766
3462.740234	5332.639648
3461.955078	5478.297363
3461.169922	5324.561035
3460.384766	5244.106934
3459.599609	5341.956055
3458.814453	5392.028320
3458.028320	5387.981445
3457.243164	5301.204102
3456.457031	5392.617676
3455.670898	5188.170898
3454.885742	5257.309570
3454.098633	5355.045898
3453.312500	5424.135254
3452.526367	5159.414551
3451.740234	5282.546387
3450.953125	5332.546387
3450.166016	5141.046875
3449.379883	5143.399902
3448.592773	5155.281250
3447.804688	5170.334473
3447.017578	5188.558105
3446.230469	5238.524414
3445.442383	5193.243652
3444.655273	5119.413086
3443.867188	5102.725586
3443.079102	5181.228516
3442.291016	4999.576172
3441.502930	5268.378906
3440.714844	5093.112793
3439.926758	5082.784180
3439.137695	5139.034668
3438.348633	5135.041016
3437.560547	5035.970703
3436.771484	4933.763184
3435.982422	4961.486816
3435.193359	5005.040039
3434.403320	5124.592773
3433.614258	5035.103027
3432.824219	5103.952637
3432.035156	4903.694336
3431.245117	5080.160156
3430.455078	5063.522461
3429.665039	4879.187500
3428.875000	4992.298340
3428.084961	4906.092285
3427.293945	4933.770020
3426.503906	4891.871094
3425.712891	4808.883789
3424.921875	4887.141602
3424.130859	4861.073242
3423.339844	4917.176758
3422.548828	4790.002930
3421.756836	4684.983887
3420.965820	4725.295410
3420.173828	4762.435059
3419.382813	4970.073730
3418.590820	4640.938477
3417.798828	4839.060059
3417.006836	4772.006836
3416.213867	4676.574219
3415.421875	4641.118652
3414.628906	4706.620605
3413.836914	4787.872070
3413.043945	4717.726074
3412.250977	4735.888184
3411.458008	4735.128906
3410.665039	4529.487305
3409.872070	4683.186523
3409.078125	4625.717285
3408.285156	4678.534668
3407.491211	4709.284668
3406.697266	4648.688965
3405.903320	4657.391113
3405.109375	4533.852539
3404.315430	4457.573730
3403.520508	4633.118652
3402.726563	4604.053223
3401.931641	4597.021973
3401.137695	4599.431152
3400.342773	4655.312500
3399.547852	4582.231934
3398.752930	4609.797363
3397.957031	4536.747070
3397.162109	4514.015625
3396.366211	4535.292480
3395.571289	4487.428711
3394.775391	4467.857422
3393.979492	4435.726563
3393.183594	4532.384766
3392.387695	4519.096680
3391.591797	4464.993164
3390.794922	4476.834961
3389.999023	4416.477539
3389.202148	4444.015137
3388.405273	4509.199219
3387.608398	4351.604980
3386.811523	4354.044434
3386.014648	4362.755371
3385.216797	4358.919922
3384.419922	4364.492188
3383.622070	4423.355469
3382.825195	4435.184082
3382.027344	4437.606934
3381.229492	4418.094727
3380.431641	4292.070801
3379.632813	4303.912109
3378.834961	4284.430664
3378.036133	4274.349609
3377.238281	4367.590820
3376.439453	4216.631836
3375.640625	4328.631836
3374.841797	4271.608887
3374.042969	4255.279297
3373.244141	4276.495605
3372.444336	4206.996582
3371.644531	4303.270996
3370.845703	4283.819336
3370.045898	4126.813965
3369.246094	4051.131348
3368.446289	4137.992188
3367.646484	4115.454590
3366.845703	4311.629883
3366.045898	4136.001953
3365.245117	4032.267334
3364.444336	4237.729980
3363.643555	4121.522949
3362.842773	4214.518066
3362.041992	4245.055664
3361.241211	4088.331787
3360.440430	4097.037598
3359.638672	4149.417969
3358.836914	4276.646484
3358.036133	4207.345703
3357.234375	4106.883301
3356.432617	4015.806885
3355.629883	4046.336426
3354.828125	4048.804443
3354.026367	3970.246094
3353.223633	4125.402344
3352.420898	4006.357178
3351.618164	3977.680908
3350.815430	3858.697021
3350.012695	4057.365723
3349.209961	4034.921387
3348.407227	3866.179443
3347.603516	4033.627197
3346.799805	4017.421143
3345.997070	4082.115479
3345.193359	3988.134766
3344.389648	4034.150635
3343.584961	3927.768066
3342.781250	3989.325439
3341.977539	3845.677490
3341.172852	3956.962158
3340.368164	3937.680420
3339.564453	3859.364258
3338.759766	3796.607666
3337.954102	3941.998779
3337.149414	3904.095947
3336.344727	3953.156006
3335.539063	3750.704102
3334.734375	3930.157227
3333.928711	3851.929443
3333.123047	3910.276123
3332.317383	3813.459229
3331.511719	3881.100342
3330.705078	3833.949219
3329.899414	3789.914795
3329.092773	3873.031250
3328.287109	3732.891602
3327.480469	3868.688965
3326.673828	3827.776123
3325.867188	3851.953369
3325.060547	3832.744873
3324.252930	3903.382324
3323.446289	3831.515381
3322.638672	3821.610107
3321.831055	3960.336426
3321.024414	3749.177490
3320.216797	3757.862549
3319.408203	3717.025391
3318.600586	3753.562500
3317.792969	3709.645020
3316.984375	3780.199463
3316.175781	3739.384521
3315.368164	3741.877197
3314.559570	3435.172363
3313.750977	3681.938721
3312.941406	3554.618408
3312.132813	3637.490967
3311.323242	3658.537354
3310.514648	3738.276855
3309.705078	3607.939697
3308.895508	3647.511230
3308.085938	3554.286133
3307.276367	3757.491211
3306.466797	3608.711914
3305.656250	3691.468750
3304.846680	3607.554199
3304.036133	3656.343750
3303.225586	3572.461426
3302.415039	3658.255127
3301.604492	3645.332031
3300.793945	3558.407959
3299.983398	3668.826660
3299.171875	3572.678955
3298.361328	3578.269775
3297.549805	3540.717041
3296.738281	3691.121338
3295.926758	3668.965088
3295.115234	3566.733643
3294.303711	3415.261719
3293.491211	3670.278320
3292.679688	3580.410156
3291.867188	3561.366943
3291.054688	3600.804443
3290.242188	3637.152100
3289.429688	3473.507568
3288.617188	3516.015869
3287.804688	3620.023438
3286.991211	3591.766113
3286.177734	3541.995361
3285.365234	3486.092285
3284.551758	3445.575195
3283.738281	3509.558838
3282.924805	3481.341797
3282.110352	3563.731934
3281.296875	3455.650879
3280.482422	3531.876465
3279.668945	3534.380371
3278.854492	3592.147217
3278.040039	3493.339600
3277.225586	3572.578857
3276.411133	3427.775146
3275.595703	3605.183105
3274.781250	3506.436523
3273.965820	3484.403076
3273.150391	3345.839355
3272.335938	3501.682373
3271.519531	3571.633301
3270.704102	3384.077637
3269.888672	3518.385498
3269.073242	3484.113525
3268.256836	3339.555176
3267.440430	3495.248535
3266.625000	3326.231934
3265.808594	3420.630615
3264.991211	3417.019775
3264.174805	3306.262451
3263.358398	3370.010010
3262.541016	3504.125488
3261.724609	3402.586914
3260.907227	3365.328125
3260.089844	3321.963379
3259.272461	3410.124023
3258.455078	3437.097900
3257.637695	3387.627441
3256.819336	3387.083740
3256.001953	3407.935059
3255.183594	3321.821533
3254.365234	3458.783936
3253.546875	3394.074463
3252.728516	3491.272949
3251.910156	3313.581055
3251.090820	3349.691162
3250.272461	3361.365479
3249.453125	3446.296631
3248.633789	3403.014893
3247.814453	3436.035645
3246.995117	3386.667236
3246.175781	3489.842773
3245.356445	3416.080811
3244.536133	3296.598633
3243.716797	3341.805908
3242.896484	3502.845215
3242.076172	3349.877197
3241.255859	3459.053955
3240.435547	3315.283203
3239.615234	3357.404053
3238.793945	3247.203369
3237.973633	3322.823730
3237.152344	3297.928955
3236.331055	3300.444092
3235.509766	3217.720947
3234.688477	3299.384521
3233.867188	3307.984375
3233.045898	3173.572998
3232.223633	3331.260254
3231.402344	3233.389160
3230.580078	3360.603271
3229.757813	3363.104492
3228.935547	3268.315430
3228.113281	3322.507324
3227.291016	3297.659180
3226.467773	3382.217041
3225.645508	3211.526855
3224.822266	3314.298096
3223.999023	3237.831787
3223.175781	3361.823975
3222.352539	3233.755615
3221.529297	3309.134033
3220.705078	3293.425537
3219.881836	3144.185303
3219.057617	3298.436768
3218.233398	3361.620117
3217.409180	3218.507568
3216.584961	3148.232178
3215.760742	3244.766357
3214.936523	3274.565430
3214.111328	3140.652588
3213.287109	3200.769043
3212.461914	3239.652100
3211.636719	3263.372314
3210.811523	3123.487793
3209.986328	3183.567871
3209.161133	3195.171143
3208.334961	3252.192139
3207.509766	3257.725098
3206.683594	3293.527588
3205.857422	3314.185059
3205.031250	3153.266113
3204.205078	3388.762695
3203.378906	3306.538086
3202.552734	3197.117676
3201.725586	3260.112793
3200.899414	3090.259766
3200.072266	3089.763428
3199.245117	3198.086914
3198.417969	3167.350342
3197.590820	3157.776367
3196.762695	3087.779053
3195.935547	3229.261719
3195.107422	3086.787109
3194.280273	3143.668457
3193.452148	3143.163574
3192.624023	3257.376221
3191.795898	3139.135498
3190.966797	3159.756592
3190.138672	3165.283936
3189.309570	3104.436523
3188.481445	3094.888428
3187.652344	3157.726807
3186.823242	3124.049316
3185.994141	3201.937500
3185.165039	3201.423096
3184.334961	3113.501709
3183.505859	3043.689941
3182.675781	3067.305420
3181.845703	3163.215332
3181.016602	3198.852539
3180.185547	3032.699707
3179.355469	3119.535400
3178.525391	3119.034180
3177.695313	3154.655029
3176.864258	3009.683350
3176.033203	3078.411377
3175.202148	3083.934326
3174.371094	3098.479980
3173.540039	3173.176025
3172.708984	3034.331787
3171.877930	3015.803711
3171.045898	3144.590088
3170.213867	3068.939209
3169.381836	3092.488770
3168.550781	3070.958008
3167.717773	3124.543213
3166.885742	2961.831299
3166.053711	3039.443848
3165.220703	3032.949707
3164.388672	3098.515869
3163.555664	2983.943848
3162.722656	3055.499756
3161.889648	2967.979980
3161.056641	2910.493408
3160.222656	3012.026611
3159.389648	3020.541260
3158.555664	2966.072754
3157.722656	3121.522217
3156.888672	3007.092773
3156.054688	2994.619141
3155.220703	2907.220947
3154.385742	3062.579834
3153.551758	2960.217773
3152.716797	2893.836914
3151.882813	2914.338135
3151.047852	2937.827637
3150.212891	2898.430420
3149.377930	2900.958252
3148.541992	2852.599365
3147.707031	3010.759521
3146.872070	2956.413818
3146.036133	2851.224365
3145.200195	2910.593262
3144.364258	2907.134521
3143.528320	2894.705566
3142.692383	2834.442139
3141.856445	2920.680176
3141.019531	2887.332275
3140.182617	2928.706787
3139.346680	2904.332031
3138.509766	2948.677979
3137.672852	2882.489258
3136.835938	2858.133301
3135.998047	2908.437256
3135.161133	2875.128174
3134.323242	2886.606445
3133.485352	2796.603516
3132.648438	2930.440918
3131.810547	2804.655273
3130.971680	2914.582764
3130.133789	2884.287109
3129.295898	2803.302979
3128.457031	2859.505859
3127.619141	2790.476563
3126.780273	2915.221680
3125.941406	2852.166260
3125.102539	2780.191406
3124.262695	2884.022217
3123.423828	2815.044189
3122.583984	2790.764404
3121.745117	2775.426025
3120.905273	2789.867188
3120.065430	2777.510742
3119.225586	2785.993652
3118.385742	2833.161865
3117.544922	2779.146729
3116.705078	2778.699951
3115.864258	2879.388672
3115.024414	2783.754639
3114.183594	2741.676270
3113.342773	2875.026855
3112.500977	2841.865234
3111.660156	2776.020264
3110.819336	2692.365967
3109.977539	2739.472656
3109.135742	2739.032227
3108.293945	2637.602539
3107.452148	2699.543945
3106.610352	2767.404297
3105.768555	2758.052734
3104.926758	2781.355957
3104.083984	2703.743652
3103.241211	2750.787354
3102.398438	2652.436279
3101.555664	2827.030518
3100.712891	2693.106934
3099.870117	2633.363770
3099.027344	2704.100830
3098.183594	2786.673340
3097.339844	2703.231201
3096.497070	2759.104736
3095.653320	2755.697754
3094.809570	2761.179932
3093.964844	2677.795166
3093.121094	2739.559814
3092.276367	2694.701172
3091.432617	2670.581787
3090.587891	2687.913818
3089.743164	2722.998779
3088.898438	2740.316650
3088.053711	2677.740479
3087.208984	2724.643311
3086.363281	2691.668457
3085.517578	2765.170654
3084.672852	2649.405762
3083.827148	2702.195557
3082.981445	2604.213623
3082.135742	2727.925781
3081.289063	2662.476318
3080.443359	2753.639160
3079.596680	2720.701416
3078.750000	2649.377197
3077.904297	2681.435303
3077.056641	2627.856445
3076.209961	2692.381348
3075.363281	2615.204102
3074.516602	2608.880859
3073.668945	2629.116455
3072.821289	2616.892334
3071.973633	2690.216309
3071.125977	2524.621338
3070.278320	2565.499023
3069.430664	2629.950439
3068.583008	2706.172607
3067.734375	2555.418457
3066.885742	2528.484863
3066.038086	2560.489258
3065.189453	2563.023193
3064.339844	2727.560547
3063.491211	2615.209473
3062.642578	2588.287354
3061.792969	2640.864746
3060.944336	2678.707031
3060.094727	2542.890625
3059.245117	2610.163330
3058.395508	2592.090088
3057.545898	2606.381592
3056.695313	2614.785889
3055.845703	2587.897949
3054.995117	2578.660645
3054.144531	2578.245605
3053.293945	2633.678711
3052.443359	2659.705078
3051.592773	2550.555176
3050.742188	2491.385498
3049.890625	2508.609375
3049.039063	2578.693848
3048.188477	2575.342285
3047.336914	2466.293457
3046.485352	2668.452393
3045.633789	2530.072266
3044.781250	2588.357910
3043.929688	2658.361572
3043.077148	2684.336914
3042.224609	2598.841309
3041.372070	2554.431396
3040.519531	2504.171387
3039.666992	2536.018311
3038.814453	2500.434082
3037.960938	2502.962402
3037.108398	2493.768311
3036.254883	2587.124512
3035.401367	2583.778564
3034.547852	2554.072754
3033.694336	2565.375732
3032.840820	2562.034668
3031.986328	2523.563721
3031.132813	2593.407959
3030.278320	2560.797363
3029.423828	2586.720459
3028.569336	2586.304199
3027.714844	2460.103516
3026.860352	2456.782715
3026.004883	2585.055176
3025.150391	2485.229736
3024.294922	2487.752930
3023.439453	2469.815186
3022.583984	2539.554932
3021.728516	2492.395264
3020.873047	2427.722168
3020.016602	2532.486328
3019.161133	2517.476074
3018.304688	2476.190186
3017.448242	2361.928467
3016.591797	2522.098389
3015.735352	2442.889160
3014.878906	2474.595703
3014.021484	2407.090332
3013.165039	2435.874756
3012.307617	2461.733398
3011.450195	2525.494873
3010.592773	2469.687988
3009.735352	2410.983398
3008.877930	2471.807373
3008.020508	2424.778809
3007.162109	2462.269531
3006.303711	2479.353760
3005.445313	2344.956787
3004.587891	2356.229248
3003.728516	2405.354492
3002.870117	2486.491455
3002.011719	2424.957520
3001.152344	2412.924561
3000.293945	2360.152588
2999.434570	2353.953125
2998.575195	2405.940186
2997.715820	2399.735107
2996.855469	2405.165283
2995.996094	2425.132568
2995.136719	2442.186035
2994.276367	2470.861572
2993.416016	2435.586426
2992.555664	2385.792969
2991.695313	2417.368896
2990.834961	2454.744873
2989.973633	2361.403564
2989.113281	2436.529541
2988.251953	2439.040527
2987.390625	2383.487793
2986.530273	2484.697754
2985.667969	2394.328613
2984.806641	2318.497314
2983.945313	2361.643066
2983.083008	2358.361816
2982.221680	2357.981689
2981.359375	2482.296631
2980.497070	2383.316650
2979.634766	2435.113770
2978.772461	2339.071533
2977.909180	2521.269287
2977.046875	2352.805664
2976.183594	2378.500244
2975.320313	2409.979492
2974.457031	2499.371582
2973.593750	2388.933350
2972.730469	2391.443359
2971.867188	2405.531738
2971.002930	2405.144287
2970.139648	2332.411377
2969.275391	2410.155762
2968.411133	2432.910400
2967.546875	2342.853516
2966.682617	2377.179199
2965.817383	2240.896729
2964.953125	2431.342285
2964.087891	2448.293701
2963.222656	2407.437988
2962.357422	2337.699219
2961.492188	2490.447510
2960.626953	2342.723145
2959.761719	2293.245850
2958.895508	2362.182373
2958.030273	2361.801514
2957.164063	2335.439453
2956.297852	2280.222168
2955.431641	2326.028809
2954.565430	2270.830811
2953.698242	2382.978271
2952.832031	2368.171631
2951.964844	2382.210205
2951.097656	2321.271240
2950.230469	2335.312500
2949.363281	2340.701172
2948.496094	2346.088379
2947.628906	2371.645508
2946.760742	2328.044434
2945.893555	2379.523193
2945.025391	2295.610352
2944.157227	2419.073730
2943.289063	2286.232178
2942.419922	2317.531494
2941.551758	2403.511719
2940.683594	2452.050049
2939.814453	2414.246826
2938.945313	2318.914307
2938.076172	2338.676758
2937.207031	2375.689453
2936.337891	2254.528076
2935.468750	2357.672119
2934.598633	2363.041260
2933.728516	2359.785889
2932.859375	2322.045898
2931.989258	2321.671387
2931.119141	2252.347656
2930.248047	2343.902100
2929.377930	2314.804443
2928.506836	2397.704590
2927.636719	2334.155273
2926.765625	2445.731201
2925.894531	2347.752930
2925.023438	2244.066895
2924.152344	2292.481201
2923.280273	2378.173096
2922.409180	2294.609863
2921.537109	2400.348389
2920.665039	2305.339111
2919.792969	2316.434814
2918.920898	2384.854980
2918.048828	2393.068359
2917.176758	2418.471680
2916.303711	2392.296387
2915.430664	2368.993896
2914.558594	2317.057861
2913.685547	2279.456787
2912.811523	2336.352783
2911.938477	2384.642090
2911.065430	2332.736816
2910.191406	2315.189697
2909.318359	2503.664063
2908.444336	2446.042725
2907.570313	2336.952637
2906.696289	2359.455078
2905.821289	2336.198730
2904.947266	2355.834961
2904.072266	2386.898926
2903.198242	2300.770752
2902.323242	2351.837158
2901.448242	2265.742432
2900.573242	2373.931885
2899.697266	2319.280029
2898.822266	2258.934082
2897.946289	2224.305664
2897.071289	2246.785645
2896.195313	2300.656982
2895.319336	2274.600098
2894.443359	2291.354004
2893.566406	2316.661621
2892.690430	2239.268311
2891.813477	2181.864746
2890.937500	2152.996094
2890.060547	2215.375000
2889.183594	2203.614502
2888.306641	2240.312256
2887.428711	2262.749268
2886.551758	2208.246338
2885.673828	2202.192383
2884.796875	2324.319336
2883.918945	2192.937500
2883.041016	2215.363770
2882.162109	2277.641357
2881.284180	2297.199707
2880.406250	2145.983887
2879.527344	2250.927490
2878.648438	2236.338135
2877.769531	2159.168701
2876.890625	2198.640381
2876.011719	2175.534668
2875.132813	2283.231934
2874.252930	2240.219482
2873.374023	2157.426514
2872.494141	2191.182373
2871.614258	2253.342529
2870.734375	2190.474854
2869.854492	2235.571289
2868.973633	2260.771729
2868.093750	2067.306641
2867.212891	2240.167236
2866.332031	2231.289063
2865.452148	2196.868896
2864.570313	2205.027832
2863.689453	2218.858887
2862.808594	2178.783203
2861.926758	2124.537842
2861.045898	2243.308594
2860.164063	2109.673828
2859.282227	2126.343994
2858.400391	2182.694092
2857.518555	2151.165283
2856.635742	2128.147949
2855.753906	2187.303467
2854.871094	2172.785889
2853.988281	2152.608398
2853.105469	2160.756592
2852.222656	2095.283936
2851.339844	2157.227783
2850.456055	2216.320801
2849.573242	2111.249512
2848.689453	2161.841797
2847.805664	2136.030029
2846.921875	2113.055420
2846.038086	2149.481445
2845.154297	2106.717285
2844.269531	2123.341064
2843.385742	2074.940918
2842.500977	2139.613770
2841.616211	2111.008301
2840.731445	2195.433105
2839.846680	2164.002686
2838.961914	2095.862549
2838.076172	2126.589600
2837.190430	2114.951416
2836.305664	2151.311768
2835.419922	2083.217285
2834.534180	2128.038086
2833.648438	2124.872559
2832.761719	2082.207764
2831.875977	2160.858398
2830.989258	2188.714355
2830.102539	2075.558594
2829.215820	2080.862549
2828.329102	2117.175293
2827.442383	2099.920898
2826.555664	2139.036865
2825.667969	2017.526978
2824.781250	2141.163086
2823.893555	2039.409912
2823.005859	2095.408691
2822.118164	2095.070068
2821.229492	2201.720459
2820.341797	2167.583984
2819.453125	2147.531738
2818.565430	2090.901855
2817.676758	2087.750488
2816.788086	2126.798096
2815.899414	2126.454346
2815.009766	2193.606445
2814.121094	2072.341797
2813.231445	2094.498047
2812.342773	1984.532471
2811.453125	2127.547119
2810.563477	2014.801514
2809.673828	2084.715576
2808.783203	1938.303589
2807.893555	2131.789307
2807.002930	2117.403564
2806.113281	2027.212524
2805.222656	2077.416504
2804.332031	2169.707275
2803.440430	2045.874512
2802.549805	2191.453613
2801.659180	2168.655273
2800.767578	2115.008789
2799.875977	2052.965576
2798.984375	2181.624512
2798.092773	2189.682861
2797.201172	2200.541748
2796.309570	2093.680176
2795.416992	2051.306641
2794.524414	2101.408936
2793.632813	2019.827759
2792.740234	2069.918701
2791.846680	2167.602295
2790.954102	2203.652588
2790.061523	2049.317383
2789.167969	2132.960938
2788.275391	2090.635498
2787.381836	2087.499023
2786.488281	2103.948486
2785.593750	2072.837402
2784.700195	2139.627686
2783.806641	2046.998901
2782.912109	2113.771729
2782.017578	2152.567383
2781.124023	1976.128662
2780.228516	2165.844482
2779.333984	2120.787354
2778.439453	2033.838501
2777.543945	2162.000488
2776.649414	2130.929688
2775.753906	2085.906982
2774.858398	2077.193848
2773.962891	2129.895996
2773.067383	2213.281982
2772.170898	2020.374512
2771.275391	2028.418091
2770.378906	2061.566162
2769.482422	2064.021729
2768.585938	2052.532715
2767.689453	2149.791748
2766.792969	2196.837891
2765.896484	2104.497803
2764.999023	2028.909302
2764.101563	2009.075439
2763.205078	2019.894653
2762.307617	1972.212524
2761.409180	2066.588867
2760.511719	2110.809814
2759.614258	2138.310791
2758.715820	2154.667725
2757.817383	2162.669189
2756.918945	2092.746582
2756.020508	2150.839600
2755.122070	2030.865234
2754.223633	2063.915283
2753.324219	2127.546875
2752.425781	2004.853638
2751.526367	1982.287598
2750.626953	2015.323853
2749.727539	2051.128662
2748.828125	2192.518555
2747.927734	2058.800049
2747.028320	2075.134766
2746.127930	1994.251099
2745.227539	2060.577637
2744.327148	2126.882813
2743.426758	2129.314697
2742.526367	2153.951416
2741.625000	2056.468750
2740.724609	1992.315186
2739.823242	2066.900635
2738.921875	2049.922607
2738.020508	2102.286621
2737.119141	2024.301758
2736.216797	2035.064331
2735.315430	2026.418579
2734.413086	2031.633911
2733.511719	2022.991333
2732.609375	2066.996094
2731.707031	2027.876953
2730.803711	2105.105225
2729.901367	2027.220459
2728.998047	2043.506104
2728.095703	2051.480957
2727.192383	2092.669922
2726.289063	2089.563477
2725.385742	1934.262817
2724.482422	2119.321045
2723.578125	2038.755493
2722.674805	2060.552002
2721.770508	1982.787354
2720.866211	1954.816895
2719.961914	2042.964233
2719.057617	2045.397461
2718.152344	2009.139404
2717.248047	1970.129883
2716.342773	2049.929443
2715.438477	2077.219971
2714.533203	2038.218140
2713.627930	2018.558594
2712.721680	2056.884521
2711.816406	1995.820923
2710.910156	1945.817261
2710.004883	2003.453247
2709.098633	1975.537476
2708.192383	2080.047363
2707.286133	1994.205200
2706.379883	2038.006836
2705.472656	2015.617920
2704.565430	1987.722534
2703.659180	1992.913452
2702.751953	2022.906616
2701.844727	1923.378906
2700.937500	2002.965454
2700.029297	1997.131714
2699.122070	2032.612915
2698.213867	2046.052490
2697.305664	2084.267578
2696.397461	1984.826294
2695.489258	1940.465698
2694.581055	2050.230957
2693.672852	1895.812378
2692.763672	1942.273804
2691.855469	1991.470825
2690.946289	1930.643555
2690.037109	1944.079590
2689.127930	2023.494629
2688.217773	2031.413330
2687.308594	1976.115723
2686.398438	1967.551514
2685.489258	2024.930908
2684.579102	1950.431396
2683.668945	1961.101929
2682.757813	1969.022705
2681.847656	1971.449341
2680.937500	1951.912598
2680.026367	1970.810303
2679.115234	1893.647217
2678.204102	2052.490723
2677.292969	1969.852173
2676.381836	2016.165283
2675.469727	1944.529907
2674.558594	2020.996094
2673.646484	2034.377319
2672.734375	1984.704102
2671.822266	1929.565186
2670.910156	1978.579834
2669.998047	2019.358643
2669.084961	1975.198853
2668.172852	1994.052246
2667.259766	1966.342529
2666.346680	2018.049438
2665.433594	1993.082520
2664.520508	1951.699829
2663.606445	1978.752075
2662.693359	1940.121338
2661.779297	2030.093994
2660.865234	1934.021240
2659.951172	1903.621582
2659.037109	1947.067261
2658.123047	1941.283203
2657.208008	2031.182373
2656.293945	1932.453735
2655.378906	1981.332031
2654.463867	1945.489136
2653.548828	1871.410034
2652.633789	1887.495850
2651.718750	1980.047119
2650.802734	1944.227417
2649.886719	1963.023560
2648.971680	1995.462524
2648.055664	2016.973511
2647.138672	2038.477417
2646.222656	1896.267822
2645.306641	1972.344238
2644.389648	2056.578613
2643.473633	1908.980713
2642.556641	1935.937866
2641.639648	1992.874634
2640.721680	2030.712402
2639.804688	1943.171875
2638.887695	2051.852783
2637.969727	2013.377563
2637.051758	1931.330322
2636.133789	1977.317871
2635.215820	1971.550781
2634.297852	1998.457886
2633.379883	2071.634521
2632.460938	1973.313110
2631.541992	1839.645874
2630.623047	1937.300781
2629.704102	1912.502075
2628.785156	1939.392212
2627.866211	1928.199097
2626.946289	1944.201172
2626.027344	1941.166992
2625.107422	1932.697144
2624.187500	1905.205078
2623.267578	1945.656982
2622.347656	2010.548096
2621.426758	1988.489746
2620.506836	1999.031372
2619.585938	1955.256714
2618.665039	2022.819214
2617.744141	1954.622192
2616.823242	1978.733765
2615.902344	1962.129272
2614.981445	2086.628662
2614.059570	1915.371582
2613.137695	2026.275269
2612.215820	2028.658447
2611.293945	2066.292480
2610.372070	2049.689697
2609.450195	1992.430420
2608.527344	1992.106934
2607.604492	1972.814209
2606.682617	1991.460205
2605.759766	1991.136963
2604.835938	1966.436401
2603.913086	2028.404541
2602.990234	2036.198364
2602.066406	1938.406006
2601.142578	2016.589478
2600.218750	2046.032349
2599.294922	2129.584717
2598.371094	2007.490723
2597.447266	1898.961792
2596.522461	1950.041504
2595.598633	2020.033936
2594.673828	2073.781006
2593.749023	1989.641479
2592.824219	1989.318359
2591.898438	1972.780640
2590.973633	2015.692383
2590.047852	2085.605469
2589.122070	2047.451172
2588.197266	2014.710449
2587.271484	2019.783691
2586.344727	1968.159302
2585.418945	2013.728882
2584.492188	2029.595337
2583.566406	1956.406494
2582.639648	1950.692505
2581.712891	2082.558838
2580.786133	1974.333496
2579.858398	1903.897583
2578.931641	2041.099609
2578.003906	1973.371460
2577.077148	2013.482300
2576.149414	1964.645386
2575.221680	2053.246338
2574.292969	2025.971680
2573.365234	2047.191895
2572.437500	2041.472778
2571.508789	1911.886841
2570.580078	2021.962891
2569.651367	1983.947510
2568.722656	1956.710205
2567.793945	1926.790771
2566.864258	2034.102173
2565.935547	2047.222534
2565.005859	2006.543701
2564.076172	1912.092163
2563.146484	1989.758545
2562.216797	1919.536011
2561.286133	2005.239746
2560.356445	1924.287354
2559.425781	1950.845703
2558.495117	2031.129028
2557.564453	1952.897949
2556.633789	1949.894653
2555.703125	2046.250977
2554.771484	2000.274536
2553.839844	1924.783569
2552.909180	1943.259155
2551.977539	1929.525146
2551.045898	1972.142456
2550.113281	1958.408081
2549.181641	1891.031860
2548.249023	1922.906982
2547.317383	1927.957275
2546.384766	1924.962891
2545.452148	1903.205322
2544.519531	1969.899292
2543.585938	1827.554932
2542.653320	1931.749146
2541.719727	1861.785522
2540.786133	2016.829590
2539.853516	1925.451050
2538.918945	1922.460449
2537.985352	1938.210449
2537.051758	1911.128784
2536.117188	1865.322266
2535.182617	1993.456421
2534.249023	1875.417114
2533.313477	1859.062622
2532.378906	1861.434692
2531.444336	1887.872437
2530.508789	1922.322266
2529.574219	1956.760864
2528.638672	1916.351563
2527.703125	1932.073730
2526.767578	1848.931519
2525.832031	1934.116699
2524.895508	1925.789063
2523.959961	1890.758545
2523.023438	1965.214600
2522.086914	1911.500977
2521.150391	2012.621948
2520.213867	1977.599731
2519.276367	1926.578613
2518.339844	1832.886719
2517.402344	1947.291992
2516.464844	1896.300537
2515.527344	1997.324951
2514.589844	1882.352417
2513.652344	1922.032959
2512.713867	1927.051025
2511.776367	1942.726929
2510.837891	1945.075317
2509.899414	1995.375854
2508.960938	1931.124268
2508.021484	1917.494141
2507.083008	1933.158569
2506.143555	1839.662842
2505.205078	1826.054077
2504.265625	1937.537842
2503.326172	1915.934448
2502.386719	1910.301392
2501.446289	1917.970947
2500.506836	1928.297729
2499.566406	1922.665283
2498.625977	1885.128418
2497.685547	1937.989990
2496.745117	1855.276855
2495.804688	1860.290039
2494.863281	1878.587036
2493.922852	1880.937988
2492.981445	1923.131958
2492.040039	1832.520752
2491.098633	1853.465576
2490.157227	1882.368408
2489.214844	1876.752930
2488.273438	1889.717896
2487.331055	1823.068604
2486.388672	1936.860840
2485.446289	1856.961426
2484.503906	1877.878052
2483.561523	1864.312622
2482.618164	1850.751465
2481.675781	1890.216309
2480.732422	1823.642456
2479.789063	1878.999878
2478.845703	1997.933960
2477.902344	1955.219116
2476.958008	1872.784302
2476.013672	1869.830811
2475.070313	1919.839233
2474.125977	1866.574219
2473.181641	1829.209473
2472.237305	1815.677734
2471.291992	1849.784302
2470.347656	1836.253540
2469.402344	1870.345581
2468.457031	1907.071411
2467.511719	2017.834229
2466.566406	1930.247803
2465.621094	1826.827271
2464.674805	1916.402344
2463.728516	1889.661377
2462.783203	1868.213867
2461.836914	1833.563232
2460.890625	1878.171631
2459.943359	1994.076660
2458.997070	1816.822876
2458.049805	1861.411987
2457.103516	1850.549194
2456.156250	1868.723755
2455.208984	1900.087402
2454.260742	1865.476318
2453.313477	1854.619751
2452.365234	1872.781494
2451.417969	1896.212036
2450.469727	1864.260620
2449.521484	1856.047607
2448.573242	1805.661011
2447.624023	1884.433960
2446.675781	1852.505127
2445.726563	1788.970093
2444.778320	1854.535645
2443.829102	1906.910400
2442.878906	1846.030884
2441.929688	1843.097046
2440.980469	1884.917603
2440.030273	1774.060669
2439.080078	1900.093506
2438.129883	1897.152466
2437.179688	1841.595337
2436.229492	1825.512573
2435.279297	1890.964844
2434.328125	1866.990479
2433.377930	1871.944336
2432.426758	1939.985596
2431.475586	1866.077515
2430.523438	1949.864380
2429.572266	1807.665771
2428.621094	1883.553833
2427.668945	1817.582642
2426.716797	1762.137329
2425.764648	1795.984253
2424.812500	1937.456543
2423.860352	1792.773682
2422.907227	1884.336182
2421.955078	1789.565063
2421.001953	1797.143921
2420.048828	1802.097168
2419.095703	1862.125610
2418.142578	1838.221313
2417.188477	1885.114990
2416.235352	1787.814697
2415.281250	1850.427124
2414.327148	1884.192749
2413.373047	1773.839233
2412.418945	1839.042847
2411.463867	1864.935791
2410.509766	1822.729736
2409.554688	1756.971558
2408.599609	1835.225220
2407.644531	1698.811523
2406.689453	1850.329346
2405.734375	1813.393311
2404.778320	1687.515015
2403.822266	1786.642944
2402.867188	1828.198608
2401.912109	1806.980103
2400.955078	1796.226929
2399.998047	1824.689697
2399.042969	1785.185791
2398.085938	1858.067383
2397.128906	1805.506348
2396.171875	1771.249756
2395.214844	1870.218018
2394.257813	1807.234253
2393.300781	1749.493286
2392.341797	1835.362671
2391.384766	1795.908203
2390.427734	1772.125977
2389.468750	1824.026367
2388.509766	1766.329468
2387.552734	1789.518799
2386.593750	1870.080933
2385.634766	1822.835693
2384.675781	1723.458862
2383.716797	1775.316040
2382.757813	1746.354736
2381.798828	1764.312134
2380.839844	1810.925781
2379.878906	1797.604126
2378.919922	1792.100952
2377.960938	1765.764648
2377.000000	1807.139526
2376.039063	1832.879761
2375.080078	1889.848633
2374.119141	1782.830444
2373.158203	1748.710205
2372.197266	1777.044678
2371.236328	1833.985229
2370.275391	1896.109131
2369.314453	1768.372681
2368.351563	1788.884888
2367.390625	1700.203003
2366.429688	1702.524536
2365.466797	1788.008545
2364.503906	1795.511841
2363.542969	1761.444580
2362.580078	1659.851440
2361.617188	1716.717651
2360.654297	1711.243774
2359.691406	1827.797974
2358.728516	1702.897095
2357.765625	1806.437256
2356.802734	1660.820313
2355.837891	1756.549561
2354.875000	1771.827637
2353.910156	1779.319580
2352.947266	1727.162109
2351.982422	1721.694092
2351.017578	1724.005371
2350.054688	1804.077637
2349.089844	1777.866455
2348.125000	1762.028687
2347.160156	1671.062988
2346.195313	1714.826294
2345.228516	1673.106812
2344.263672	1753.108765
2343.298828	1716.574829
2342.332031	1778.422607
2341.367188	1765.190674
2340.400391	1640.686279
2339.433594	1759.438965
2338.468750	1686.715820
2337.501953	1753.690796
2336.535156	1732.715088
2335.568359	1735.017578
2334.601563	1734.734009
2333.632813	1711.186646
2332.666016	1716.075806
2331.699219	1842.412720
2330.730469	1909.285278
2329.763672	1927.055542
2328.794922	1838.926514
2327.828125	1776.649780
2326.859375	1773.777466
2325.890625	1757.998413
2324.921875	1726.738159
2323.953125	1840.004517
2322.984375	1710.692139
2322.015625	1648.497070
2321.046875	1748.823608
2320.076172	1655.694946
2319.107422	1686.366699
2318.136719	1729.919067
2317.167969	1801.811768
2316.197266	1701.003296
2315.226563	1610.535156
2314.257813	1669.529663
2313.287109	1602.280396
2312.316406	1723.071167
2311.345703	1576.004517
2310.375000	1640.115601
2309.402344	1704.205566
2308.431641	1739.961426
2307.460938	1747.397339
2306.488281	1636.469727
2305.517578	1651.637817
2304.544922	1638.506592
2303.572266	1617.664063
2302.601563	1609.685303
2301.628906	1655.699341
2300.656250	1652.857910
2299.683594	1683.428955
2298.710938	1708.850586
2297.736328	1688.016724
2296.763672	1659.483032
2295.791016	1661.780029
2294.816406	1674.348145
2293.843750	1668.938965
2292.869141	1642.994141
2291.896484	1640.158569
2290.921875	1675.818848
2289.947266	1575.473877
2288.972656	1672.704956
2287.998047	1669.866089
2287.023438	1631.122925
2286.048828	1646.241455
2285.072266	1663.918701
2284.097656	1540.603149
2283.123047	1668.500000
2282.146484	1647.726440
2281.171875	1562.906128
2280.195313	1700.983276
2279.218750	1628.988403
2278.242188	1664.574097
2277.265625	1554.201660
2276.289063	1669.149170
2275.312500	1684.233643
2274.335938	1550.879272
2273.359375	1637.624146
2272.382813	1703.873535
2271.404297	1672.899170
2270.427734	1664.952637
2269.449219	1731.165039
2268.472656	1666.964233
2267.494141	1694.810303
2266.515625	1671.530029
2265.537109	1673.811768
2264.558594	1693.977783
2263.580078	1683.481934
2262.601563	1650.001953
2261.623047	1652.285400
2260.642578	1588.181152
2259.664063	1692.591187
2258.685547	1631.053711
2257.705078	1663.963745
2256.724609	1681.552856
2255.746094	1635.354858
2254.765625	1586.621094
2253.785156	1683.277100
2252.804688	1619.251343
2251.824219	1590.940674
2250.843750	1595.778320
2249.863281	1702.564331
2248.880859	1610.545532
2247.900391	1610.281616
2246.919922	1711.917725
2245.937500	1653.054443
2244.955078	1642.596924
2243.974609	1649.966431
2242.992188	1593.687988
2242.009766	1583.245117
2241.027344	1633.885620
2240.044922	1628.528687
2239.062500	1699.498291
2238.080078	1732.288452
2237.097656	1617.554810
2236.113281	1645.261719
2235.130859	1655.162109
2234.146484	1705.732300
2233.164063	1725.786011
2232.179688	1547.616211
2231.195313	1577.852417
2230.210938	1630.942383
2229.226563	1681.474976
2228.242188	1681.199341
2227.257813	1658.071289
2226.273438	1667.954468
2225.289063	1548.379639
2224.302734	1581.118652
2223.318359	1560.559448
2222.332031	1583.137329
2221.347656	1646.294312
2220.361328	1737.329224
2219.375000	1607.717041
2218.390625	1630.272095
2217.404297	1617.329834
2216.417969	1657.617920
2215.429688	1677.619507
2214.443359	1588.663086
2213.457031	1613.735840
2212.470703	1623.602905
2211.482422	1587.881592
2210.496094	1658.519653
2209.507813	1615.209229
2208.521484	1531.412720
2207.533203	1576.716675
2206.544922	1629.597168
2205.556641	1571.139526
2204.568359	1661.947388
2203.580078	1563.036499
2202.591797	1600.711670
2201.601563	1643.431152
2200.613281	1534.460083
2199.625000	1572.121216
2198.634766	1546.592163
2197.646484	1634.772827
2196.656250	1561.242432
2195.666016	1631.710571
2194.675781	1633.968384
2193.685547	1489.773071
2192.695313	1653.629150
2191.705078	1600.349365
2190.714844	1549.610840
2189.724609	1609.917725
2188.734375	1624.791382
2187.742188	1548.848145
2186.751953	1558.682495
2185.759766	1581.122192
2184.767578	1580.862671
2183.777344	1545.310669
2182.785156	1550.098022
2181.792969	1562.443970
2180.800781	1652.895142
2179.808594	1521.623169
2178.816406	1569.231079
2177.822266	1521.123657
2176.830078	1606.485962
2175.837891	1633.915771
2174.843750	1553.097900
2173.849609	1578.010498
2172.857422	1590.333252
2171.863281	1569.944580
2170.869141	1549.562622
2169.875000	1544.278076
2168.880859	1518.877441
2167.886719	1631.770874
2166.892578	1556.086792
2165.898438	1543.263916
2164.902344	1608.349731
2163.908203	1495.017090
2162.912109	1612.845947
2161.917969	1635.187378
2160.921875	1607.293457
2159.925781	1632.139282
2158.931641	1599.233887
2157.935547	1561.318726
2156.939453	1458.162720
2155.943359	1598.445923
2154.945313	1510.371094
2153.949219	1572.835693
2152.953125	1557.528809
2151.955078	1524.672974
2150.958984	1524.422485
2149.960938	1584.336792
2148.964844	1546.479736
2147.966797	1548.731689
2146.968750	1515.904053
2145.970703	1638.410522
2144.972656	1527.929932
2143.974609	1570.253540
2142.976563	1652.626953
2141.976563	1562.226929
2140.978516	1526.925903
2139.980469	1649.309570
2138.980469	1538.935791
2137.980469	1601.230957
2136.982422	1535.928467
2135.982422	1638.221191
2134.982422	1520.419556
2133.982422	1530.170776
2132.982422	1534.918945
2131.982422	1497.174805
2130.982422	1654.368652
2129.982422	1559.148560
2128.980469	1551.397583
2127.980469	1576.120728
2126.978516	1510.929077
2125.978516	1588.087524
2124.976563	1595.316162
2123.974609	1502.695557
2122.972656	1564.842529
2121.970703	1559.594482
2120.968750	1509.439209
2119.966797	1551.598022
2118.964844	1496.472290
2117.962891	1558.568970
2116.958984	1505.953369
2115.957031	1530.634644
2114.953125	1530.382935
2113.951172	1530.131226
2112.947266	1539.846191
2111.943359	1529.627930
2110.939453	1534.358032
2109.935547	1606.328247
2108.931641	1523.893311
2107.927734	1533.601074
2106.923828	1488.543213
2105.919922	1560.473267
2104.914063	1547.774658
2103.910156	1589.815674
2102.904297	1509.952026
2101.898438	1616.651367
2100.894531	1539.296143
2099.888672	1499.261597
2098.882813	1459.239990
2097.876953	1493.797241
2096.871094	1550.708984
2095.865234	1480.882202
2094.859375	1448.342651
2093.851563	1530.072510
2092.845703	1507.469482
2091.837891	1499.772217
2090.832031	1588.901001
2089.824219	1553.888062
2088.816406	1568.523438
2087.810547	1580.672363
2086.802734	1550.639893
2085.794922	1488.369385
2084.787109	1532.768066
2083.777344	1485.399658
2082.769531	1490.113892
2081.761719	1579.111938
2080.751953	1464.837646
2079.744141	1506.725342
2078.734375	1489.132935
2077.726563	1511.183960
2076.716797	1503.504272
2075.707031	1485.921021
2074.697266	1520.342163
2073.687500	1520.091797
2072.677734	1465.384644
2071.667969	1462.668457
2070.656250	1459.953125
2069.646484	1434.971802
2068.636719	1474.314453
2067.625000	1521.063843
2066.613281	1446.627319
2065.603516	1599.681641
2064.591797	1505.480225
2063.580078	1567.023315
2062.568359	1440.732056
2061.556641	1428.140625
2060.544922	1427.905396
2059.533203	1462.250488
2058.519531	1503.993042
2057.507813	1466.707153
2056.496094	1535.591919
2055.482422	1557.554443
2054.468750	1458.578491
2053.457031	1524.962769
2052.443359	1443.294922
2051.429688	1457.857666
2050.416016	1516.810059
2049.402344	1501.764404
2048.388672	1523.706909
2047.375000	1484.013550
2046.359375	1414.756592
2045.345703	1485.988892
2044.330078	1453.713013
2043.316406	1478.108643
2042.300781	1472.938843
2041.285156	1477.621460
2040.269531	1492.151733
2039.255859	1506.677124
2038.240234	1437.507202
2037.222656	1402.815186
2036.207031	1402.583862
2035.191406	1493.382690
2034.175781	1392.282104
2033.158203	1478.133545
2032.142578	1455.758423
2031.125000	1418.638794
2030.107422	1433.154297
2029.091797	1491.906128
2028.074219	1476.915527
2027.056641	1454.558838
2026.039063	1427.296143
2025.021484	1436.885620
2024.001953	1495.588135
2022.984375	1458.510498
2021.966797	1517.189941
2020.947266	1465.393311
2019.929688	1484.785156
2018.910156	1403.565308
2017.890625	1526.002930
2016.871094	1491.409546
2015.853516	1505.879028
2014.833984	1373.213623
2013.812500	1429.377686
2012.792969	1468.363647
2011.773438	1428.906128
2010.753906	1345.351807
2009.732422	1389.232422
2008.712891	1403.701660
2007.691406	1469.602295
2006.671875	1471.808716
2005.650391	1324.654175
2004.628906	1437.049316
2003.607422	1480.871216
2002.585938	1446.364502
2001.564453	1453.466553
2000.542969	1414.082520
1999.519531	1460.325195
1998.498047	1386.713135
1997.476563	1437.835571
1996.453125	1459.602417
1995.429688	1386.026733
1994.408203	1398.018433
1993.384766	1407.562500
1992.361328	1363.351074
1991.337891	1426.640869
1990.314453	1389.768311
1989.291016	1448.148560
1988.267578	1347.801147
1987.242188	1403.727783
1986.218750	1330.270142
1985.193359	1388.621582
1984.169922	1366.431763
1983.144531	1407.680298
1982.119141	1380.616211
1981.095703	1453.553711
1980.070313	1426.490723
1979.044922	1367.742188
1978.019531	1428.457397
1976.992188	1350.229858
1975.966797	1388.996338
1974.941406	1420.440552
1973.914063	1383.665527
1972.888672	1383.437012
1971.861328	1422.172119
1970.833984	1431.676514
1969.808594	1421.702393
1968.781250	1382.523315
1967.753906	1345.790649
1966.726563	1345.568359
1965.699219	1389.136719
1964.669922	1359.718384
1963.642578	1381.381836
1962.615234	1354.405884
1961.585938	1334.732544
1960.558594	1341.804443
1959.529297	1307.557129
1958.500000	1324.351074
1957.470703	1365.435547
1956.441406	1355.493042
1955.412109	1355.269165
1954.382813	1345.331543
1953.353516	1342.681274
1952.324219	1374.018066
1951.294922	1378.645386
1950.263672	1368.710449
1949.234375	1392.748169
1948.203125	1409.499878
1947.171875	1409.266968
1946.140625	1326.577637
1945.111328	1435.473755
1944.080078	1304.319702
1943.046875	1386.519531
1942.015625	1320.853638
1940.984375	1432.101685
1939.953125	1351.913086
1938.919922	1390.447754
1937.888672	1373.264038
1936.855469	1387.566406
1935.824219	1397.021729
1934.791016	1375.003784
1933.757813	1406.241333
1932.724609	1330.989502
1931.691406	1313.832275
1930.658203	1354.741089
1929.625000	1366.610962
1928.591797	1371.221802
1927.556641	1395.174805
1926.523438	1385.273804
1925.488281	1324.615112
1924.455078	1435.567993
1923.419922	1444.996094
1922.384766	1352.949707
1921.349609	1338.232422
1920.314453	1272.801147
1919.279297	1429.551514
1918.244141	1354.469116
1917.208984	1344.589233
1916.171875	1402.292725
1915.136719	1382.755249
1914.099609	1392.177734
1913.064453	1375.060669
1912.027344	1365.185181
1910.990234	1343.255005
1909.955078	1415.368408
1908.917969	1371.739990
1907.880859	1436.593628
1906.841797	1368.876099
1905.804688	1308.409668
1904.767578	1339.512695
1903.730469	1327.247070
1902.691406	1353.519775
1901.652344	1314.767700
1900.615234	1367.517334
1899.576172	1345.626221
1898.537109	1400.759888
1897.498047	1297.052612
1896.458984	1287.213867
1895.419922	1318.273682
1894.380859	1325.271118
1893.341797	1320.242065
1892.300781	1370.516235
1891.261719	1367.885376
1890.220703	1437.363770
1889.181641	1389.061401
1888.140625	1309.538208
1887.099609	1311.723877
1886.058594	1325.918823
1885.019531	1323.297607
1883.976563	1344.689575
1882.935547	1308.454346
1881.894531	1317.839478
1880.853516	1404.022583
1879.810547	1346.198608
1878.769531	1357.971924
1877.726563	1352.949341
1876.685547	1381.506592
1875.642578	1366.889404
1874.599609	1376.253662
1873.556641	1344.861328
1872.513672	1339.844849
1871.470703	1344.415771
1870.427734	1360.965576
1869.382813	1322.409302
1868.339844	1338.957153
1867.294922	1295.627563
1866.251953	1326.541138
1865.207031	1297.592285
1864.164063	1352.432129
1863.119141	1321.095215
1862.074219	1282.590088
1861.029297	1258.452515
1859.984375	1325.222778
1858.937500	1334.569946
1857.892578	1293.696533
1856.847656	1238.491211
1855.800781	1338.687500
1854.755859	1333.685425
1853.708984	1300.008301
1852.664063	1268.731567
1851.617188	1318.688721
1850.570313	1273.088013
1849.523438	1260.936279
1848.476563	1193.870483
1847.429688	1198.447266
1846.380859	1274.630981
1845.333984	1288.738892
1844.287109	1310.000732
1843.238281	1250.139404
1842.189453	1230.849243
1841.142578	1252.109863
1840.093750	1244.748535
1839.044922	1289.841553
1837.996094	1199.043823
1836.947266	1239.362549
1835.898438	1227.242065
1834.849609	1317.577271
1833.798828	1231.599365
1832.750000	1231.395142
1831.701172	1219.283813
1830.650391	1264.320923
1829.599609	1192.692505
1828.550781	1259.140991
1827.500000	1232.754028
1826.449219	1256.343872
1825.398438	1301.337280
1824.347656	1267.820313
1823.294922	1246.205688
1822.244141	1257.888184
1821.193359	1274.321777
1820.140625	1214.683472
1819.089844	1278.652222
1818.037109	1266.558594
1816.984375	1242.589600
1815.931641	1209.126465
1814.878906	1211.300903
1813.826172	1253.844604
1812.773438	1248.887817
1811.720703	1203.576172
1810.667969	1184.388184
1809.613281	1290.982422
1808.560547	1214.840576
1807.505859	1273.947510
1806.453125	1261.876343
1805.398438	1275.896118
1804.343750	1237.745728
1803.289063	1201.978760
1802.234375	1246.816284
1801.179688	1270.309082
1800.125000	1279.576538
1799.070313	1236.718628
1798.013672	1293.364380
1796.958984	1241.044800
1795.904297	1271.622803
1794.847656	1228.794556
1793.791016	1266.466064
1792.734375	1282.823608
1791.677734	1142.990601
1790.621094	1268.201172
1789.564453	1267.990601
1788.507813	1206.283203
1787.451172	1210.812622
1786.394531	1302.826050
1785.335938	1257.692017
1784.279297	1210.209351
1783.220703	1271.453979
1782.162109	1245.250854
1781.105469	1233.231323
1780.046875	1235.388550
1778.988281	1211.566040
1777.929688	1284.566162
1776.869141	1326.849731
1775.810547	1277.057617
1774.751953	1246.163452
1773.691406	1316.749268
1772.632813	1200.921143
1771.572266	1250.260254
1770.513672	1287.789917
1769.453125	1219.188110
1768.392578	1296.793091
1767.332031	1209.353271
1766.271484	1296.362061
1765.210938	1213.664551
1764.150391	1211.106567
1763.087891	1227.396118
1762.027344	1250.746704
1760.964844	1217.567871
1759.904297	1236.202759
1758.841797	1264.248657
1757.779297	1238.145630
1756.716797	1268.535278
1755.654297	1188.318726
1754.591797	1230.470093
1753.529297	1286.721191
1752.466797	1258.284058
1751.404297	1218.098633
1750.339844	1260.216797
1749.277344	1201.238159
1748.212891	1255.096924
1747.148438	1226.688477
1746.085938	1202.988525
1745.021484	1165.201294
1743.957031	1204.937256
1742.892578	1146.026367
1741.828125	1258.540894
1740.761719	1248.941040
1739.697266	1274.552979
1738.632813	1225.057007
1737.566406	1234.239014
1736.501953	1208.226929
1735.435547	1170.494995
1734.369141	1228.932495
1733.302734	1268.591431
1732.236328	1216.801025
1731.169922	1214.254517
1730.103516	1195.302612
1729.037109	1166.983521
1727.970703	1237.077881
1726.902344	1201.733643
1725.835938	1131.268433
1724.767578	1175.574097
1723.699219	1187.085327
1722.632813	1186.887695
1721.564453	1224.140015
1720.496094	1254.359131
1719.427734	1251.810425
1718.359375	1172.061035
1717.289063	1185.900269
1716.220703	1239.492065
1715.152344	1190.182007
1714.082031	1145.563965
1713.013672	1208.485596
1711.943359	1255.026611
1710.873047	1182.379395
1709.802734	1205.545776
1708.732422	1212.352783
1707.662109	1125.735596
1706.591797	1230.630371
1705.521484	1228.090698
1704.449219	1118.170044
1703.378906	1199.673706
1702.308594	1192.473022
1701.236328	1166.609009
1700.164063	1208.405640
1699.093750	1147.560913
1698.021484	1217.331299
1696.949219	1219.460205
1695.876953	1156.312622
1694.802734	1202.737671
1693.730469	1223.511841
1692.658203	1125.443359
1691.583984	1164.861084
1690.511719	1194.948364
1689.437500	1211.051880
1688.365234	1189.893066
1687.291016	1205.991943
1686.216797	1177.857666
1685.142578	1089.220337
1684.068359	1123.943970
1682.994141	1181.922119
1681.919922	1121.243164
1680.843750	1239.674194
1679.769531	1227.840332
1678.693359	1143.933228
1677.619141	1227.431030
1676.542969	1169.119141
1675.466797	1173.572021
1674.390625	1124.582520
1673.314453	1175.503906
1672.238281	1224.085571
1671.162109	1200.657959
1670.085938	1147.052490
1669.007813	1204.900757
1667.931641	1162.918335
1666.853516	1107.025024
1665.777344	1211.259399
1664.699219	1169.296753
1663.621094	1199.257202
1662.542969	1226.888306
1661.464844	1159.436401
1660.386719	1173.153931
1659.308594	1152.095337
1658.230469	1172.762573
1657.152344	1167.932373
1656.072266	1232.611816
1654.994141	1223.140015
1653.914063	1190.509644
1652.833984	1234.310913
1651.753906	1213.266357
1650.673828	1180.653931
1649.593750	1161.939941
1648.513672	1240.430054
1647.433594	1256.420044
1646.353516	1142.850708
1645.271484	1165.790771
1644.191406	1232.664307
1643.109375	1202.398682
1642.029297	1287.739014
1640.947266	1213.555054
1639.865234	1234.152832
1638.783203	1187.731567
1637.701172	1245.292725
1636.619141	1171.165161
1635.537109	1244.877075
1634.455078	1237.741577
1633.371094	1184.431885
1632.289063	1188.850952
1631.205078	1181.728394
1630.123047	1199.992432
1629.039063	1183.641113
1627.955078	1222.660889
1626.871094	1141.728516
1625.787109	1196.885132
1624.703125	1198.991089
1623.619141	1129.629883
1622.533203	1212.420532
1621.449219	1249.091675
1620.363281	1168.235596
1619.279297	1108.140991
1618.193359	1174.755737
1617.107422	1192.984009
1616.021484	1121.401855
1614.935547	1176.469482
1613.849609	1148.650146
1612.763672	1219.805420
1611.677734	1109.147095
1610.591797	1125.067139
1609.503906	1143.282104
1608.417969	1152.291016
1607.330078	1110.705688
1606.242188	1016.252380
1605.156250	1128.725220
1604.068359	1114.745972
1602.980469	1144.434570
1601.892578	1148.838623
1600.802734	1146.349365
1599.714844	1049.687622
1598.626953	1141.373169
1597.537109	1150.367065
1596.449219	1062.935913
1595.359375	1094.893555
1594.269531	1055.695679
1593.181641	1073.876099
1592.091797	1069.108154
1591.001953	1142.332275
1589.910156	1096.272217
1588.820313	1132.778076
1587.730469	1015.661560
1586.640625	1127.814819
1585.548828	1118.458496
1584.458984	1093.064575
1583.367188	1104.337646
1582.275391	1088.117554
1581.183594	1131.453003
1580.091797	1085.463623
1579.000000	1028.041504
1577.908203	1075.943604
1576.816406	1130.696289
1575.724609	1045.833618
1574.630859	1141.758667
1573.539063	1120.978271
1572.445313	1075.044189
1571.351563	1122.890259
1570.259766	1019.807068
1569.166016	1079.077148
1568.072266	1076.610840
1566.978516	1110.711914
1565.882813	1076.250610
1564.789063	1089.778442
1563.695313	1096.448975
1562.599609	977.503418
1561.505859	1107.499634
1560.410156	1114.163574
1559.314453	1157.349243
1558.220703	1102.379028
1557.125000	1143.270020
1556.029297	1165.894653
1554.933594	1193.074097
1553.835938	1108.483643
1552.740234	1135.663574
1551.644531	1083.031860
1550.546875	1167.198975
1549.451172	1176.120850
1548.353516	1144.019043
1547.255859	1043.571777
1546.158203	1102.629150
1545.060547	1107.000122
1543.962891	1088.595581
1542.865234	1111.183472
1541.767578	1049.528320
1540.669922	1063.010132
1539.570313	1074.211426
1538.472656	1055.827637
1537.373047	1096.602783
1536.273438	1116.891724
1535.175781	1041.651245
1534.076172	1073.312256
1532.976563	1084.500488
1531.876953	1038.854736
1530.775391	1034.135132
1529.675781	997.602783
1528.576172	995.163574
1527.474609	1054.060669
1526.375000	1006.186707
1525.273438	1030.998291
1524.171875	1085.318481
1523.072266	1032.922974
1521.970703	976.005432
1520.869141	1021.229919
1519.767578	993.830566
1518.664063	1054.917236
1517.562500	1052.472290
1516.460938	1020.545593
1515.357422	997.699585
1514.253906	1054.210327
1513.152344	1031.366211
1512.048828	1040.258789
1510.945313	992.498901
1509.841797	1058.034912
1508.738281	1048.796753
1507.634766	1039.561523
1506.531250	1016.742676
1505.425781	971.290649
1504.322266	1036.775146
1503.216797	980.018250
1502.113281	1025.112793
1501.007813	1067.929688
1499.902344	1042.866577
1498.796875	1049.477051
1497.691406	981.458374
1496.585938	1055.908325
1495.480469	983.389893
1494.375000	985.485291
1493.267578	978.540283
1492.162109	982.895203
1491.054688	994.026123
1489.947266	966.754150
1488.841797	977.883972
1487.734375	1025.138184
1486.626953	954.979553
1485.519531	999.964478
1484.412109	1044.934326
1483.302734	1015.424500
1482.195313	983.668457
1481.087891	945.155823
1479.978516	978.827698
1478.869141	969.643494
1477.761719	992.026855
1476.652344	856.606689
1475.542969	928.586182
1474.433594	1005.048340
1473.324219	919.262146
1472.214844	1000.205627
1471.103516	916.701294
1469.994141	988.610107
1468.882813	954.670471
1467.773438	965.766235
1466.662109	936.343384
1465.550781	945.187988
1464.441406	949.529480
1463.330078	971.867004
1462.218750	919.969604
1461.105469	998.527954
1459.994141	939.897766
1458.882813	939.739929
1457.769531	975.546997
1456.658203	948.414063
1455.544922	984.207581
1454.431641	990.782349
1453.320313	938.951172
1452.207031	954.514893
1451.093750	988.037720
1449.980469	942.968506
1448.865234	956.278870
1447.751953	980.806702
1446.638672	884.148621
1445.523438	906.436646
1444.410156	1002.745300
1443.294922	964.447571
1442.179688	923.920105
1441.064453	1069.504517
1439.949219	990.862793
1438.833984	1008.627441
1437.718750	947.950500
1436.603516	947.791199
1435.486328	911.787720
1434.371094	900.435059
1433.253906	974.187622
1432.138672	929.241211
1431.021484	964.905212
1429.904297	951.312744
1428.787109	986.960938
1427.669922	962.181091
1426.552734	941.884094
1425.435547	941.725769
1424.316406	925.911926
1423.199219	905.631165
1422.080078	956.901184
1420.962891	950.034180
1419.843750	940.934448
1418.724609	911.726135
1417.605469	1007.645508
1416.486328	938.226074
1415.367188	917.966797
1414.248047	917.812439
1413.128906	957.847534
1412.009766	975.545410
1410.888672	993.237305
1409.767578	910.500366
1408.648438	950.509583
1407.527344	954.811462
1406.406250	939.037415
1405.285156	954.490295
1404.164063	987.775818
1403.042969	931.875488
1401.921875	922.802734
1400.798828	978.362915
1399.677734	920.264038
1398.554688	940.160034
1397.433594	962.276733
1396.310547	935.389404
1395.187500	921.871582
1394.064453	866.057251
1392.941406	897.075439
1391.818359	847.960815
1390.695313	914.575439
1389.572266	921.096130
1388.447266	914.267639
1387.324219	991.958008
1386.199219	949.539856
1385.074219	920.476135
1383.951172	924.767212
1382.826172	835.706604
1381.701172	875.566406
1380.576172	902.081482
1379.449219	855.278076
1378.324219	868.460876
1377.199219	921.612732
1376.072266	910.355652
1374.947266	892.442322
1373.820313	885.633118
1372.693359	912.115112
1371.566406	889.772644
1370.439453	874.093201
1369.312500	947.144531
1368.185547	800.612610
1367.058594	926.869019
1365.931641	893.457642
1364.802734	911.040283
1363.675781	924.184448
1362.546875	915.165161
1361.417969	912.795471
1360.289063	897.135681
1359.160156	923.561829
1358.031250	914.548584
1356.902344	929.892761
1355.773438	881.035583
1354.644531	898.593384
1353.513672	933.848572
1352.384766	878.377747
1351.253906	926.897339
1350.123047	807.304321
1348.994141	882.356567
1347.863281	807.032227
1346.732422	937.326050
1345.601563	919.485596
1344.468750	866.292297
1343.337891	890.451416
1342.207031	846.117615
1341.074219	883.524780
1339.943359	854.666138
1338.810547	947.260864
1337.677734	856.585632
1336.544922	832.160706
1335.412109	891.608032
1334.279297	860.565613
1333.146484	871.451477
1332.013672	911.009583
1330.878906	875.568542
1329.746094	873.215759
1328.611328	855.430786
1327.478516	912.599487
1326.343750	901.425720
1325.208984	859.405212
1324.074219	863.666687
1322.939453	819.463806
1321.804688	863.375366
1320.669922	852.219116
1319.533203	891.706726
1318.398438	869.542542
1317.261719	887.003845
1316.126953	856.045410
1314.990234	871.302734
1313.853516	877.755371
1312.716797	835.816467
1311.580078	881.857483
1310.443359	853.124573
1309.306641	859.575806
1308.167969	870.420898
1307.031250	799.948853
1305.892578	808.602966
1304.755859	852.404846
1303.617188	847.867920
1302.478516	825.763000
1301.339844	819.036194
1300.201172	838.656799
1299.062500	820.954712
1297.923828	838.373657
1296.783203	822.871826
1295.644531	838.090576
1294.503906	848.916992
1293.365234	894.831116
1292.224609	868.365906
1291.083984	793.675171
1289.943359	797.925354
1288.802734	852.583923
1287.662109	802.038574
1286.521484	843.531982
1285.380859	823.673889
1284.238281	792.871216
1283.097656	816.825989
1281.955078	799.171936
1280.814453	818.739197
1279.671875	787.958069
1278.529297	805.332153
1277.386719	765.811523
1276.244141	879.440613
1275.101563	857.419067
1273.957031	863.834961
1272.814453	830.890686
1271.669922	782.654175
1270.527344	789.079407
1269.382813	810.800476
1268.238281	801.923157
1267.093750	803.972351
1265.949219	768.887024
1264.804688	805.884521
1263.660156	810.115540
1262.515625	783.779785
1261.369141	888.424683
1260.224609	763.872375
1259.078125	870.667297
1257.933594	811.612732
1256.787109	850.740479
1255.640625	828.786438
1254.494141	928.956116
1253.347656	835.046997
1252.201172	813.106689
1251.052734	873.996399
1249.906250	858.594360
1248.759766	878.058411
1247.611328	806.021484
1246.462891	884.295593
1245.316406	851.480530
1244.167969	910.124451
1243.019531	851.192505
1241.871094	851.048523
1240.720703	887.900391
1239.572266	946.498352
1238.423828	902.828430
1237.273438	924.426880
1236.125000	850.328857
1234.974609	876.277588
1233.824219	908.739563
1232.673828	858.591858
1231.525391	906.258789
1230.373047	853.955444
1229.222656	855.983459
1228.072266	912.315247
1226.921875	820.944763
1225.769531	818.634399
1224.619141	846.719788
1223.466797	909.527039
1222.314453	872.477295
1221.162109	874.499573
1220.009766	909.065186
1218.857422	913.249817
1217.705078	923.939514
1216.552734	906.435059
1215.398438	966.989441
1214.246094	938.644653
1213.091797	901.639893
1211.939453	931.825684
1210.785156	925.167908
1209.630859	920.678589
1208.476563	937.850159
1207.322266	896.545532
1206.167969	931.036865
1205.013672	915.725342
1203.857422	948.037292
1202.703125	945.712585
1201.546875	956.371033
1200.392578	947.555542
1199.236328	1046.893066
1198.080078	1014.276245
1196.923828	994.643921
1195.767578	916.646912
1194.611328	946.753113
1193.453125	1009.266602
1192.296875	931.306641
1191.140625	995.961975
1189.982422	1045.474854
1188.824219	963.228821
1187.667969	1036.483154
1186.509766	988.809998
1185.351563	1072.828125
1184.193359	1055.380371
1183.033203	1009.886047
1181.875000	1057.180054
1180.716797	1041.900879
1179.556641	1013.686035
1178.398438	1071.737305
1177.238281	1075.867798
1176.078125	1138.200073
1174.917969	1138.007080
1173.757813	1103.334961
1172.597656	1157.012451
1171.437500	1122.348755
1170.277344	1137.235352
1169.117188	1218.875122
1167.955078	1199.290283
1166.792969	1166.795410
1165.632813	1233.321777
1164.470703	1147.031372
1163.308594	1207.083374
1162.146484	1193.970825
1160.984375	1269.051025
1159.822266	1247.330078
1158.660156	1212.715088
1157.496094	1285.603882
1156.333984	1291.834229
1155.169922	1276.571289
1154.005859	1272.057129
1152.843750	1271.841309
1151.679688	1297.401611
1150.515625	1256.376099
1149.351563	1367.821777
1148.185547	1309.622681
1147.021484	1337.305664
1145.857422	1364.979248
1144.691406	1328.268433
1143.527344	1396.697876
1142.361328	1355.703857
1141.195313	1494.881592
1140.029297	1445.307251
1138.863281	1400.037598
1137.697266	1436.241943
1136.531250	1393.132446
1135.363281	1422.896729
1134.197266	1482.646606
1133.029297	1493.105713
1131.863281	1576.383301
1130.695313	1529.003540
1129.527344	1513.756104
1128.359375	1511.358276
1127.191406	1556.049316
1126.023438	1613.565308
1124.855469	1559.800049
1123.687500	1574.510132
1122.517578	1591.354004
1121.349609	1727.951050
1120.179688	1669.926270
1119.009766	1759.431274
1117.839844	1705.695801
1116.671875	1737.462524
1115.500000	1799.132690
1114.330078	1805.236084
1113.160156	1768.617065
1111.990234	1954.117920
1110.818359	1793.639404
1109.648438	1953.453735
1108.476563	1925.372437
1107.304688	1950.655518
1106.132813	1899.111938
1104.962891	2033.197876
1103.789063	1951.794067
1102.617188	2111.418213
1101.445313	2100.397461
1100.273438	2181.057129
1099.099609	2099.683350
1097.927734	2161.133789
1096.753906	2192.730469
1095.580078	2256.274658
1094.406250	2296.364990
1093.232422	2306.623535
1092.058594	2425.482422
1090.884766	2378.229248
1089.710938	2403.369873
1088.535156	2558.334229
1087.361328	2525.978516
1086.185547	2517.038086
1085.011719	2544.265137
1083.835938	2599.133057
1082.660156	2602.944092
1081.484375	2708.812500
1080.308594	2640.323975
1079.132813	2756.777344
1077.955078	2711.680420
1076.779297	2874.827148
1075.601563	2872.213379
1074.425781	2846.236084
1073.248047	2854.246338
1072.070313	2919.583984
1070.892578	2948.808838
1069.714844	2933.448486
1068.537109	2901.115479
1067.359375	2985.497314
1066.179688	3010.447510
1065.001953	3020.540771
1063.822266	3092.134033
1062.644531	3097.968994
1061.464844	3137.723145
1060.285156	3060.878906
1059.105469	3081.551270
1057.925781	3170.024658
1056.746094	3146.179932
1055.566406	3033.375244
1054.384766	3121.811279
1053.205078	3186.924072
1052.023438	3057.232178
1050.843750	3262.044678
1049.662109	3174.713623
1048.480469	3169.940674
1047.298828	3144.011719
1046.117188	3228.091797
1044.935547	3236.002197
1043.751953	3146.634521
1042.570313	3167.241699
1041.388672	3126.536865
1040.205078	3204.207031
1039.021484	3100.112793
1037.837891	3175.647949
1036.656250	3153.981689
1035.472656	3140.771240
1034.287109	3098.000244
1033.103516	3158.703857
1031.919922	3122.277344
1030.734375	3130.187988
1029.550781	3207.737549
1028.365234	3156.551025
1027.179688	3143.354980
1025.996094	3087.978027
1024.810547	3091.669434
1023.625000	3086.925293
1022.439453	3101.156494
1021.251953	3125.921875
1020.066406	2920.963623
1018.878906	3006.857178
1017.693359	3012.664795
1016.505859	3081.662354
1015.318359	2954.774414
1014.132813	3044.814697
1012.945313	2941.134766
1011.755859	2902.743896
1010.568359	2902.248779
1009.380859	2849.147461
1008.193359	2833.934326
1007.003906	2814.519287
1005.814453	2820.348633
1004.626953	2868.232178
1003.437500	2705.854004
1002.248047	2793.680176
1001.058594	2803.712158
999.869141	2790.625732
998.679688	2790.149414
997.488281	2779.170166
996.298828	2721.987793
995.107422	2740.422607
993.917969	2765.149902
992.726563	2628.228516
991.535156	2610.989014
990.343750	2663.006104
989.152344	2673.042236
987.960938	2563.500732
986.769531	2539.991455
985.576172	2619.246826
984.384766	2539.124268
983.191406	2622.545166
982.000000	2511.009277
980.806641	2575.545654
979.613281	2464.055664
978.419922	2509.723389
977.226563	2450.646729
976.033203	2510.960449
974.837891	2416.308105
973.644531	2397.053955
972.449219	2402.924072
971.255859	2412.977539
970.060547	2425.119873
968.865234	2416.337402
967.669922	2336.439697
966.474609	2442.699463
965.279297	2350.278564
964.083984	2395.870850
962.886719	2422.635254
961.691406	2323.994873
960.494141	2361.209961
959.298828	2319.022461
958.101563	2331.159180
956.904297	2343.291748
955.707031	2315.745605
954.509766	2332.052002
953.312500	2175.096680
952.113281	2276.991211
950.916016	2312.076172
949.716797	2301.249023
948.519531	2294.597656
947.320313	2227.464844
946.121094	2258.363281
944.921875	2249.637695
943.722656	2213.815186
942.523438	2111.310303
941.324219	2183.884277
940.125000	2225.180908
938.923828	2197.719482
937.724609	2243.165039
936.523438	2086.598877
935.322266	2252.808105
934.121094	2200.379883
932.919922	2079.284424
931.718750	2162.168945
930.517578	2120.186035
929.316406	2086.538818
928.113281	2136.100342
926.912109	2144.053223
925.708984	2122.894287
924.505859	2074.716797
923.304688	2009.927734
922.101563	2046.990845
920.898438	2052.874023
919.695313	2062.909912
918.490234	2056.325684
917.287109	2053.896973
916.083984	1943.497070
914.878906	2057.346191
913.673828	1971.891235
912.470703	2010.984863
911.265625	1948.391724
910.060547	1972.953491
908.855469	1958.095947
907.648438	1849.917969
906.443359	1976.087402
905.238281	1882.455566
904.031250	1940.172607
902.826172	1964.710205
901.619141	1933.291870
900.412109	1984.755127
899.205078	1918.129883
897.998047	1882.593384
896.791016	1934.038696
895.583984	1861.245117
894.375000	1827.806396
893.167969	1933.045044
891.958984	1889.258911
890.751953	1837.211914
889.542969	1812.074341
888.333984	1867.605957
887.125000	1846.607300
885.916016	1835.953247
884.707031	1779.825439
883.496094	1841.524658
882.287109	1897.003296
881.076172	1818.166504
879.867188	1904.616211
878.656250	1817.543335
877.445313	1839.947266
876.234375	1732.268433
875.023438	1789.772705
873.812500	1890.600708
872.601563	1789.159180
871.388672	1795.042358
870.177734	1730.784302
868.964844	1862.491333
867.753906	1822.990112
866.541016	1878.347656
865.328125	1696.613647
864.115234	1721.056519
862.902344	1679.545532
861.687500	1730.768433
860.474609	1757.252808
859.261719	1771.369507
858.046875	1874.034668
856.832031	1772.821045
855.619141	1776.634277
854.404297	1712.521606
853.189453	1706.053955
851.974609	1707.818970
850.759766	1666.380737
849.542969	1668.151733
848.328125	1725.449097
847.111328	1714.872070
845.896484	1665.237427
844.679688	1697.839600
843.462891	1691.382813
842.246094	1608.901001
841.029297	1627.114868
839.812500	1667.917358
838.595703	1673.792236
837.378906	1652.971191
836.160156	1625.998047
834.941406	1547.717285
833.724609	1604.916626
832.505859	1645.680542
831.287109	1596.159180
830.068359	1608.192749
828.849609	1575.102051
827.630859	1634.297974
826.410156	1636.067505
825.191406	1596.839233
823.970703	1643.703735
822.751953	1594.241699
821.531250	1608.309570
820.310547	1589.597290
819.089844	1624.141968
817.869141	1603.385498
816.648438	1680.911133
815.427734	1594.646606
814.205078	1565.718994
812.984375	1702.554810
811.761719	1694.078369
810.539063	1671.285278
809.318359	1660.771729
808.095703	1672.755981
806.873047	1633.621460
805.648438	1647.650391
804.425781	1692.332642
803.203125	1665.475952
801.978516	1673.362427
800.755859	1605.661499
799.531250	1662.574829
798.306641	1652.078491
797.082031	1698.755249
795.857422	1698.463257
794.632813	1675.719482
793.408203	1685.635010
792.183594	1687.385620
790.957031	1746.256104
789.732422	1709.241821
788.505859	1814.992432
787.279297	1782.056885
786.052734	1690.012695
784.826172	1685.645508
783.599609	1715.924438
782.373047	1813.432373
781.146484	1766.264526
779.917969	1774.108276
778.691406	1773.803101
777.462891	1852.908325
776.234375	1756.906372
775.007813	1744.391357
773.779297	1764.442383
772.550781	1774.312622
771.320313	1824.867676
770.091797	1767.599976
768.863281	1744.924927
767.632813	1773.091797
766.404297	1801.248779
765.173828	1811.102173
763.943359	1816.887451
762.712891	1836.894409
761.482422	1814.230469
760.251953	1911.418823
759.021484	1813.605957
757.789063	1805.171509
756.558594	1865.767212
755.326172	1843.117432
754.095703	1889.479004
752.863281	1826.249512
751.630859	1872.597900
750.398438	1851.990845
749.166016	1955.105957
747.933594	1944.630371
746.699219	1873.335815
745.466797	1864.904907
744.232422	1998.347412
742.998047	2056.768066
741.765625	2019.945313
740.531250	2005.417725
739.296875	2025.325562
738.062500	2075.601074
736.826172	2016.529297
735.591797	2072.861572
734.357422	2052.265137
733.121094	2092.383301
731.886719	2019.186401
730.650391	2095.708008
729.414063	2121.639893
728.177734	2078.808350
726.941406	2098.668457
725.705078	2134.693604
724.466797	2079.754883
723.230469	2172.353027
721.992188	2159.855713
720.755859	2284.729492
719.517578	2217.684082
718.279297	2176.913574
717.041016	2229.033691
715.802734	2224.612061
714.564453	2294.870850
713.326172	2318.691406
712.085938	2350.574219
710.847656	2352.186035
709.607422	2307.407227
708.367188	2415.906738
707.128906	2355.001953
705.888672	2411.041504
704.648438	2364.267578
703.406250	2388.042480
702.166016	2323.154541
700.925781	2500.032471
699.683594	2485.501709
698.443359	2442.782471
697.201172	2444.374512
695.958984	2490.255127
694.716797	2441.518311
693.474609	2491.408203
692.232422	2539.268555
690.990234	2560.959717
689.746094	2556.495117
688.503906	2618.396484
687.259766	2561.644775
686.017578	2609.451416
684.773438	2639.151123
683.529297	2707.024414
682.285156	2676.417236
681.041016	2627.739990
679.794922	2687.545166
678.550781	2763.395752
677.306641	2642.442627
676.060547	2798.578369
674.814453	2759.957520
673.570313	2709.308594
672.324219	2899.462891
671.078125	2774.577637
669.830078	2806.192139
668.583984	2875.900146
667.337891	2815.248779
666.089844	2894.955078
664.843750	2946.571289
663.595703	2938.045654
662.347656	2915.496582
661.099609	3003.144043
659.851563	2990.606689
658.603516	3014.122803
657.355469	3045.640381
656.107422	2963.030273
654.857422	3064.604980
653.609375	3068.078125
652.359375	3043.535889
651.109375	2996.994629
649.859375	2970.472412
648.609375	3025.958252
647.359375	3091.422852
646.109375	3114.879883
644.859375	3064.368164
643.607422	2955.914551
642.357422	3049.321045
641.105469	3052.789551
639.853516	3068.242188
638.601563	3157.586182
637.349609	2987.306885
636.097656	3196.424561
634.845703	3126.005859
633.593750	3009.707275
632.339844	3128.915771
631.087891	3194.214111
629.833984	3058.015869
628.580078	3057.486816
627.326172	3039.010986
626.072266	3110.260742
624.818359	3057.893799
623.564453	3145.059814
622.310547	3198.319336
621.054688	3185.811768
619.800781	3177.292236
618.544922	3190.684326
617.289063	3220.002441
616.033203	3247.319092
614.777344	3179.074951
613.521484	3148.670166
612.265625	3195.884521
611.009766	3300.781250
609.751953	3278.327881
608.496094	3279.749268
607.238281	3141.968994
605.980469	3298.496338
604.722656	3289.973633
603.464844	3345.055664
602.207031	3300.757813
600.949219	3391.582275
599.689453	3422.779297
598.431641	3380.477051
597.171875	3356.061523
595.914063	3373.349854
594.654297	3511.725830
593.394531	3485.315186
592.134766	3526.385254
590.875000	3591.250244
589.615234	3463.666748
588.353516	3520.586182
587.093750	3500.145508
585.832031	3606.607178
584.572266	3582.193604
583.310547	3625.178223
582.048828	3721.653809
580.787109	3588.257324
579.525391	3682.724854
578.263672	3634.550293
577.000000	3734.917725
575.738281	3706.550537
574.474609	3701.948730
573.210938	3620.155518
571.949219	3811.487793
570.685547	3727.724854
569.421875	3780.492188
568.158203	3702.697266
566.892578	3769.293701
565.628906	3683.618408
564.365234	3839.155518
563.099609	3721.872314
561.833984	3748.894043
560.568359	3827.279297
559.302734	3846.370850
558.037109	3752.869873
556.771484	3862.810547
555.505859	3864.115234
554.240234	3987.817383
552.972656	3894.355957
551.707031	3787.112549
550.439453	4013.366699
549.171875	4014.643311
547.904297	4002.112061
546.636719	4078.330078
545.369141	3959.316162
544.101563	4084.800781
542.832031	4115.629395
541.564453	4073.529541
540.294922	4252.129395
539.025391	4176.528809
537.757813	4262.471680
536.488281	4265.670898
535.218750	4302.341797
533.947266	4364.593262
532.677734	4454.379883
531.408203	4367.014160
530.136719	4448.898438
528.867188	4528.786133
527.595703	4488.660156
526.324219	4584.246582
525.052734	4638.506836
523.781250	4635.735352
522.509766	4648.689941
521.236328	4712.736816
519.964844	4802.305176
518.691406	4880.055176
517.419922	4906.707031
516.146484	4909.782715
514.873047	4920.711426
513.599609	5000.349121
512.326172	5013.220703
511.052734	5112.439453
509.777344	5144.909180
508.503906	5151.862305
507.230469	5158.813477
505.955078	5055.935547
504.679688	5202.120117
503.404297	5307.083496
502.128906	5217.953613
500.853516	5285.640625
499.578125	5376.817871
498.300781	5405.270508
497.025391	5359.278320
495.748047	5254.548340
494.472656	5361.331543
493.195313	5360.399414
491.917969	5369.254883
490.640625	5448.562500
489.363281	5339.993164
488.085938	5247.113281
486.806641	5355.741211
485.529297	5391.968750
484.250000	5320.636719
482.970703	5306.026367
481.693359	5277.737305
480.414063	5202.553223
479.134766	5232.912598
477.853516	5362.900391
476.574219	5209.605469
475.294922	5212.605469
474.013672	5170.692383
472.734375	5083.889648
471.453125	5190.365234
470.171875	5212.881836
468.890625	5040.258789
467.609375	5074.499512
466.328125	5003.393066
465.044922	5000.572266
463.763672	5069.900391
462.482422	4938.393555
461.199219	5048.643066
459.916016	4868.461426
458.632813	5007.913574
457.349609	4888.197754
456.066406	4900.981934
454.783203	4898.181152
453.500000	4716.234375
452.214844	4764.085938
450.931641	4778.829102
449.646484	4925.910645
448.361328	4767.435547
447.076172	4858.046387
445.791016	4713.254395
444.505859	4852.464355
443.220703	4725.224609
441.933594	4747.731934
440.648438	4723.578613
439.361328	4748.021484
438.076172	4737.478516
436.789063	4759.967285
435.501953	4747.482910
434.214844	4659.258301
432.927734	4691.457520
431.638672	4546.969727
430.351563	4796.585938
429.062500	4753.052246
427.775391	4746.402344
426.486328	4636.927734
425.197266	4682.674805
423.908203	4631.432617
422.619141	4510.399414
421.330078	4649.206055
420.041016	4572.795898
418.750000	4655.337402
417.460938	4633.210449
416.169922	4609.153320
414.878906	4511.495117
413.587891	4526.202637
412.296875	4490.557617
411.005859	4542.048828
409.714844	4630.300781
408.421875	4542.399902
407.130859	4559.023438
405.837891	4558.228516
404.546875	4555.499023
403.253906	4506.352539
401.960938	4536.506348
400.667969	4520.247559
399.375000	4532.990234
398.080078	4454.891113
396.787109	4371.021973
395.492188	4466.861328
394.199219	4326.999512
392.904297	4461.439453
391.609375	4468.385254
390.314453	4423.199707
389.019531	4505.432617
387.724609	4427.445801
386.429688	4494.211426
385.132813	4431.688477
383.837891	4454.062500
382.541016	4397.354004
381.244141	4381.159668
379.947266	4266.643066
378.650391	4229.272949
377.353516	4371.155762
376.056641	4301.021484
374.759766	4381.189453
373.460938	4372.719238
372.162109	4344.991699
370.865234	4378.894531
369.566406	4358.876465
368.267578	4361.965332
366.968750	4386.223633
365.669922	4360.441406
364.369141	4398.158691
363.070313	4378.154297
361.769531	4321.614258
360.470703	4551.612793
359.169922	4398.931152
357.869141	4402.007324
356.568359	4407.003906
355.267578	4440.822266
353.966797	4468.865234
352.664063	4385.484375
351.363281	4352.067871
350.060547	4483.804688
348.759766	4431.183105
347.457031	4436.167480
346.154297	4433.472656
344.851563	4394.319336
343.548828	4403.144043
342.246094	4406.210449
340.941406	4424.619141
339.638672	4375.906250
338.333984	4401.982422
337.029297	4314.952148
335.724609	4477.105957
334.419922	4462.909180
333.115234	4395.072266
331.810547	4421.121094
330.505859	4452.906738
329.199219	4297.021484
327.894531	4416.887207
326.587891	4341.459473
325.281250	4472.758301
323.974609	4301.669434
322.667969	4266.479004
321.361328	4361.376465
320.054688	4230.560059
318.748047	4304.395996
317.439453	4284.523926
316.130859	4140.408203
314.824219	4262.000977
313.515625	4182.909180
312.207031	4312.093750
310.898438	4280.775879
309.589844	4259.018066
308.279297	4288.824707
306.970703	4257.526855
305.660156	4218.604004
304.351563	4214.048340
303.041016	4243.841797
301.730469	4229.743164
300.419922	4290.043945
299.109375	4207.282715
297.798828	4223.708008
296.486328	4118.108887
295.175781	4292.757813
293.863281	4312.970215
292.550781	4270.293457
291.238281	4242.872559
289.927734	4234.509766
288.613281	4184.250000
287.300781	4316.810547
285.988281	4257.034668
284.673828	4248.674805
283.361328	4257.446289
282.046875	4228.157227
280.732422	4181.755371
279.419922	4232.381836
278.105469	4347.653320
276.789063	4284.141113
275.474609	4279.587891
274.160156	4282.639160
272.843750	4281.888672
271.529297	4210.830566
270.212891	4246.189941
268.896484	4215.052734
267.580078	4246.600098
266.263672	4253.451172
264.947266	4226.125977
263.628906	4253.857910
262.312500	4272.090332
260.994141	4222.005371
259.677734	4361.657227
258.359375	4296.398926
257.041016	4333.576172
255.722656	4256.967773
254.404297	4313.097168
253.085938	4185.339844
251.765625	4436.667480
250.447266	4371.463379
249.126953	4380.168945
247.806641	4383.188965
246.486328	4276.362793
245.166016	4313.483398
243.845703	4350.590332
242.525391	4412.291504
241.205078	4349.063477
239.882813	4278.288086
238.562500	4377.806641
237.240234	4405.411621
235.917969	4474.613281
234.595703	4332.011230
233.273438	4439.012207
231.951172	4409.879395
230.628906	4342.959473
229.304688	4459.349121
227.982422	4530.356445
226.658203	4410.561035
225.335938	4515.545410
224.011719	4535.522949
222.687500	4413.900879
221.361328	4477.303223
220.037109	4419.899414
218.712891	4473.843262
217.386719	4427.779785
216.062500	4327.031250
214.736328	4443.197266
213.410156	4444.302246
212.083984	4567.947266
210.757813	4410.696777
209.431641	4509.804688
208.105469	4573.076660
206.777344	4515.755371
205.451172	4577.120117
204.123047	4591.381836
202.794922	4534.086914
201.466797	4512.581543
200.138672	4590.843262
198.810547	4580.626465
197.482422	4545.952637
196.154297	4639.216797
194.824219	4578.210938
193.494141	4635.705078
192.166016	4687.537598
190.835938	4534.437500
189.505859	4646.416992
188.175781	4705.737305
186.843750	4830.799805
185.513672	4824.314453
184.183594	4804.682617
182.851563	4837.641113
181.519531	4926.916504
180.187500	4768.355957
178.857422	4808.810547
177.523438	4978.739258
176.191406	4872.789551
174.859375	4916.956055
173.527344	4891.707031
172.193359	4778.326660
170.859375	5002.485352
169.527344	4812.263672
168.193359	4944.494629
166.859375	4917.388184
165.523438	4914.648926
164.189453	4921.277344
162.855469	4909.172852
161.519531	5007.561035
160.185547	4849.401367
158.849609	5039.494141
157.513672	4967.482422
156.177734	4884.267578
154.841797	5106.061035
153.505859	4942.410156
152.167969	5044.410645
150.832031	5006.121094
149.494141	5093.116211
148.158203	5110.913086
146.820313	5085.715332
145.482422	5176.387207
144.144531	5224.053711
142.804688	5253.022461
141.466797	5220.345215
140.128906	5182.077148
138.789063	5382.809570
137.449219	5435.997070
136.111328	5341.717773
134.771484	5391.161133
133.431641	5323.042969
132.091797	5525.437988
130.750000	5556.171387
129.410156	5627.918457
128.068359	5630.655273
126.728516	5571.875000
125.386719	5602.577148
124.044922	5607.179688
122.703125	5628.548828
121.361328	5594.025879
120.019531	5373.266602
118.675781	5636.745117
117.333984	5669.263672
115.990234	5696.186523
114.646484	5715.654785
113.304688	5703.481445
111.960938	5667.125977
110.615234	5671.707031
109.271484	5955.264648
107.927734	5991.404785
106.582031	5850.907715
105.238281	5688.153320
103.892578	5635.110352
102.546875	5853.385742
101.201172	5822.626953
99.855469	5840.174805
98.509766	5980.293945
97.164063	5945.814453
95.816406	5985.609863
94.470703	6149.759766
93.123047	6302.715820
91.775391	6203.256348
90.427734	6283.793457
89.080078	6182.517090
87.732422	6224.082031
86.384766	6191.459961
85.035156	6407.279785
83.687500	6335.710449
82.337891	6421.697266
80.988281	6324.208496
79.638672	6260.101563
78.289063	6353.464355
76.939453	6352.342285
75.589844	6436.396973
74.240234	6514.867676
72.888672	6421.166016
71.539063	6510.715332
70.187500	6361.536621
68.835938	6358.562500
67.484375	6342.641602
66.132813	6397.001953
64.781250	6105.570313
63.427734	6198.776367
62.076172	6275.313965
60.722656	6335.191406
59.369141	6165.926758
58.015625	5858.165527
56.662109	5570.830566
55.308594	5433.185059
53.955078	5374.985352
52.601563	5272.498535
51.246094	5116.520508
