#Wave		#Intensity
4002.039063	1907.834351
4001.340820	1789.713257
4000.642578	1742.900513
3999.943359	1878.594849
3999.245117	1867.559937
3998.545898	1788.562988
3997.846680	1859.806519
3997.147461	1866.659668
3996.448242	1784.125366
3995.749023	1787.413452
3995.049805	1712.066895
3994.350586	1786.839111
3993.650391	1736.528442
3992.951172	1800.554932
3992.250977	1739.542358
3991.550781	1710.691772
3990.850586	1792.545410
3990.150391	1802.968140
3989.450195	1802.678345
3988.750000	1802.388672
3988.048828	1773.551025
3987.348633	1791.105713
3986.647461	1783.683228
3985.947266	1779.829834
3985.246094	1854.434448
3984.544922	1847.005127
3983.843750	1811.057617
3983.141602	1739.476685
3982.440430	1746.325073
3981.739258	1774.551270
3981.037109	1784.954590
3980.334961	1809.603271
3979.633789	1784.381104
3978.931641	1748.483643
3978.229492	1737.521362
3977.527344	1804.880737
3976.824219	1833.065552
3976.122070	1868.358887
3975.419922	1757.754272
3974.716797	1753.914185
3974.013672	1689.605347
3973.311523	1785.359253
3972.608398	1877.526367
3971.905273	1834.560547
3971.201172	1720.512939
3970.498047	1801.983276
3969.794922	1755.496582
3969.090820	1858.253540
3968.387695	1715.855225
3967.683594	1754.650757
3966.979492	1757.920288
3966.275391	1814.450439
3965.571289	1629.547852
3964.867188	1785.470459
3964.163086	1746.143799
3963.458008	1763.605835
3962.753906	1770.418457
3962.048828	1716.923706
3961.343750	1698.913940
3960.638672	1688.002441
3959.933594	1748.007446
3959.228516	1754.816772
3958.523438	1804.158203
3957.817383	1857.027588
3957.112305	1714.994263
3956.406250	1792.660645
3955.701172	1725.070190
3954.995117	1742.501465
3954.289063	1869.701294
3953.583008	1649.888062
3952.876953	1755.821899
3952.169922	1695.370239
3951.463867	1680.942749
3950.757813	1723.131836
3950.050781	1761.769775
3949.343750	1662.447388
3948.636719	1775.350220
3947.929688	1668.985474
3947.222656	1764.173828
3946.515625	1679.054077
3945.808594	1728.264404
3945.100586	1735.054321
3944.393555	1805.438721
3943.685547	1709.769043
3942.977539	1684.770508
3942.269531	1716.282959
3941.561523	1730.130859
3940.853516	1662.777100
3940.145508	1789.581055
3939.436523	1697.535034
3938.728516	1721.962769
3938.019531	1735.798462
3937.311523	1746.102173
3936.602539	1632.960571
3935.893555	1745.541504
3935.184570	1713.529297
3934.474609	1621.598633
3933.765625	1691.831177
3933.056641	1751.468994
3932.346680	1691.287964
3931.636719	1712.154175
3930.927734	1676.655396
3930.217773	1739.779053
3929.507813	1654.989624
3928.797852	1777.947998
3928.086914	1710.780273
3927.376953	1682.349121
3926.666992	1632.813110
3925.956055	1716.993286
3925.245117	1723.753418
3924.534180	1670.717163
3923.823242	1712.649780
3923.112305	1726.439575
3922.401367	1638.272339
3921.690430	1729.400391
3920.979492	1676.405640
3920.267578	1655.053101
3919.555664	1689.920898
3918.844727	1707.213501
3918.132813	1812.306152
3917.420898	1678.572266
3916.708984	1685.324951
3915.996094	1727.180908
3915.284180	1737.433472
3914.572266	1621.344360
3913.859375	1684.243286
3913.146484	1610.299072
3912.433594	1732.810547
3911.720703	1690.446655
3911.007813	1644.589722
3910.294922	1682.891968
3909.582031	1693.138306
3908.869141	1724.410645
3908.155273	1685.586182
3907.441406	1580.202393
3906.728516	1713.070923
3906.014648	1674.266846
3905.300781	1628.470947
3904.586914	1701.741699
3903.872070	1610.443481
3903.158203	1739.699951
3902.444336	1658.924316
3901.729492	1707.648071
3901.014648	1770.350952
3900.300781	1630.140625
3899.585938	1678.845337
3898.871094	1713.546265
3898.155273	1594.391235
3897.440430	1730.475830
3896.725586	1772.142334
3896.009766	1614.592529
3895.294922	1691.206421
3894.579102	1642.023682
3893.863281	1669.705078
3893.147461	1697.377441
3892.431641	1690.121094
3891.715820	1654.935669
3890.999023	1672.124390
3890.283203	1675.346436
3889.566406	1744.872559
3888.850586	1695.743896
3888.133789	1712.914917
3887.416992	1684.735596
3886.700195	1642.615234
3885.983398	1649.325562
3885.265625	1673.465576
3884.548828	1680.168701
3883.831055	1686.869751
3883.114258	1728.415527
3882.396484	1648.002808
3881.678711	1592.000977
3880.960938	1710.168579
3880.243164	1605.420044
3879.525391	1646.945435
3878.806641	1625.793091
3878.088867	1615.089844
3877.370117	1764.480957
3876.652344	1590.213867
3875.933594	1544.730103
3875.214844	1610.575073
3874.496094	1568.580566
3873.777344	1721.336670
3873.057617	1696.722290
3872.338867	1626.923462
3871.619141	1644.041260
3870.900391	1643.777588
3870.180664	1688.684448
3869.460938	1605.035034
3868.741211	1677.722046
3868.021484	1601.047119
3867.301758	1628.569702
3866.581055	1687.330322
3865.861328	1655.817871
3865.140625	1686.789063
3864.420898	1679.578003
3863.700195	1623.794312
3862.979492	1647.817383
3862.258789	1623.273438
3861.538086	1640.352905
3860.816406	1588.078491
3860.095703	1657.161011
3859.374023	1667.294067
3858.653320	1615.040405
3857.931641	1677.154785
3857.209961	1638.774780
3856.488281	1666.224609
3855.766602	1693.665527
3855.044922	1658.764160
3854.322266	1686.197510
3853.600586	1755.164185
3852.877930	1554.126953
3852.156250	1571.181396
3851.433594	1612.451782
3850.710938	1591.435303
3849.988281	1594.639160
3849.264648	1539.046875
3848.541992	1725.530762
3847.819336	1624.988770
3847.095703	1579.788818
3846.372070	1627.923828
3845.649414	1634.574341
3844.925781	1575.573608
3844.202148	1599.503540
3843.478516	1671.782959
3842.753906	1654.247192
3842.030273	1626.357910
3841.305664	1467.285156
3840.582031	1639.643921
3839.857422	1673.894165
3839.132813	1701.231934
3838.408203	1652.656006
3837.683594	1576.498291
3836.958984	1707.311768
3836.234375	1624.272583
3835.508789	1586.083984
3834.783203	1609.961792
3834.058594	1664.854126
3833.333008	1568.089233
3832.607422	1657.428589
3831.881836	1581.367432
3831.156250	1598.337280
3830.430664	1670.407837
3829.704102	1677.027222
3828.978516	1597.568481
3828.251953	1662.719482
3827.525391	1590.172241
3826.798828	1651.862061
3826.072266	1493.319092
3825.345703	1568.765747
3824.619141	1626.989502
3823.892578	1606.093628
3823.165039	1619.590576
3822.437500	1633.083130
3821.710938	1591.571045
3820.983398	1587.878906
3820.255859	1608.242798
3819.528320	1621.728271
3818.800781	1573.373901
3818.072266	1624.643066
3817.344727	1641.553589
3816.616211	1582.918213
3815.888672	1620.428589
3815.160156	1637.331543
3814.431641	1674.821167
3813.703125	1643.669434
3812.974609	1612.527710
3812.245117	1595.117432
3811.516602	1636.019409
3810.788086	1742.064087
3810.058594	1625.208618
3809.329102	1645.517090
3808.599609	1641.825684
3807.870117	1573.021118
3807.140625	1579.621948
3806.411133	1647.887939
3805.681641	1620.220459
3804.951172	1544.613647
3804.221680	1530.668823
3803.491211	1653.678955
3802.760742	1564.410156
3802.030273	1636.035400
3801.299805	1577.597168
3800.569336	1567.079468
3799.837891	1624.985596
3799.107422	1655.509399
3798.375977	1597.105225
3797.645508	1668.656128
3796.914063	1606.849731
3796.182617	1651.029785
3795.451172	1582.410400
3794.719727	1616.328613
3793.988281	1547.736694
3793.255859	1629.474731
3792.524414	1564.318237
3791.791992	1707.497192
3791.059570	1662.835693
3790.327148	1679.638550
3789.594727	1594.035522
3788.862305	1563.064697
3788.129883	1521.867065
3787.397461	1531.858276
3786.664063	1681.703857
3785.931641	1585.937012
3785.198242	1660.704346
3784.464844	1599.066772
3783.731445	1564.720581
3782.998047	1601.962524
3782.264648	1646.008301
3781.531250	1601.448975
3780.796875	1577.344727
3780.063477	1553.248169
3779.329102	1610.896118
3778.594727	1634.473999
3777.860352	1658.044189
3777.125977	1599.909424
3776.391602	1630.284546
3775.657227	1636.829224
3774.921875	1626.359619
3774.187500	1704.342163
3773.452148	1625.838257
3772.716797	1554.161011
3771.981445	1594.714844
3771.246094	1601.258667
3770.510742	1584.006226
3769.775391	1580.353760
3769.040039	1573.304321
3768.303711	1566.257080
3767.568359	1572.799927
3766.832031	1698.215820
3766.095703	1555.316406
3765.359375	1599.206543
3764.623047	1565.002197
3763.886719	1632.636475
3763.149414	1612.012573
3762.413086	1662.651733
3761.675781	1540.250732
3760.939453	1655.334595
3760.202148	1597.413208
3759.464844	1763.315796
3758.727539	1607.072510
3757.990234	1711.901978
3757.251953	1626.893555
3756.514648	1640.188110
3755.776367	1629.760376
3755.039063	1612.560547
3754.300781	1558.107056
3753.562500	1608.657104
3752.824219	1615.171509
3752.085938	1675.852661
3751.346680	1739.899414
3750.608398	1658.393188
3749.870117	1553.225464
3749.130859	1644.328125
3748.391602	1681.275879
3747.652344	1667.477295
3746.913086	1636.774170
3746.173828	1653.417969
3745.434570	1626.107544
3744.695313	1673.168823
3743.955078	1564.753540
3743.214844	1686.148804
3742.475586	1689.257080
3741.735352	1655.206665
3740.995117	1661.696289
3740.254883	1651.299316
3739.514648	1681.421753
3738.773438	1627.139404
3738.033203	1704.509766
3737.291992	1602.994873
3736.551758	1734.331177
3735.810547	1646.338501
3735.069336	1608.970581
3734.328125	1635.693237
3733.586914	1561.246582
3732.844727	1614.940063
3732.103516	1709.067749
3731.361328	1675.089844
3730.620117	1711.889893
3729.877930	1704.876831
3729.135742	1593.433838
3728.393555	1626.860962
3727.651367	1646.806396
3726.908203	1562.363525
3726.166016	1767.477173
3725.422852	1699.872192
3724.680664	1632.288940
3723.937500	1675.772461
3723.194336	1662.046021
3722.451172	1688.691162
3721.708008	1745.598145
3720.964844	1725.141357
3720.220703	1751.763306
3719.477539	1754.844360
3718.733398	1791.536743
3717.989258	1801.331787
3717.246094	1740.560303
3716.501953	1760.439087
3715.756836	1723.207153
3715.012695	1709.496826
3714.268555	1736.086914
3713.523438	1846.605103
3712.779297	1792.598389
3712.034180	1792.311157
3711.289063	1845.717529
3710.543945	1835.355835
3709.798828	1710.935059
3709.053711	1797.871094
3708.308594	1733.862793
3707.562500	1757.057007
3706.817383	1763.480835
3706.071289	1776.606567
3705.325195	1813.188965
3704.579102	1839.706543
3703.833008	1815.958374
3703.086914	1879.316284
3702.339844	1711.545044
3701.593750	1835.178833
3700.846680	1868.368042
3700.100586	1878.112061
3699.353516	1867.769409
3698.606445	1834.002930
3697.859375	1766.785400
3697.112305	1860.180420
3696.365234	1889.988403
3695.617188	1919.786743
3694.870117	1926.167236
3694.122070	1972.667725
3693.374023	1958.979736
3692.625977	1945.296143
3691.877930	1901.539795
3691.129883	1861.138794
3690.381836	1870.863037
3689.632813	2034.237549
3688.884766	2003.853760
3688.135742	2053.621094
3687.386719	1949.792725
3686.638672	2032.934082
3685.889648	2022.595581
3685.139648	1955.529907
3684.390625	2025.284058
3683.641602	2121.703857
3682.891602	2051.318848
3682.142578	2114.354248
3681.392578	2110.680908
3680.642578	2090.339600
3679.892578	2083.338135
3679.142578	2129.663574
3678.392578	2095.999512
3677.641602	2202.279297
3676.891602	2145.296143
3676.140625	2031.709595
3675.389648	2261.163574
3674.639648	2247.482910
3673.888672	2230.477295
3673.136719	2306.676514
3672.385742	2296.322754
3671.634766	2259.352783
3670.882813	2308.894775
3670.131836	2258.628906
3669.379883	2294.851563
3668.627930	2327.737305
3667.875977	2450.382080
3667.124023	2366.882813
3666.372070	2409.712158
3665.620117	2336.215576
3664.867188	2475.393555
3664.115234	2428.487061
3663.362305	2404.846680
3662.609375	2457.598633
3661.856445	2500.372070
3661.103516	2559.731689
3660.350586	2569.280029
3659.596680	2711.583252
3658.843750	2568.456787
3658.089844	2624.449463
3657.336914	2816.435791
3656.583008	2666.727295
3655.829102	2706.095703
3655.075195	2722.240967
3654.321289	2764.902832
3653.566406	2807.551025
3652.812500	2889.955322
3652.057617	2839.787842
3651.303711	2882.403320
3650.548828	2832.252686
3649.793945	2891.415771
3649.039063	3066.462891
3648.284180	3019.617920
3647.528320	2946.304199
3646.773438	3008.720703
3646.017578	3028.094971
3645.262695	3163.273193
3644.506836	3126.374756
3643.750977	3192.030029
3642.995117	3227.898682
3642.239258	3263.755615
3641.482422	3223.558350
3640.726563	3256.098633
3639.969727	3404.308838
3639.213867	3364.108154
3638.457031	3363.569092
3637.700195	3422.494385
3636.943359	3435.158203
3636.186523	3513.868164
3635.429688	3486.889404
3634.671875	3605.182861
3633.915039	3469.267578
3633.157227	3610.628662
3632.399414	3732.145264
3631.641602	3635.866455
3630.883789	3691.363770
3630.125977	3654.491455
3629.368164	3789.113525
3628.609375	3679.698242
3627.851563	3715.372314
3627.092773	3971.877930
3626.333984	3822.937988
3625.575195	3795.964844
3624.816406	3864.542725
3624.057617	4002.273926
3623.298828	3935.762207
3622.540039	3823.169922
3621.780273	4026.690430
3621.020508	3960.206543
3620.261719	4117.560059
3619.501953	3955.646973
3618.742188	4080.046875
3617.982422	4069.523682
3617.221680	4233.336914
3616.461914	4143.861816
3615.701172	4208.962891
3614.941406	4260.892578
3614.180664	4108.998535
3613.419922	4164.213867
3612.659180	4216.125000
3611.898438	4356.730957
3611.137695	4277.190918
3610.375977	4358.620117
3609.615234	4311.945313
3608.853516	4294.836914
3608.091797	4386.072266
3607.330078	4208.116699
3606.568359	4342.001953
3605.806641	4367.557617
3605.044922	4379.981445
3604.282227	4389.121094
3603.520508	4522.891113
3602.757813	4522.166504
3601.995117	4387.011719
3601.233398	4389.587402
3600.470703	4418.383789
3599.707031	4538.932617
3598.944336	4508.715332
3598.181641	4491.612305
3597.417969	4546.578125
3596.655273	4696.504883
3595.891602	4653.183105
3595.127930	4606.600586
3594.364258	4533.844727
3593.600586	4657.493164
3592.835938	4624.021973
3592.072266	4727.983887
3591.307617	4566.926270
3590.543945	4667.592773
3589.779297	4719.171387
3589.014648	4662.827637
3588.250000	4599.962891
3587.485352	4684.215332
3586.720703	4752.099121
3585.955078	4699.053711
3585.190430	4717.904297
3584.424805	4779.216309
3583.659180	4830.709473
3582.893555	4722.168457
3582.127930	4835.692383
3581.362305	4606.393555
3580.596680	4719.899414
3579.830078	4771.360352
3579.064453	4809.752930
3578.297852	4746.994141
3577.531250	4831.045898
3576.764648	4817.226074
3575.998047	4819.715332
3575.231445	4805.901367
3574.464844	4906.188965
3573.698242	4814.139648
3572.930664	4699.307617
3572.163086	4841.922852
3571.396484	5026.843750
3570.628906	4960.892090
3569.861328	4722.351563
3569.092773	5034.196777
3568.325195	5020.367676
3567.557617	4951.203125
3566.789063	5132.673828
3566.020508	4933.346191
3565.252930	5137.536621
3564.484375	5006.587891
3563.715820	4953.743652
3562.946289	4858.639160
3562.177734	5020.439941
3561.409180	4964.367676
3560.639648	4940.818359
3559.870117	4949.776855
3559.101563	5095.211426
3558.332031	5042.411621
3557.562500	4892.174805
3556.791992	5018.060059
3556.022461	4949.060547
3555.252930	5097.625000
3554.482422	5083.822754
3553.711914	5024.583008
3552.942383	4936.153809
3552.171875	4980.790527
3551.401367	4954.038086
3550.629883	4917.562988
3549.859375	4975.153809
3549.088867	4980.842285
3548.317383	5009.224121
3547.545898	4985.729492
3546.774414	5059.478027
3546.002930	4922.559570
3545.231445	5099.978516
3544.459961	5118.599121
3543.688477	5040.041016
3542.916016	5006.847656
3542.144531	5064.330566
3541.372070	5034.381348
3540.599609	4946.174805
3539.827148	4909.780762
3539.054688	5064.321777
3538.282227	5079.687988
3537.509766	5023.879883
3536.736328	5110.404785
3535.962891	5125.755371
3535.190430	5060.266113
3534.416992	4985.099121
3533.643555	4987.532715
3532.870117	5054.602539
3532.095703	5005.322754
3531.322266	5056.213867
3530.548828	5090.937012
3529.774414	5125.648926
3529.000000	4995.657227
3528.225586	4985.170898
3527.451172	5013.425781
3526.676758	5167.552734
3525.902344	4986.001953
3525.127930	5133.629883
3524.352539	5048.927734
3523.577148	4964.251953
3522.802734	5131.163086
3522.027344	4972.335449
3521.251953	5113.398438
3520.476563	4941.729980
3519.700195	4905.484863
3518.924805	5007.819824
3518.148438	4932.911133
3517.373047	4912.791504
3516.596680	4908.783691
3515.820313	4975.626953
3515.043945	4778.412598
3514.267578	4925.741211
3513.490234	4883.105957
3512.713867	4937.036133
3511.937500	5110.011230
3511.160156	4809.976563
3510.382813	4921.796387
3509.605469	4991.767090
3508.828125	4971.672363
3508.050781	4916.215332
3507.273438	4941.145996
3506.495117	4782.854492
3505.716797	4904.211426
3504.939453	4935.558105
3504.161133	4954.043457
3503.382813	4815.124023
3502.604492	4852.893066
3501.826172	4874.594238
3501.046875	4905.919922
3500.268555	4670.791504
3499.489258	4888.299316
3498.710938	4669.294922
3497.931641	4793.683105
3497.152344	4792.915039
3496.373047	4840.260742
3495.592773	4865.142090
3494.813477	4790.611328
3494.034180	4895.643555
3493.253906	4827.542480
3492.473633	4881.254395
3491.693359	4675.383789
3490.913086	4815.610352
3490.132813	4917.350098
3489.352539	4842.894043
3488.572266	4755.651367
3487.791016	4793.312988
3487.009766	4824.559082
3486.229492	4807.781250
3485.448242	4723.800293
3484.666992	4652.645996
3483.885742	4728.685547
3483.103516	4699.137695
3482.322266	4803.930664
3481.540039	4656.060059
3480.758789	4620.143066
3479.976563	4875.148438
3479.194336	4730.533203
3478.412109	4844.823730
3477.629883	4716.236328
3476.846680	4689.922363
3476.064453	4577.371582
3475.281250	4634.125488
3474.499023	4611.030273
3473.715820	4540.051758
3472.932617	4612.745117
3472.149414	4596.047363
3471.366211	4454.898438
3470.582031	4533.951660
3469.798828	4536.415039
3469.014648	4580.343262
3468.231445	4605.122559
3467.447266	4578.875488
3466.663086	4632.339844
3465.878906	4481.779785
3465.093750	4662.726074
3464.309570	4445.291016
3463.524414	4613.440430
3462.740234	4539.433105
3461.955078	4455.894043
3461.169922	4678.098633
3460.384766	4546.803223
3459.599609	4476.037109
3458.814453	4453.038574
3458.028320	4420.500000
3457.243164	4372.061523
3456.457031	4409.538574
3455.670898	4628.319336
3454.885742	4436.749512
3454.098633	4445.578613
3453.312500	4441.686523
3452.526367	4399.648438
3451.740234	4427.549316
3450.953125	4569.845703
3450.166016	4496.033203
3449.379883	4488.958984
3448.592773	4304.008789
3447.804688	4465.289063
3447.017578	4267.700195
3446.230469	4352.737305
3445.442383	4456.793457
3444.655273	4329.125488
3443.867188	4201.498047
3443.079102	4349.947754
3442.291016	4358.767578
3441.502930	4212.165527
3440.714844	4297.115723
3439.926758	4223.498535
3439.137695	4219.651367
3438.348633	4209.465820
3437.560547	4199.283203
3436.771484	4268.322754
3435.982422	4229.619629
3435.193359	4257.451660
3434.403320	4266.270996
3433.614258	4186.418945
3432.824219	4245.906250
3432.035156	4166.082520
3431.245117	4238.214844
3430.455078	4281.841309
3429.665039	4065.989746
3428.875000	4169.739746
3428.084961	4093.155029
3427.293945	4083.010986
3426.503906	4139.275391
3425.712891	4091.187012
3424.921875	4036.791748
3424.130859	4023.502197
3423.339844	4155.583008
3422.548828	4139.118652
3421.756836	4053.158936
3420.965820	4055.667725
3420.173828	4067.650146
3419.382813	3975.427490
3418.590820	3981.104492
3417.798828	4103.573730
3417.006836	4137.632813
3416.213867	3976.034668
3415.421875	4066.894531
3414.628906	3886.432129
3413.836914	4015.125732
3413.043945	3863.111328
3412.250977	3957.083740
3411.458008	3909.161133
3410.665039	4012.552002
3409.872070	3860.634766
3409.078125	3828.505615
3408.285156	3938.160400
3407.491211	3912.328857
3406.697266	3820.365723
3405.903320	3860.690430
3405.109375	3954.526855
3404.315430	3799.640625
3403.520508	3880.866455
3402.726563	3968.360352
3401.931641	3967.724121
3401.137695	3897.876221
3400.342773	3755.704834
3399.547852	3865.177002
3398.752930	3807.956787
3397.957031	3860.793701
3397.162109	3674.710449
3396.366211	3724.408691
3395.571289	3783.518311
3394.775391	3801.763428
3393.979492	3735.183350
3393.183594	3750.289307
3392.387695	3774.811523
3391.591797	3654.888672
3390.794922	3638.605713
3389.999023	3785.552002
3389.202148	3656.269531
3388.405273	3674.510986
3387.608398	3702.158691
3386.811523	3676.469727
3386.014648	3713.517334
3385.216797	3678.426758
3384.419922	3687.243408
3383.622070	3514.232178
3382.825195	3598.297607
3382.027344	3610.256348
3381.229492	3581.476807
3380.431641	3721.883057
3379.632813	3542.739746
3378.834961	3611.073486
3378.036133	3626.151367
3377.238281	3415.800293
3376.439453	3540.468262
3375.640625	3514.861328
3374.841797	3586.273682
3374.042969	3379.192383
3373.244141	3566.353516
3372.444336	3500.096191
3371.644531	3574.592041
3370.845703	3498.973633
3370.045898	3435.885254
3369.246094	3354.061523
3368.446289	3581.675781
3367.646484	3462.356445
3366.845703	3464.925781
3366.045898	3386.273438
3365.245117	3391.977051
3364.444336	3460.136230
3363.643555	3356.543213
3362.842773	3434.051758
3362.041992	3430.379639
3361.241211	3504.730225
3360.440430	3444.881348
3359.638672	3381.931641
3358.836914	3347.076416
3358.036133	3362.134033
3357.234375	3296.109131
3356.432617	3298.698486
3355.629883	3379.220947
3354.828125	3394.263184
3354.026367	3250.366211
3353.223633	3315.278076
3352.420898	3271.131348
3351.618164	3289.295898
3350.815430	3282.539795
3350.012695	3266.444092
3349.209961	3163.179199
3348.407227	3280.960693
3347.603516	3348.906494
3346.799805	3180.328613
3345.997070	3273.159668
3345.193359	3238.415283
3344.389648	3284.551270
3343.584961	3265.365234
3342.781250	3118.701172
3341.977539	3230.120361
3341.172852	3064.858398
3340.368164	3148.279541
3339.564453	3178.848389
3338.759766	3249.796875
3337.954102	3323.828857
3337.149414	3239.436768
3336.344727	3176.809570
3335.539063	3229.083008
3334.734375	3039.197266
3333.928711	3153.553955
3333.123047	3122.014160
3332.317383	3177.365479
3331.511719	3086.886230
3330.705078	3145.327393
3329.899414	3216.155029
3329.092773	3054.392090
3328.287109	3171.717773
3327.480469	3053.412354
3326.673828	3198.594971
3325.867188	3142.301514
3325.060547	3123.206787
3324.252930	3066.943359
3323.446289	3128.399902
3322.638672	3010.214844
3321.831055	3192.421387
3321.024414	3030.920654
3320.216797	2996.384521
3319.408203	3029.948242
3318.600586	2955.195557
3317.792969	3121.794678
3316.984375	3022.303467
3316.175781	3111.514404
3315.368164	2971.854492
3314.559570	2980.653564
3313.750977	2816.327637
3312.941406	2865.331543
3312.132813	2932.862305
3311.323242	2978.741455
3310.514648	3024.605957
3309.705078	3017.942627
3308.895508	3014.370117
3308.085938	2964.478516
3307.276367	3010.315430
3306.466797	2960.440430
3305.656250	2947.619385
3304.846680	3024.296875
3304.036133	2959.015625
3303.225586	2946.200928
3302.415039	2887.122070
3301.604492	2905.163086
3300.793945	3037.289307
3299.983398	3005.971436
3299.171875	2916.095215
3298.361328	2823.165527
3297.549805	2831.957275
3296.738281	2883.881104
3295.926758	2895.740723
3295.115234	2947.637451
3294.303711	2900.970703
3293.491211	2823.527832
3292.679688	2875.411133
3291.867188	2767.216064
3291.054688	2874.488281
3290.242188	2886.335693
3289.429688	2901.255615
3288.617188	2845.419678
3287.804688	2866.492676
3286.991211	2801.454590
3286.177734	2807.154297
3285.365234	2831.297119
3284.551758	2812.400879
3283.738281	2882.632568
3282.924805	2842.225098
3282.110352	2780.325439
3281.296875	2841.312988
3280.482422	2794.789063
3279.668945	2788.199219
3278.854492	2879.858154
3278.040039	2903.953613
3277.225586	2854.380127
3276.411133	2853.922119
3275.595703	2865.737061
3274.781250	2819.260742
3273.965820	2812.673828
3273.150391	2821.422852
3272.335938	2891.494385
3271.519531	2774.530518
3270.704102	2798.607666
3269.888672	2792.028809
3269.073242	2773.195068
3268.256836	2846.281494
3267.440430	2818.254639
3266.625000	2753.482910
3265.808594	2832.661865
3264.991211	2795.465088
3264.174805	2733.789307
3263.358398	2855.784912
3262.541016	2699.247803
3261.724609	2659.036133
3260.907227	2774.865967
3260.089844	2765.243896
3259.272461	2810.676270
3258.455078	2739.893066
3257.637695	2776.142334
3256.819336	2683.988770
3256.001953	2689.670898
3255.183594	2747.302246
3254.365234	2749.916748
3253.546875	2697.540771
3252.728516	2785.687744
3251.910156	2699.728760
3251.090820	2757.312012
3250.272461	2708.021240
3249.453125	2686.218750
3248.633789	2691.891602
3247.814453	2648.738037
3246.995117	2657.465820
3246.175781	2772.960693
3245.356445	2687.113525
3244.536133	2717.177979
3243.716797	2704.545410
3242.896484	2682.770996
3242.076172	2761.591309
3241.255859	2657.528809
3240.435547	2651.007813
3239.615234	2726.748291
3238.793945	2656.249023
3237.973633	2604.046143
3237.152344	2509.227539
3236.331055	2557.539795
3235.509766	2712.383301
3234.688477	2654.117432
3233.867188	2617.172607
3233.045898	2613.709717
3232.223633	2674.135010
3231.402344	2600.703369
3230.580078	2667.193848
3229.757813	2706.295654
3228.935547	2702.820801
3228.113281	2562.555908
3227.291016	2580.380371
3226.467773	2619.470703
3225.645508	2588.666748
3224.822266	2633.818848
3223.999023	2530.125732
3223.175781	2587.419922
3222.352539	2626.477539
3221.529297	2714.097168
3220.705078	2537.607178
3219.881836	2688.946045
3219.057617	2718.858643
3218.233398	2499.977539
3217.409180	2535.977539
3216.584961	2593.197021
3215.760742	2617.040527
3214.936523	2610.556152
3214.111328	2607.105469
3213.287109	2652.152344
3212.461914	2554.749023
3211.636719	2578.579102
3210.811523	2484.248291
3209.986328	2626.216309
3209.161133	2577.337158
3208.334961	2658.682129
3207.509766	2618.895996
3206.683594	2588.204102
3205.857422	2542.388672
3205.031250	2345.279541
3204.205078	2632.342529
3203.378906	2656.121338
3202.552734	2564.953369
3201.725586	2470.790527
3200.899414	2564.129639
3200.072266	2515.345703
3199.245117	2481.691162
3198.417969	2550.805176
3197.590820	2417.436279
3196.762695	2510.708740
3195.935547	2576.763672
3195.107422	2422.312256
3194.280273	2533.657959
3193.452148	2412.476074
3192.624023	2538.881836
3191.795898	2496.216309
3190.966797	2477.708008
3190.138672	2462.222900
3189.309570	2495.013672
3188.481445	2422.217773
3187.652344	2470.084229
3186.823242	2439.532715
3185.994141	2418.035645
3185.165039	2435.734375
3184.334961	2414.244873
3183.505859	2368.653564
3182.675781	2524.952881
3181.845703	2455.257813
3181.016602	2388.596924
3180.185547	2403.271484
3179.355469	2466.119141
3178.525391	2438.626953
3177.695313	2474.357178
3176.864258	2362.601563
3176.033203	2449.488770
3175.202148	2409.981934
3174.371094	2397.561768
3173.540039	2445.300537
3172.708984	2276.500732
3171.877930	2426.474121
3171.045898	2365.958252
3170.213867	2491.822510
3169.381836	2338.149902
3168.550781	2298.711182
3167.717773	2394.481689
3166.885742	2334.019287
3166.053711	2288.593262
3165.220703	2378.312988
3164.388672	2401.950439
3163.555664	2332.519531
3162.722656	2365.160889
3161.889648	2436.804688
3161.056641	2304.390625
3160.222656	2502.021973
3159.389648	2411.633789
3158.555664	2423.242432
3157.722656	2425.851563
3156.888672	2341.514893
3156.054688	2347.133789
3155.220703	2256.842773
3154.385742	2286.446533
3153.551758	2393.941162
3152.716797	2306.681396
3151.882813	2333.267578
3151.047852	2410.755615
3150.212891	2278.621338
3149.377930	2296.217773
3148.541992	2307.821777
3147.707031	2445.119873
3146.872070	2325.033936
3146.036133	2267.815430
3145.200195	2357.191650
3144.364258	2228.205078
3143.528320	2236.818115
3142.692383	2236.458496
3141.856445	2155.384277
3141.019531	2223.783691
3140.182617	2238.368652
3139.346680	2223.068848
3138.509766	2255.574219
3137.672852	2347.809814
3136.835938	2207.064453
3135.998047	2290.319580
3135.161133	2245.167480
3134.323242	2185.104492
3133.485352	2166.845215
3132.648438	2235.132568
3131.810547	2291.463135
3130.971680	2288.111572
3130.133789	2245.985596
3129.295898	2185.979980
3128.457031	2233.336670
3127.619141	2274.715576
3126.780273	2196.848877
3125.941406	2235.239990
3125.102539	2181.243408
3124.262695	2219.624512
3123.423828	2255.014160
3122.583984	2105.731445
3121.745117	2287.046387
3120.905273	2066.347656
3120.065430	2194.025146
3119.225586	2208.554688
3118.385742	2130.823486
3117.544922	2115.603027
3116.705078	2252.115479
3115.864258	2177.388916
3115.024414	2135.401367
3114.183594	2075.585693
3113.342773	2182.285156
3112.500977	2187.879395
3111.660156	2169.694580
3110.819336	2100.996338
3109.977539	2112.543457
3109.135742	2171.618896
3108.293945	2117.804688
3107.452148	2055.098389
3106.610352	2090.399658
3105.768555	2146.471680
3104.926758	2149.094727
3104.083984	2225.914063
3103.241211	2127.631836
3102.398438	2162.892822
3101.555664	2091.350098
3100.712891	2138.469238
3099.870117	2019.505371
3099.027344	2105.166260
3098.183594	2081.111328
3097.339844	2175.626953
3096.497070	2113.041504
3095.653320	2050.476318
3094.809570	2047.183716
3093.964844	2129.795166
3093.121094	2141.299316
3092.276367	1998.816772
3091.432617	2119.885254
3090.587891	2015.935425
3089.743164	2065.927490
3088.898438	2062.635742
3088.053711	2023.839233
3087.208984	2180.306396
3086.363281	2020.230347
3085.517578	2055.394043
3084.672852	2019.580444
3083.827148	2102.036133
3082.981445	2013.018799
3082.135742	1980.184448
3081.289063	1985.776001
3080.443359	2118.411133
3079.596680	2109.208252
3078.750000	2061.611328
3077.904297	2070.138916
3077.056641	2078.663818
3076.209961	2019.286011
3075.363281	1936.313599
3074.516602	2151.441406
3073.668945	2086.178711
3072.821289	1994.384644
3071.973633	1988.164185
3071.125977	2061.577393
3070.278320	2055.348145
3069.430664	2025.533569
3068.583008	2060.582520
3067.734375	2021.934448
3066.885742	2021.609009
3066.038086	2047.802124
3065.189453	2015.066528
3064.339844	2050.088623
3063.491211	1946.681763
3062.642578	1978.759033
3061.792969	2087.372559
3060.944336	2028.163940
3060.094727	1992.519653
3059.245117	2018.683228
3058.395508	2083.087158
3057.545898	1976.849243
3056.695313	1958.883545
3055.845703	2055.614502
3054.995117	1970.014282
3054.144531	1966.757446
3053.293945	2072.258301
3052.443359	2113.069580
3051.592773	1965.807983
3050.742188	1912.608521
3049.890625	1929.925537
3049.039063	1985.418091
3048.188477	1935.177490
3047.336914	1917.249634
3046.485352	1990.330811
3045.633789	1948.918823
3044.781250	1904.585327
3043.929688	1910.147217
3043.077148	1971.447388
3042.224609	1903.665894
3041.372070	1897.493896
3040.519531	1944.104980
3039.666992	1937.928467
3038.814453	2002.106079
3037.960938	1828.862427
3037.108398	1948.714355
3036.254883	1916.171509
3035.401367	1936.369141
3034.547852	1848.187988
3033.694336	1926.960205
3032.840820	1906.153809
3031.986328	1949.760376
3031.132813	1972.863281
3030.278320	1867.187134
3029.423828	1928.335815
3028.569336	1808.072266
3027.714844	1942.340942
3026.860352	1959.576660
3026.004883	1892.003052
3025.150391	1903.393555
3024.294922	1856.313843
3023.439453	1867.706421
3022.583984	1858.638550
3021.728516	1840.807739
3020.873047	1869.725830
3020.016602	1770.111572
3019.161133	1834.077637
3018.304688	1880.502930
3017.448242	1833.487061
3016.591797	1885.735474
3015.735352	1876.676025
3014.878906	1812.174316
3014.021484	1887.742310
3013.165039	1913.693359
3012.307617	1846.299927
3011.450195	1840.170044
3010.592773	1921.516357
3009.735352	1886.222778
3008.877930	1769.324341
3008.020508	1795.269043
3007.162109	1853.258423
3006.303711	1806.344604
3005.445313	1806.053711
3004.587891	1875.663330
3003.728516	1904.481689
3002.870117	1875.059204
3002.011719	1778.690430
3001.152344	1871.544556
3000.293945	1859.602417
2999.434570	1789.469849
2998.575195	1856.094116
2997.715820	1832.525024
2996.855469	1870.037720
2995.996094	1855.197388
2995.136719	1898.509033
2994.276367	1770.299683
2993.416016	1813.610962
2992.555664	1827.848633
2991.695313	1839.176147
2990.834961	1879.550171
2989.973633	1893.770142
2989.113281	1844.095581
2988.251953	1765.400757
2987.390625	1785.438354
2986.530273	1738.707764
2985.667969	1805.178711
2984.806641	1833.905273
2983.945313	1868.425293
2983.083008	1859.421753
2982.221680	1818.517334
2981.359375	1838.523438
2980.497070	1806.333740
2979.634766	1779.952148
2978.772461	1739.086670
2977.909180	1877.911011
2977.046875	1761.706665
2976.183594	1813.570190
2975.320313	1819.071167
2974.457031	1818.777954
2973.593750	1806.902222
2972.730469	1841.353516
2971.867188	1835.267334
2971.002930	1748.143311
2970.139648	1843.357300
2969.275391	1843.060303
2968.411133	1802.262939
2967.546875	1856.928345
2966.682617	1784.330444
2965.817383	1847.655396
2964.953125	1743.281128
2964.087891	1844.169312
2963.222656	1855.432495
2962.357422	1782.893066
2961.492188	1814.386353
2960.626953	1785.207031
2959.761719	1816.689697
2958.895508	1830.835693
2958.030273	1795.893066
2957.164063	1818.698242
2956.297852	1812.632324
2955.431641	1881.601563
2954.565430	1826.475098
2953.698242	1797.331055
2952.832031	1782.618896
2951.964844	1863.084351
2951.097656	1712.838623
2950.230469	1767.341431
2949.363281	1738.230103
2948.496094	1835.943726
2947.628906	1881.755127
2946.760742	1783.489502
2945.893555	1737.109497
2945.025391	1852.041992
2944.157227	1670.312866
2943.289063	1854.324219
2942.419922	1735.989502
2941.551758	1735.709595
2940.683594	1781.477661
2939.814453	1691.987061
2938.945313	1743.501343
2938.076172	1803.628906
2937.207031	1682.540283
2936.337891	1725.404053
2935.468750	1681.997681
2934.598633	1790.966797
2933.728516	1796.426636
2932.859375	1796.136963
2931.989258	1732.633423
2931.119141	1786.938965
2930.248047	1671.753662
2929.377930	1728.923462
2928.506836	1682.700562
2927.636719	1825.981201
2926.765625	1776.886841
2925.894531	1753.639404
2925.023438	1716.051147
2924.152344	1758.812134
2923.280273	1709.760132
2922.409180	1789.795776
2921.537109	1789.507080
2920.665039	1749.075684
2919.792969	1748.793579
2918.920898	1800.106934
2918.048828	1794.084717
2917.176758	1667.713867
2916.303711	1782.045898
2915.430664	1816.133179
2914.558594	1812.976074
2913.685547	1821.274658
2912.811523	1809.528076
2911.938477	1886.529541
2911.065430	1780.321777
2910.191406	1842.994019
2909.318359	1768.302124
2908.444336	1759.434204
2907.570313	1744.848389
2906.696289	1830.365234
2905.821289	1758.582764
2904.947266	1858.364868
2904.072266	1792.318115
2903.198242	1812.035645
2902.323242	1746.017578
2901.448242	1737.164307
2900.573242	1674.036255
2899.697266	1762.310181
2898.822266	1759.169922
2897.946289	1690.358032
2897.071289	1727.198730
2896.195313	1766.881714
2895.319336	1706.663696
2894.443359	1829.088379
2893.566406	1703.259888
2892.690430	1688.722168
2891.813477	1611.442627
2890.937500	1662.512329
2890.060547	1682.202271
2889.183594	1659.125000
2888.306641	1687.359985
2887.428711	1681.388062
2886.551758	1672.568604
2885.673828	1561.191895
2884.796875	1709.058350
2883.918945	1700.238647
2883.041016	1734.134277
2882.162109	1634.207642
2881.284180	1725.034790
2880.406250	1713.371826
2879.527344	1778.545776
2878.648438	1658.759644
2877.769531	1632.889160
2876.890625	1689.511475
2876.011719	1657.956543
2875.132813	1720.243164
2874.252930	1626.149170
2873.374023	1716.845337
2872.494141	1690.990234
2871.614258	1619.678711
2870.734375	1684.762085
2869.854492	1681.649536
2868.973633	1783.624023
2868.093750	1570.358032
2867.212891	1660.960449
2866.332031	1572.689697
2865.452148	1637.717407
2864.570313	1654.480225
2863.689453	1705.286621
2862.808594	1608.554688
2861.926758	1662.188477
2861.045898	1551.314453
2860.164063	1613.446899
2859.282227	1706.745483
2858.400391	1666.784546
2857.518555	1677.852173
2856.635742	1615.238647
2855.753906	1640.477539
2854.871094	1648.711060
2853.988281	1552.143921
2853.105469	1676.497925
2852.222656	1642.249512
2851.339844	1633.491333
2850.456055	1647.380249
2849.573242	1666.924805
2848.689453	1621.381470
2847.805664	1522.098267
2846.921875	1564.283325
2846.038086	1677.161255
2845.154297	1617.506348
2844.269531	1648.345947
2843.385742	1588.714966
2842.500977	1625.202026
2841.616211	1624.939453
2840.731445	1522.958130
2839.846680	1576.388428
2838.961914	1615.678345
2838.076172	1615.417358
2837.190430	1575.624634
2836.305664	1535.844604
2835.419922	1642.862427
2834.534180	1509.947510
2833.648438	1515.347290
2832.761719	1616.673584
2831.875977	1596.665649
2830.989258	1562.561646
2830.102539	1675.111206
2829.215820	1624.087891
2828.329102	1632.282837
2827.442383	1626.381714
2826.555664	1521.844482
2825.667969	1656.851807
2824.781250	1600.237671
2823.893555	1585.894775
2823.005859	1582.822021
2822.118164	1562.854614
2821.229492	1492.214600
2820.341797	1598.945190
2819.453125	1612.759766
2818.565430	1657.525269
2817.676758	1586.915405
2816.788086	1659.802734
2815.899414	1592.028076
2815.009766	1574.896851
2814.121094	1644.938843
2813.231445	1605.313354
2812.342773	1605.053833
2811.453125	1537.342529
2810.563477	1598.914917
2809.673828	1548.083984
2808.783203	1620.871216
2807.893555	1536.348755
2807.002930	1564.182739
2806.113281	1583.584351
2805.222656	1628.245483
2804.332031	1585.879272
2803.440430	1667.008911
2802.549805	1546.083130
2801.659180	1498.139648
2800.767578	1559.608643
2799.875977	1618.253052
2798.984375	1589.949951
2798.092773	1572.870728
2797.201172	1561.403564
2796.309570	1631.220703
2795.416992	1527.270752
2794.524414	1639.098877
2793.632813	1521.174072
2792.740234	1624.564087
2791.846680	1571.091553
2790.954102	1598.838135
2790.061523	1578.982300
2789.167969	1570.329590
2788.275391	1612.056274
2787.381836	1572.619995
2786.488281	1561.174438
2785.593750	1516.164429
2784.700195	1482.356445
2783.806641	1568.806519
2782.912109	1663.616699
2782.017578	1593.459106
2781.124023	1531.709351
2780.228516	1576.175903
2779.333984	1598.274414
2778.439453	1572.872314
2777.543945	1516.752319
2776.649414	1466.236084
2775.753906	1630.749268
2774.858398	1549.519531
2773.962891	1571.600708
2773.067383	1660.659302
2772.170898	1596.207520
2771.275391	1492.714844
2770.378906	1573.373779
2769.482422	1545.227173
2768.585938	1572.864868
2767.689453	1606.070190
2766.792969	1589.083130
2765.896484	1524.715576
2764.999023	1605.290894
2764.101563	1641.255859
2763.205078	1604.771484
2762.307617	1540.442749
2761.409180	1651.599976
2760.511719	1506.527832
2759.614258	1497.931396
2758.715820	1575.635620
2757.817383	1583.730713
2756.918945	1566.777100
2756.020508	1558.176147
2755.122070	1574.616089
2754.223633	1632.773926
2753.324219	1576.887573
2752.425781	1612.781006
2751.526367	1565.256470
2750.626953	1637.276855
2749.727539	1523.060303
2748.828125	1547.823608
2747.927734	1594.806030
2747.028320	1563.990356
2746.127930	1555.404785
2745.227539	1491.280640
2744.327148	1504.922363
2743.426758	1612.948975
2742.526367	1548.846558
2741.625000	1543.045410
2740.724609	1564.994141
2739.823242	1548.094604
2738.921875	1542.296265
2738.020508	1550.366943
2737.119141	1489.109619
2736.216797	1538.774780
2735.315430	1535.753540
2734.413086	1593.710083
2733.511719	1471.518311
2732.609375	1529.466309
2731.707031	1454.419922
2730.803711	1528.971191
2729.901367	1501.029297
2728.998047	1464.789673
2728.095703	1514.385986
2727.192383	1541.821655
2726.289063	1500.057495
2725.385742	1546.856812
2724.482422	1480.204590
2723.578125	1518.692993
2722.674805	1463.130249
2721.770508	1487.781860
2720.866211	1501.365723
2719.961914	1506.651611
2719.057617	1492.587402
2718.152344	1616.707764
2717.248047	1505.919800
2716.342773	1486.336914
2715.438477	1458.473633
2714.533203	1499.664551
2713.627930	1562.933105
2712.721680	1457.765137
2711.816406	1504.457031
2710.910156	1449.012817
2710.004883	1556.401733
2709.098633	1481.653076
2708.192383	1415.204712
2707.286133	1533.579712
2706.379883	1549.877930
2705.472656	1464.149292
2704.565430	1458.398315
2703.659180	1604.253906
2702.751953	1488.241943
2701.844727	1521.067505
2700.937500	1435.412720
2700.029297	1575.667969
2699.122070	1506.557251
2698.213867	1495.298096
2697.305664	1519.835815
2696.397461	1472.790649
2695.489258	1469.799561
2694.581055	1516.345215
2693.672852	1543.614990
2692.763672	1458.080933
2691.855469	1515.608276
2690.946289	1485.110474
2690.037109	1358.380859
2689.127930	1539.615479
2688.217773	1500.881836
2687.308594	1448.418579
2686.398438	1591.078735
2685.489258	1436.959106
2684.579102	1497.162109
2683.668945	1485.932983
2682.757813	1559.839478
2681.847656	1438.773560
2680.937500	1512.663696
2680.026367	1517.908203
2679.115234	1490.218018
2678.204102	1500.952393
2677.292969	1484.247925
2676.381836	1492.236694
2675.469727	1522.163818
2674.558594	1519.174805
2673.646484	1546.346069
2672.734375	1439.184570
2671.822266	1452.655640
2670.910156	1537.372925
2669.998047	1471.364502
2669.084961	1490.302612
2668.172852	1391.453979
2667.259766	1495.296753
2666.346680	1547.079956
2665.433594	1470.172119
2664.520508	1428.874268
2663.606445	1464.221802
2662.693359	1515.976318
2661.779297	1578.657959
2660.865234	1425.212158
2659.951172	1474.212769
2659.037109	1337.241455
2658.123047	1481.937256
2657.208008	1492.631958
2656.293945	1470.523438
2655.378906	1440.223389
2654.463867	1475.511475
2653.548828	1461.612183
2652.633789	1404.012817
2651.718750	1502.104736
2650.802734	1512.783691
2649.886719	1474.315308
2648.971680	1463.157227
2648.055664	1531.153076
2647.138672	1383.544922
2646.222656	1506.100464
2645.306641	1426.744141
2644.389648	1442.878052
2643.473633	1461.733887
2642.556641	1559.656982
2641.639648	1589.392456
2640.721680	1471.925781
2639.804688	1449.884277
2638.887695	1561.370117
2637.969727	1460.311768
2637.051758	1490.039063
2636.133789	1470.732300
2635.215820	1511.340698
2634.297852	1448.473511
2633.379883	1562.573120
2632.460938	1453.447144
2631.541992	1417.833618
2630.623047	1472.022095
2629.704102	1439.137451
2628.785156	1466.104370
2627.866211	1465.866455
2626.946289	1492.820190
2626.027344	1408.297607
2625.107422	1429.815308
2624.187500	1481.222290
2623.267578	1437.503540
2622.347656	1499.760254
2621.426758	1496.800293
2620.506836	1499.273438
2619.585938	1493.598877
2618.665039	1409.185547
2617.744141	1495.828857
2616.823242	1468.442993
2615.902344	1457.349121
2614.981445	1478.820068
2614.059570	1475.867065
2613.137695	1456.639648
2612.215820	1502.509033
2611.293945	1510.400146
2610.372070	1507.443726
2609.450195	1515.331421
2608.527344	1458.168091
2607.604492	1501.289917
2606.682617	1427.890503
2605.759766	1433.076782
2604.835938	1570.982178
2603.913086	1586.976074
2602.990234	1489.240845
2602.066406	1440.268188
2601.142578	1521.239258
2600.218750	1550.762573
2599.294922	1534.275146
2598.371094	1523.203857
2597.447266	1485.085571
2596.522461	1449.684204
2595.598633	1535.983032
2594.673828	1578.993652
2593.749023	1530.077515
2592.824219	1510.908936
2591.898438	1545.795288
2590.973633	1448.272217
2590.047852	1566.905762
2589.122070	1558.547852
2588.197266	1552.893433
2587.271484	1560.741943
2586.344727	1600.985596
2585.418945	1492.750732
2584.492188	1546.486938
2583.566406	1532.743286
2582.639648	1554.078735
2581.712891	1570.011963
2580.786133	1502.327515
2579.858398	1550.624756
2578.931641	1531.498779
2578.003906	1488.116211
2577.077148	1528.305786
2576.149414	1463.377808
2575.221680	1492.780151
2574.292969	1532.949341
2573.365234	1519.231812
2572.437500	1462.427124
2571.508789	1467.575073
2570.580078	1577.723389
2569.651367	1397.108154
2568.722656	1458.785400
2567.793945	1525.824585
2566.864258	1536.339111
2565.935547	1528.018921
2565.005859	1530.460327
2564.076172	1511.386475
2563.146484	1398.208618
2562.216797	1427.554077
2561.286133	1381.626343
2560.356445	1558.780273
2559.425781	1442.980957
2558.495117	1461.553101
2557.564453	1458.629395
2556.633789	1506.736816
2555.703125	1509.177246
2554.771484	1393.479858
2553.839844	1412.044800
2552.909180	1454.760254
2551.977539	1355.229736
2551.045898	1456.970581
2550.113281	1446.002686
2549.181641	1432.356079
2548.249023	1426.759521
2547.317383	1439.934692
2546.384766	1453.105713
2545.452148	1391.216309
2544.519531	1412.431152
2543.585938	1487.233154
2542.653320	1409.292725
2541.719727	1390.311768
2540.786133	1349.909790
2539.853516	1368.436035
2538.918945	1445.861694
2537.985352	1424.209839
2537.051758	1456.098022
2536.117188	1509.385620
2535.182617	1428.866699
2534.249023	1474.115234
2533.313477	1460.500977
2532.378906	1452.239990
2531.444336	1422.589478
2530.508789	1328.781860
2529.574219	1448.858398
2528.638672	1451.295532
2527.703125	1461.748657
2526.767578	1496.245239
2525.832031	1439.901733
2524.895508	1469.048584
2523.959961	1434.092285
2523.023438	1364.435669
2522.086914	1446.974243
2521.150391	1505.462524
2520.213867	1438.496948
2519.276367	1446.268188
2518.339844	1472.712402
2517.402344	1405.784790
2516.464844	1416.224487
2515.527344	1370.660889
2514.589844	1386.435181
2513.652344	1466.183228
2512.713867	1377.988037
2511.776367	1380.428711
2510.837891	1417.506958
2509.899414	1454.572998
2508.960938	1409.054810
2508.021484	1432.794189
2507.083008	1416.584595
2506.143555	1448.301880
2505.205078	1434.756714
2504.265625	1439.846191
2503.326172	1420.984741
2502.386719	1364.881104
2501.446289	1373.011353
2500.506836	1381.141724
2499.566406	1389.271973
2498.625977	1397.402222
2497.685547	1405.532471
2496.745117	1413.662842
2495.804688	1421.793091
2494.863281	1424.218750
2493.922852	1450.553833
2492.981445	1341.411133
2492.040039	1476.639893
2491.098633	1333.008179
2490.157227	1409.785156
2489.214844	1459.991699
2488.273438	1361.552368
2487.331055	1395.828369
2486.388672	1384.988159
2485.446289	1419.249146
2484.503906	1432.279907
2483.561523	1432.046631
2482.618164	1442.419556
2481.675781	1378.558838
2480.732422	1386.286255
2479.789063	1322.455444
2478.845703	1401.733521
2477.902344	1438.596191
2476.958008	1438.361816
2476.013672	1408.994263
2475.070313	1485.558350
2474.125977	1400.592529
2473.181641	1445.366699
2472.237305	1349.847900
2471.291992	1399.908325
2470.347656	1389.096680
2469.402344	1452.361694
2468.457031	1396.579346
2467.511719	1409.574829
2466.566406	1372.326782
2465.621094	1409.115723
2464.674805	1358.663208
2463.728516	1355.798950
2462.783203	1389.930054
2461.836914	1373.851440
2460.890625	1363.061279
2459.943359	1362.839233
2458.997070	1418.072510
2458.049805	1409.920532
2457.103516	1343.694092
2456.156250	1380.427368
2455.208984	1398.675415
2454.260742	1416.917603
2453.313477	1358.647461
2452.365234	1434.919922
2451.417969	1474.245483
2450.469727	1487.189575
2449.521484	1326.124878
2448.573242	1304.820801
2447.624023	1388.946411
2446.675781	1436.152588
2445.726563	1393.763184
2444.778320	1361.924561
2443.829102	1366.970337
2442.878906	1398.348633
2441.929688	1392.854736
2440.980469	1395.260254
2440.030273	1455.572021
2439.080078	1392.173706
2438.129883	1357.740112
2437.179688	1302.270996
2436.229492	1362.558350
2435.279297	1386.006226
2434.328125	1343.707275
2433.377930	1430.249634
2432.426758	1353.783936
2431.475586	1398.244019
2430.523438	1340.203369
2429.572266	1389.905762
2428.621094	1426.457031
2427.668945	1431.477661
2426.716797	1452.253296
2425.764648	1341.736816
2424.812500	1388.773071
2423.860352	1349.173828
2422.907227	1330.582764
2421.955078	1325.117798
2421.001953	1445.585815
2420.048828	1350.917114
2419.095703	1376.923828
2418.142578	1345.231934
2417.188477	1363.365479
2416.235352	1394.600220
2415.281250	1336.710815
2414.327148	1438.695190
2413.373047	1386.057495
2412.418945	1385.831421
2411.463867	1401.321167
2410.509766	1419.424561
2409.554688	1395.627197
2408.599609	1285.442993
2407.644531	1368.995972
2406.689453	1303.343750
2405.734375	1358.082397
2404.778320	1363.093506
2403.822266	1305.321777
2402.867188	1325.496094
2401.912109	1345.670410
2400.955078	1365.844604
2399.998047	1386.018921
2399.042969	1406.193237
2398.085938	1390.283813
2397.128906	1319.509033
2396.171875	1402.892456
2395.214844	1308.630249
2394.257813	1326.697998
2393.300781	1326.481445
2392.341797	1394.144653
2391.384766	1333.879517
2390.427734	1328.442017
2389.468750	1294.301880
2388.509766	1254.954834
2387.552734	1312.139893
2386.593750	1311.925659
2385.634766	1379.513794
2384.675781	1308.890137
2383.716797	1337.352661
2382.757813	1326.708252
2381.798828	1274.370239
2380.839844	1255.922607
2379.878906	1359.926514
2378.919922	1349.285400
2377.960938	1351.669434
2377.000000	1307.181641
2376.039063	1312.175293
2375.080078	1241.677368
2374.119141	1342.978882
2373.158203	1267.294434
2372.197266	1321.725708
2371.236328	1313.705688
2370.275391	1305.688354
2369.314453	1310.676147
2368.351563	1331.263184
2367.390625	1331.045776
2366.429688	1354.221802
2365.466797	1328.012207
2364.503906	1275.826782
2363.542969	1330.176392
2362.580078	1311.776123
2361.617188	1366.102051
2360.654297	1386.652832
2359.691406	1344.885376
2358.728516	1329.090454
2357.765625	1310.705200
2356.802734	1274.160645
2355.837891	1255.790161
2354.875000	1297.092041
2353.910156	1296.880127
2352.947266	1268.141602
2351.982422	1190.146973
2351.017578	1288.467163
2350.054688	1236.415283
2349.089844	1275.087891
2348.125000	1272.288330
2347.160156	1246.172485
2346.195313	1274.463013
2345.228516	1219.865845
2344.263672	1217.077026
2343.298828	1307.496704
2342.332031	1276.218872
2341.367188	1232.010010
2340.400391	1229.220825
2339.433594	1234.194702
2338.468750	1280.558838
2337.501953	1231.204712
2336.535156	1251.692627
2335.568359	1194.602295
2334.601563	1295.233521
2333.632813	1212.305908
2332.666016	1336.161377
2331.699219	1325.606934
2330.730469	1369.311523
2329.763672	1547.327393
2328.794922	1456.677734
2327.828125	1337.651978
2326.859375	1373.580200
2325.890625	1303.655273
2324.921875	1287.955688
2323.953125	1274.841797
2322.984375	1282.374023
2322.015625	1274.425049
2321.046875	1248.422729
2320.076172	1168.270752
2319.107422	1266.064331
2318.136719	1178.201172
2317.167969	1255.339478
2316.197266	1195.856812
2315.226563	1334.811523
2314.257813	1244.417969
2313.287109	1213.302368
2312.316406	1238.859863
2311.345703	1233.506836
2310.375000	1228.155640
2309.402344	1212.508789
2308.431641	1258.640747
2307.460938	1106.599243
2306.488281	1258.229004
2305.517578	1185.989136
2304.544922	1270.678589
2303.572266	1262.755249
2302.601563	1187.978638
2301.628906	1218.635864
2300.656250	1146.461304
2299.683594	1159.124390
2298.710938	1223.177246
2297.736328	1135.621582
2296.763672	1153.417847
2295.791016	1176.345093
2294.816406	1230.080933
2293.843750	1142.581299
2292.869141	1162.931763
2291.896484	1221.776978
2290.921875	1185.648315
2289.947266	1211.113403
2288.972656	1251.963257
2287.998047	1236.367798
2287.023438	1207.954224
2286.048828	1164.164551
2285.072266	1192.176025
2284.097656	1261.192627
2283.123047	1199.474731
2282.146484	1199.278320
2281.171875	1193.957764
2280.195313	1204.009277
2279.218750	1242.231689
2278.242188	1218.980347
2277.265625	1300.715698
2276.289063	1272.342285
2275.312500	1292.610962
2274.335938	1228.419189
2273.359375	1261.482300
2272.382813	1284.301147
2271.404297	1161.309204
2270.427734	1202.039551
2269.449219	1212.071167
2268.472656	1234.882935
2267.494141	1224.455688
2266.515625	1257.481323
2265.537109	1157.613281
2264.558594	1282.619751
2263.580078	1205.771606
2262.601563	1180.032349
2261.623047	1184.946655
2260.642578	1228.159424
2259.664063	1210.087769
2258.685547	1253.282227
2257.705078	1204.587280
2256.724609	1212.044922
2255.746094	1267.973999
2254.765625	1226.953003
2253.785156	1262.457886
2252.804688	1206.151001
2251.824219	1226.350098
2250.843750	1175.165894
2249.863281	1261.630737
2248.880859	1164.587524
2247.900391	1263.765381
2246.919922	1202.418335
2245.937500	1166.562256
2244.955078	1207.117676
2243.974609	1214.558716
2242.992188	1176.172241
2242.009766	1147.979980
2241.027344	1124.886963
2240.044922	1218.851929
2239.062500	1218.652222
2238.080078	1147.227661
2237.097656	1177.559570
2236.113281	1177.366577
2235.130859	1126.323853
2234.146484	1237.990479
2233.164063	1217.454346
2232.179688	1212.172363
2231.195313	1194.187866
2230.210938	1252.421509
2229.226563	1155.696533
2228.242188	1140.269653
2227.257813	1185.787598
2226.273438	1221.135620
2225.289063	1248.856934
2224.302734	1134.446289
2223.318359	1177.397705
2222.332031	1154.370972
2221.347656	1245.501587
2220.361328	1151.456177
2219.375000	1153.803223
2218.390625	1199.251465
2217.404297	1150.889893
2216.417969	1229.273315
2215.429688	1211.332520
2214.443359	1203.532593
2213.457031	1218.535278
2212.470703	1175.275757
2211.482422	1180.148071
2210.496094	1172.358154
2209.507813	1253.179565
2208.521484	1164.379883
2207.533203	1192.028198
2206.544922	1184.241455
2205.556641	1171.397095
2204.568359	1211.678589
2203.580078	1173.541992
2202.591797	1160.705688
2201.601563	1135.231689
2200.613281	1142.629272
2199.625000	1167.717041
2198.634766	1137.200195
2197.646484	1137.013550
2196.656250	1149.458496
2195.666016	1230.097656
2194.675781	1164.234009
2193.685547	1186.768311
2192.695313	1138.605713
2191.705078	1161.136841
2190.714844	1183.660400
2189.724609	1097.671143
2188.734375	1180.749023
2187.742188	1155.329712
2186.751953	1162.706543
2185.759766	1180.167725
2184.767578	1127.026489
2183.777344	1116.757935
2182.785156	1068.685425
2181.792969	1146.632202
2180.800781	1136.365356
2179.808594	1143.736572
2178.816406	1105.766357
2177.822266	1098.029663
2176.830078	1060.079346
2175.837891	1148.020996
2174.843750	1069.800049
2173.849609	1162.744629
2172.857422	1117.259399
2171.863281	1099.464478
2170.869141	1169.718628
2169.875000	1144.375366
2168.880859	1171.849121
2167.886719	1113.828247
2166.892578	1136.270142
2165.898438	1176.298950
2164.902344	1115.792603
2163.908203	1095.508301
2162.912109	1153.109497
2161.917969	1107.707520
2160.921875	1147.708008
2159.925781	1134.964600
2158.931641	1142.309937
2157.935547	1074.348022
2156.939453	1229.775757
2155.943359	1079.013794
2154.945313	1149.086304
2153.949219	1151.406006
2152.953125	1093.530640
2151.955078	1105.889404
2150.958984	1128.273193
2149.960938	1095.498657
2148.964844	1125.396118
2147.966797	1150.271606
2146.968750	1127.531982
2145.970703	1134.862305
2144.972656	1199.800781
2143.974609	1139.498169
2142.976563	1164.350830
2141.976563	1109.080933
2140.978516	1166.471313
2139.980469	1071.175293
2138.980469	1111.036621
2137.980469	1128.367432
2136.982422	1128.182007
2135.982422	1065.469116
2134.982422	1085.299438
2133.982422	1087.621338
2132.982422	1137.439941
2131.982422	1194.740479
2130.982422	1137.066040
2129.982422	1114.391479
2128.980469	1016.777466
2127.980469	1136.505371
2126.978516	1148.805542
2125.978516	1088.688965
2124.976563	1115.972290
2123.974609	1085.834839
2122.972656	1140.562988
2121.970703	1105.440552
2120.968750	1105.258789
2119.966797	1040.219238
2118.964844	1047.530640
2117.962891	1117.182251
2116.958984	1154.398071
2115.957031	1056.985474
2114.953125	1104.168823
2113.951172	1148.844482
2112.947266	1148.655518
2111.943359	1106.115356
2110.939453	998.827271
2109.935547	1118.203613
2108.931641	1110.549683
2107.927734	1070.533203
2106.923828	1154.989990
2105.919922	1159.777588
2104.914063	1045.121216
2103.910156	1092.220703
2102.904297	1057.215210
2101.898438	1054.554077
2100.894531	1114.062500
2099.888672	1074.097778
2098.882813	1116.181885
2097.876953	1066.287842
2096.871094	1085.993286
2095.865234	1018.727661
2094.859375	1075.698730
2093.851563	1040.747314
2092.845703	1144.882080
2091.837891	1090.066162
2090.832031	1097.334839
2089.824219	1069.849487
2088.816406	1134.201294
2087.810547	1039.720093
2086.802734	1039.549072
2085.794922	1101.393311
2084.787109	1073.929688
2083.777344	1103.510620
2082.769531	1041.344116
2081.761719	1135.374023
2080.751953	1095.530029
2079.744141	1095.349609
2078.734375	1070.391724
2077.726563	1025.623169
2076.716797	1070.039307
2075.707031	1062.433594
2074.697266	1035.021240
2073.687500	1138.831055
2072.677734	1056.958252
2071.667969	1086.483032
2070.656250	1078.880615
2069.646484	1044.065674
2068.636719	1016.683289
2067.625000	1122.866699
2066.613281	1055.914307
2065.603516	1011.236145
2064.591797	1154.448730
2063.580078	1035.619507
2062.568359	1067.575073
2061.556641	1072.340942
2060.544922	1057.341675
2059.533203	1025.057373
2058.519531	1094.037598
2057.507813	1042.004028
2056.496094	1096.145996
2055.482422	999.698181
2054.468750	1048.893188
2053.457031	1038.850098
2052.443359	1016.474365
2051.429688	1087.843018
2050.416016	1072.865601
2049.402344	1025.835815
2048.388672	1104.564209
2047.375000	981.125244
2046.359375	1035.187744
2045.345703	1113.875610
2044.330078	1057.021851
2043.316406	1034.676025
2042.300781	1091.156982
2041.285156	1061.424683
2040.269531	1058.787476
2039.255859	1065.998657
2038.240234	1070.745972
2037.222656	1028.731079
2036.207031	974.426697
2035.191406	1033.312500
2034.175781	976.565369
2033.158203	1013.296204
2032.142578	1069.687378
2031.125000	1069.510986
2030.107422	973.463318
2029.091797	1064.242676
2028.074219	995.259216
2027.056641	1031.950562
2026.039063	1009.670776
2025.021484	1024.241577
2024.001953	1068.277222
2022.984375	1082.833496
2021.966797	1053.194946
2020.947266	952.382935
2019.929688	1074.935303
2018.910156	974.152893
2017.890625	1015.699707
2016.871094	1042.514893
2015.853516	1066.868652
2014.833984	1042.171021
2013.812500	1022.385071
2012.792969	1002.605530
2011.773438	982.832520
2010.753906	980.219849
2009.732422	970.257568
2008.712891	1019.092346
2007.691406	1060.562988
2006.671875	959.981750
2005.650391	1062.661621
2004.628906	1013.523743
2003.607422	925.238525
2002.585938	1045.004395
2001.564453	1025.256714
2000.542969	1010.408447
1999.519531	1042.041138
1998.498047	1017.412109
1997.476563	1000.127136
1996.453125	975.513123
1995.429688	1058.464844
1994.408203	1065.622437
1993.384766	945.705994
1992.361328	957.766357
1991.337891	1023.565979
1990.314453	945.237793
1989.291016	969.502502
1988.267578	974.225830
1987.242188	969.182434
1986.218750	929.968689
1985.193359	920.053284
1984.169922	929.661621
1983.144531	997.818481
1982.119141	987.896729
1981.095703	1012.122131
1980.070313	958.309204
1979.044922	1014.225952
1978.019531	950.679810
1976.992188	1004.142090
1975.966797	1011.286804
1974.941406	1045.229858
1973.914063	1010.952820
1972.888672	991.300842
1971.861328	966.784851
1970.833984	1051.843994
1969.808594	1017.588379
1968.781250	946.833740
1967.753906	939.376465
1966.726563	968.419922
1965.699219	909.872437
1964.669922	1026.477905
1963.642578	1031.172363
1962.615234	1040.728394
1961.585938	991.932373
1960.558594	991.768494
1959.529297	918.692566
1958.500000	964.710815
1957.470703	930.536987
1956.441406	971.679626
1955.412109	998.235840
1954.382813	981.072144
1953.353516	983.338013
1952.324219	995.313477
1951.294922	992.721802
1950.263672	1007.118530
1949.234375	977.835388
1948.203125	919.450012
1947.171875	1006.619263
1946.140625	1011.303223
1945.111328	940.817261
1944.080078	969.754395
1943.046875	959.898193
1942.015625	959.739502
1940.984375	913.540344
1939.953125	925.503235
1938.919922	942.306946
1937.888672	954.261047
1936.855469	927.465881
1935.824219	992.684448
1934.791016	956.208618
1933.757813	994.776611
1932.724609	972.832275
1931.691406	931.538574
1930.658203	957.995483
1929.625000	938.486816
1928.591797	991.536011
1927.556641	962.356262
1926.523438	1027.471802
1925.488281	1000.712891
1924.455078	1000.547363
1923.419922	1010.047424
1922.384766	922.905029
1921.349609	1033.869141
1920.314453	970.903381
1919.279297	953.839294
1918.244141	987.482849
1917.208984	958.351685
1916.171875	989.569763
1915.136719	929.076416
1914.099609	962.701721
1913.064453	957.717651
1912.027344	962.383179
1910.990234	957.400757
1909.955078	971.709473
1908.917969	971.548706
1907.880859	995.491882
1906.841797	968.817200
1905.804688	990.343262
1904.767578	961.268982
1903.730469	893.663574
1902.691406	920.008057
1901.652344	943.935791
1900.615234	900.442749
1899.576172	986.953003
1898.537109	943.467163
1897.498047	955.343018
1896.458984	984.057007
1895.419922	918.942627
1894.380859	976.515564
1893.341797	954.710571
1892.300781	971.383423
1891.261719	947.182434
1890.220703	927.796692
1889.181641	949.272034
1888.140625	896.252808
1887.099609	953.762573
1886.058594	956.006653
1885.019531	1003.880981
1883.976563	874.048218
1882.935547	974.738464
1881.894531	986.579224
1880.853516	921.614807
1879.810547	887.867188
1878.769531	921.309570
1877.726563	949.943115
1876.685547	961.778015
1875.642578	987.997314
1874.599609	956.664124
1873.556641	901.368713
1872.513672	975.522095
1871.470703	913.052429
1870.427734	946.446106
1869.382813	953.476318
1868.339844	895.831787
1867.294922	859.760254
1866.251953	900.323914
1865.207031	967.209045
1864.164063	923.962463
1863.119141	950.135498
1862.074219	1000.228821
1861.029297	885.223267
1859.984375	887.468689
1858.937500	911.238647
1857.892578	918.261536
1856.847656	875.072937
1855.800781	920.347656
1854.755859	898.684082
1853.708984	936.770630
1852.664063	943.783325
1851.617188	900.626160
1850.570313	926.750732
1849.523438	933.761536
1848.476563	876.300964
1847.429688	890.479736
1846.380859	849.753967
1845.333984	885.411377
1844.287109	870.947632
1843.238281	873.188965
1842.189453	896.897888
1841.142578	844.279785
1840.093750	894.215881
1839.044922	872.609985
1837.996094	874.849060
1836.947266	917.604980
1835.898438	915.069824
1834.849609	888.709473
1833.798828	838.535767
1832.750000	957.487122
1831.701172	866.834595
1830.650391	880.976929
1829.599609	902.256409
1828.550781	849.741699
1827.500000	897.197388
1826.449219	873.254150
1825.398438	868.351196
1824.347656	865.828491
1823.294922	875.197876
1822.244141	884.564087
1821.193359	870.152527
1820.140625	948.451538
1819.089844	953.047485
1818.037109	874.471985
1816.984375	879.078674
1815.931641	916.940674
1814.878906	902.537903
1813.826172	892.889343
1812.773438	821.511780
1811.720703	864.105957
1810.667969	932.794739
1809.613281	859.072876
1808.560547	873.166687
1807.505859	906.234558
1806.453125	889.480469
1805.398438	891.704346
1804.343750	903.412109
1803.289063	879.554504
1802.234375	888.889954
1801.179688	905.332214
1800.125000	895.703552
1799.070313	867.124512
1798.013672	845.661377
1796.958984	821.836853
1795.904297	850.116577
1794.847656	876.019226
1793.791016	885.342651
1792.734375	911.230774
1791.677734	828.254028
1790.621094	887.267639
1789.564453	908.411194
1788.507813	879.877136
1787.451172	834.798523
1786.394531	915.052002
1785.335938	907.807800
1784.279297	898.202209
1783.220703	791.704590
1782.162109	923.895752
1781.105469	904.842163
1780.046875	857.449463
1778.988281	911.626709
1777.929688	842.996521
1776.869141	861.744019
1775.810547	875.764099
1774.751953	894.499878
1773.691406	889.631714
1772.632813	877.687012
1771.572266	898.771973
1770.513672	860.885193
1769.453125	860.742126
1768.392578	860.599060
1767.332031	895.817200
1766.271484	872.098083
1765.210938	869.596497
1764.150391	857.670776
1763.087891	939.982849
1762.027344	850.319275
1760.964844	901.989319
1759.904297	840.617920
1758.841797	838.123901
1757.779297	887.416199
1756.716797	939.045593
1755.654297	905.945984
1754.591797	872.857361
1753.529297	872.712219
1752.466797	813.768738
1751.404297	825.391174
1750.339844	895.788391
1749.277344	862.728821
1748.212891	850.833496
1747.148438	897.691528
1746.085938	855.249695
1745.021484	862.155029
1743.957031	880.802063
1742.892578	814.899902
1741.828125	906.337341
1740.761719	831.062256
1739.697266	884.910645
1738.632813	851.907471
1737.566406	870.537415
1736.501953	830.509399
1735.435547	914.815735
1734.369141	914.663513
1733.302734	851.199036
1732.236328	862.779968
1731.169922	843.883423
1730.103516	839.055542
1729.037109	829.542542
1727.970703	895.007080
1726.902344	794.128052
1725.835938	815.075439
1724.767578	894.560303
1723.699219	770.317688
1722.632813	821.691528
1721.564453	926.882263
1720.496094	795.675537
1719.427734	818.941406
1718.359375	867.933411
1717.289063	895.857544
1716.220703	788.129883
1715.152344	858.146912
1714.082031	827.611511
1713.013672	836.823730
1711.943359	829.673035
1710.873047	803.830994
1709.802734	866.778076
1708.732422	824.586792
1707.662109	808.100647
1706.591797	835.987976
1705.521484	849.857422
1704.449219	821.703247
1703.378906	781.888489
1702.308594	842.432068
1701.236328	821.292786
1700.164063	856.148376
1699.093750	807.024536
1698.021484	846.534973
1696.949219	781.107361
1695.876953	836.927856
1694.802734	818.141357
1693.730469	820.335571
1692.658203	796.897766
1691.583984	841.029724
1690.511719	854.865601
1689.437500	822.117920
1688.365234	831.295166
1687.291016	831.156616
1686.216797	833.345886
1685.142578	842.516602
1684.068359	837.722229
1682.994141	795.703430
1681.919922	846.747925
1680.843750	818.696655
1679.769531	816.234741
1678.693359	843.999512
1677.619141	846.183533
1676.542969	843.718201
1675.466797	838.929749
1674.390625	806.260620
1673.314453	850.265686
1672.238281	819.928284
1671.162109	840.692749
1670.085938	831.264709
1669.007813	810.231873
1667.931641	800.812012
1666.853516	861.019470
1665.777344	828.390015
1664.699219	849.132202
1663.621094	753.885071
1662.542969	827.975647
1661.464844	839.431946
1660.386719	906.528015
1659.308594	818.289063
1658.230469	845.965149
1657.152344	873.631958
1656.072266	778.491699
1654.994141	827.009460
1653.914063	887.091797
1652.833984	886.943848
1651.753906	870.588135
1650.673828	912.112976
1649.593750	893.443848
1648.513672	870.152466
1647.433594	849.182617
1646.353516	879.115967
1645.271484	918.291565
1644.191406	862.633728
1643.109375	848.615967
1642.029297	829.979004
1640.947266	825.217407
1639.865234	894.414124
1638.783203	843.428101
1637.701172	847.908081
1636.619141	847.766541
1635.537109	907.674744
1634.455078	879.812622
1633.371094	838.106750
1632.289063	847.200623
1631.205078	920.917236
1630.123047	883.840637
1629.039063	904.458679
1627.955078	906.614624
1626.871094	915.689331
1625.787109	860.189148
1624.703125	873.880005
1623.619141	876.039490
1622.533203	878.198181
1621.449219	882.660706
1620.363281	841.037476
1619.279297	863.935303
1618.193359	831.542786
1617.107422	900.495667
1616.021484	872.713196
1614.935547	821.917053
1613.849609	849.402649
1612.763672	844.657715
1611.677734	899.743835
1610.591797	814.465759
1609.503906	805.128235
1608.417969	823.393555
1607.330078	823.256042
1606.242188	832.315308
1605.156250	788.498474
1604.068359	864.215454
1602.980469	760.658264
1601.892578	781.210266
1600.802734	787.971619
1599.714844	794.730652
1598.626953	790.004761
1597.537109	760.022888
1596.449219	810.402588
1595.359375	874.537598
1594.269531	748.166931
1593.181641	819.174683
1592.091797	773.153320
1591.001953	770.730225
1589.910156	731.612610
1588.820313	818.627075
1587.730469	756.587585
1586.640625	829.814941
1585.548828	740.291199
1584.458984	776.832031
1583.367188	749.208252
1582.275391	790.316956
1581.183594	755.828918
1580.091797	707.612366
1579.000000	748.707275
1577.908203	702.797241
1576.816406	785.078613
1575.724609	732.312378
1574.630859	789.392212
1573.539063	825.863586
1572.445313	798.277466
1571.351563	809.578674
1570.259766	809.443237
1569.166016	717.860657
1568.072266	779.457092
1566.978516	788.468384
1565.882813	774.626282
1564.789063	792.773865
1563.695313	767.514282
1562.599609	774.237488
1561.505859	840.329590
1560.410156	792.243408
1559.314453	817.220947
1558.220703	819.366577
1557.125000	837.485291
1556.029297	894.384949
1554.933594	841.767395
1553.835938	773.201599
1552.740234	820.961609
1551.644531	832.224548
1550.546875	843.483643
1549.451172	779.521973
1548.353516	824.969910
1547.255859	845.338684
1546.158203	797.355774
1545.060547	767.611206
1543.962891	797.088867
1542.865234	790.124329
1541.767578	769.502319
1540.669922	783.031006
1539.570313	755.589417
1538.472656	798.697205
1537.373047	716.659546
1536.273438	739.286804
1535.175781	780.101257
1534.076172	741.313171
1532.976563	727.547485
1531.876953	729.698853
1530.775391	731.849426
1529.675781	772.630859
1528.576172	733.876343
1527.474609	763.285278
1526.375000	772.242615
1525.273438	772.113220
1524.171875	692.514954
1523.072266	762.773926
1521.970703	710.441162
1520.869141	757.979553
1519.767578	751.045471
1518.664063	735.039124
1517.562500	780.281128
1516.460938	764.275269
1515.357422	734.669678
1514.253906	659.731628
1513.152344	702.689087
1512.048828	686.706848
1510.945313	713.783447
1509.841797	666.086243
1508.738281	740.726868
1507.634766	715.689453
1506.531250	699.718262
1505.425781	740.354370
1504.322266	706.274780
1503.216797	665.416565
1502.113281	692.460327
1501.007813	708.182129
1499.902344	732.947449
1498.796875	687.588440
1497.691406	732.701660
1496.585938	716.751465
1495.480469	723.413269
1494.375000	714.250793
1493.267578	698.311646
1492.162109	734.346985
1491.054688	625.784607
1489.947266	688.925293
1488.841797	709.135254
1487.734375	629.985840
1486.626953	684.063354
1485.519531	672.662354
1484.412109	722.200806
1483.302734	737.875122
1482.195313	742.263611
1481.087891	728.604614
1479.978516	748.780640
1478.869141	712.575195
1477.761719	701.182617
1476.652344	655.980408
1475.542969	673.901123
1474.433594	716.604004
1473.324219	691.699707
1472.214844	630.760315
1471.103516	648.673157
1469.994141	722.878906
1468.882813	675.474365
1467.773438	693.370605
1466.662109	704.508362
1465.550781	702.139648
1464.441406	724.522461
1463.330078	701.903931
1462.218750	728.777893
1461.105469	737.651245
1459.994141	674.567749
1458.882813	728.410828
1457.769531	708.058289
1456.658203	680.970276
1455.544922	653.891357
1454.431641	748.141785
1453.320313	673.888428
1452.207031	783.825195
1451.093750	754.501526
1449.980469	671.303772
1448.865234	698.128479
1447.751953	693.522400
1446.638672	686.673767
1445.523438	661.878235
1444.410156	715.605713
1443.294922	684.084900
1442.179688	672.757324
1441.064453	690.581482
1439.949219	708.399658
1438.833984	685.866699
1437.718750	705.920593
1436.603516	654.267212
1435.486328	712.404175
1434.371094	689.885559
1433.253906	667.374512
1432.138672	691.892883
1431.021484	669.388977
1429.904297	680.468384
1428.787109	698.258057
1427.669922	731.705200
1426.552734	727.107666
1425.435547	709.090454
1424.316406	695.552246
1423.199219	686.490784
1422.080078	708.732910
1420.962891	697.436829
1419.843750	735.314575
1418.724609	665.917664
1417.605469	685.913879
1416.486328	679.096924
1415.367188	692.383728
1414.248047	658.770508
1413.128906	732.340271
1412.009766	729.984741
1410.888672	685.222107
1409.767578	694.033325
1408.648438	689.454163
1407.527344	713.877747
1406.406250	758.367493
1405.285156	695.796631
1404.164063	709.058044
1403.042969	704.480042
1401.921875	690.987549
1400.798828	610.641113
1399.677734	672.929138
1398.554688	737.424072
1397.433594	699.432617
1396.310547	712.677673
1395.187500	665.796143
1394.064453	712.437866
1392.941406	645.538147
1391.818359	649.880737
1390.695313	698.726746
1389.572266	714.183228
1388.447266	689.593567
1387.324219	676.132813
1386.199219	642.662781
1385.074219	673.681824
1383.951172	664.676453
1382.826172	673.455017
1381.701172	693.341919
1380.576172	730.997070
1379.449219	666.450439
1378.324219	732.972107
1377.199219	675.109070
1376.072266	710.521484
1374.947266	654.901672
1373.820313	699.184082
1372.693359	694.627808
1371.566406	703.386353
1370.439453	645.586609
1369.312500	665.441101
1368.185547	714.119873
1367.058594	662.999573
1365.931641	629.632690
1364.802734	713.759033
1363.675781	633.853149
1362.546875	658.121216
1361.417969	658.010315
1360.289063	642.393433
1359.160156	693.225037
1358.031250	639.962585
1356.902344	648.710876
1355.773438	684.020081
1354.644531	655.132141
1353.513672	639.531372
1352.384766	632.786011
1351.253906	683.559143
1350.123047	685.655762
1348.994141	650.157471
1347.863281	687.635681
1346.732422	634.463623
1345.601563	612.253662
1344.468750	581.211426
1343.337891	645.190613
1342.207031	620.780823
1341.074219	647.181885
1339.943359	691.241577
1338.810547	627.091125
1337.677734	651.270020
1336.544922	598.184448
1335.412109	637.808716
1334.279297	624.461670
1333.146484	602.294312
1332.013672	611.016113
1330.878906	659.433228
1329.746094	652.706726
1328.611328	634.958923
1327.478516	608.399658
1326.343750	610.501038
1325.208984	656.673706
1324.074219	616.904785
1322.939453	634.423584
1321.804688	610.089233
1320.669922	627.603210
1319.533203	649.514771
1318.398438	642.801086
1317.261719	638.290649
1316.126953	607.374084
1314.990234	657.877563
1313.853516	629.168030
1312.716797	673.052185
1311.580078	587.171936
1310.443359	633.247131
1309.306641	580.378540
1308.167969	558.300293
1307.031250	630.728882
1305.892578	628.425110
1304.755859	601.955994
1303.617188	588.675110
1302.478516	617.126038
1301.339844	584.084778
1300.201172	623.504028
1299.062500	640.959290
1297.923828	629.877625
1296.783203	550.775574
1295.644531	618.695129
1294.503906	524.266541
1293.365234	644.804810
1292.224609	635.924500
1291.083984	642.394531
1289.943359	574.330872
1288.802734	613.685059
1287.662109	635.495056
1286.521484	635.387695
1285.380859	606.802307
1284.238281	608.890076
1283.097656	602.217590
1281.955078	582.410217
1280.814453	604.203247
1279.671875	577.835938
1278.529297	619.317932
1277.386719	551.384277
1276.244141	667.237244
1275.101563	590.569275
1273.957031	570.787170
1272.814453	636.287354
1271.669922	614.317932
1270.527344	596.727600
1269.382813	598.812195
1268.238281	603.081177
1267.093750	581.132141
1265.949219	587.586975
1264.804688	578.751770
1263.660156	620.142334
1262.515625	620.037476
1261.369141	657.041321
1260.224609	667.842712
1259.078125	652.454956
1257.933594	671.980408
1256.787109	575.885864
1255.640625	687.020325
1254.494141	691.265442
1253.347656	577.774048
1252.201172	606.015198
1251.052734	616.810425
1249.906250	634.139465
1248.759766	581.740906
1247.611328	603.426880
1246.462891	601.146790
1245.316406	646.776794
1244.167969	620.539429
1243.019531	629.142273
1241.871094	637.742249
1240.720703	670.277771
1239.572266	644.054077
1238.423828	628.716675
1237.273438	652.536621
1236.125000	650.251465
1234.974609	665.362122
1233.824219	660.901550
1232.673828	654.268738
1231.525391	660.677856
1230.373047	673.603516
1229.222656	643.073914
1228.072266	710.302612
1226.921875	627.653564
1225.769531	712.233643
1224.619141	690.402283
1223.466797	694.626831
1222.314453	661.954163
1221.162109	661.842102
1220.009766	692.104553
1218.857422	691.987366
1217.705078	678.856995
1216.552734	693.921570
1215.398438	726.326172
1214.246094	698.022156
1213.091797	721.745361
1211.939453	715.122070
1210.785156	695.500916
1209.630859	745.208069
1208.476563	697.431274
1207.322266	736.293396
1206.167969	744.829529
1205.013672	707.901184
1203.857422	722.932495
1202.703125	783.404907
1201.546875	735.670044
1200.392578	772.322693
1199.236328	692.160767
1198.080078	739.621460
1196.923828	791.390625
1195.767578	797.742249
1194.611328	832.191650
1193.453125	847.178833
1192.296875	825.427246
1191.140625	823.126892
1189.982422	818.667236
1188.824219	859.562927
1187.667969	798.955750
1186.509766	846.317749
1185.351563	856.967346
1184.193359	906.461609
1183.033203	873.939819
1181.875000	906.154358
1180.716797	877.957825
1179.556641	920.944580
1178.398438	884.129395
1177.238281	907.696045
1176.078125	875.206909
1174.917969	896.611633
1173.757813	933.093811
1172.597656	973.872681
1171.437500	932.777344
1170.277344	967.080872
1169.117188	966.916809
1167.955078	949.527832
1166.792969	942.908508
1165.632813	979.339294
1164.470703	985.629272
1163.308594	1024.192017
1162.146484	970.235779
1160.984375	1090.523438
1159.822266	976.358337
1158.660156	1055.750244
1157.496094	1044.821899
1156.333984	1141.370972
1155.169922	1022.976257
1154.005859	1059.331421
1152.843750	1104.267578
1151.679688	1106.228271
1150.515625	1075.973389
1149.351563	1142.356689
1148.185547	1127.134277
1147.021484	1120.503296
1145.857422	1188.991333
1144.691406	1132.997925
1143.527344	1130.660156
1142.361328	1229.142822
1141.195313	1143.144775
1140.029297	1213.714966
1138.863281	1164.196655
1137.697266	1245.457520
1136.531250	1178.804321
1135.363281	1277.178345
1134.197266	1291.959351
1133.029297	1306.735229
1131.863281	1319.364380
1130.695313	1269.886597
1129.527344	1318.916260
1128.359375	1337.958862
1127.191406	1423.346436
1126.023438	1384.584473
1124.855469	1384.349365
1123.687500	1426.899780
1122.517578	1469.435669
1121.349609	1417.860840
1120.179688	1434.725464
1119.009766	1500.754272
1117.839844	1466.299927
1116.671875	1515.204102
1115.500000	1506.399658
1114.330078	1544.598389
1113.160156	1574.240112
1111.990234	1561.158691
1110.818359	1580.110962
1109.648438	1648.159912
1108.476563	1603.053955
1107.304688	1713.759766
1106.132813	1756.145142
1104.962891	1685.442139
1103.789063	1781.145386
1102.617188	1844.825073
1101.445313	1870.099976
1100.273438	1844.197754
1099.099609	1835.357666
1097.927734	1918.166138
1096.753906	1879.483154
1095.580078	1964.386353
1094.406250	2076.953369
1093.232422	2136.235840
1092.058594	2131.613770
1090.884766	2199.383057
1089.710938	2122.373535
1088.535156	2279.514160
1087.361328	2264.230225
1086.185547	2287.249512
1085.011719	2316.642822
1083.835938	2333.264160
1082.660156	2322.234375
1081.484375	2504.694824
1080.308594	2461.751221
1079.132813	2601.615723
1077.955078	2522.542725
1076.779297	2570.983643
1075.601563	2598.163574
1074.425781	2635.954346
1073.248047	2667.361328
1072.070313	2639.303955
1070.892578	2653.715576
1069.714844	2670.244873
1068.537109	2686.768311
1067.359375	2637.507568
1066.179688	2745.256592
1065.001953	2797.818359
1063.822266	2818.550049
1062.644531	2828.672607
1061.464844	2840.911377
1060.285156	2804.392578
1059.105469	2719.140625
1057.925781	2909.387695
1056.746094	2838.977051
1055.566406	2895.687256
1054.384766	2814.713135
1053.205078	2996.343750
1052.023438	2824.340576
1050.843750	2950.869873
1049.662109	2869.941162
1048.480469	2816.549316
1047.298828	2930.320313
1046.117188	2893.859619
1044.935547	2925.092041
1043.751953	2973.231201
1042.570313	2894.495117
1041.388672	2855.950928
1040.205078	2825.874023
1039.021484	2914.148193
1037.837891	2814.346680
1036.656250	2858.229980
1035.472656	2826.060547
1034.287109	2869.926514
1033.103516	2784.980225
1031.919922	2822.504883
1030.734375	2961.330811
1029.550781	2840.536133
1028.365234	2844.271729
1027.179688	2860.664063
1025.996094	2826.427979
1024.810547	2733.154053
1023.625000	2781.184814
1022.439453	2734.330322
1021.251953	2782.344482
1020.066406	2855.631592
1018.878906	2787.717041
1017.693359	2717.718750
1016.505859	2759.383301
1015.318359	2695.731445
1014.132813	2657.369385
1012.945313	2600.072510
1011.755859	2671.197754
1010.568359	2616.022461
1009.380859	2623.993408
1008.193359	2646.688477
1007.003906	2570.510010
1005.814453	2462.810059
1004.626953	2491.829102
1003.437500	2569.194824
1002.248047	2507.795654
1001.058594	2488.452393
999.869141	2551.068848
998.679688	2426.673584
997.488281	2457.769531
996.298828	2415.343994
995.107422	2448.531006
993.917969	2362.030273
992.726563	2342.734131
991.535156	2333.938721
990.343750	2341.934326
989.152344	2387.693848
987.960938	2330.645996
986.769531	2347.027588
985.576172	2275.326416
984.384766	2277.034668
983.191406	2324.862305
982.000000	2301.409180
980.806641	2221.381836
979.613281	2248.241211
978.419922	2237.382813
977.226563	2199.298340
976.033203	2167.509766
974.837891	2234.142822
973.644531	2219.106689
972.449219	2185.237549
971.255859	2132.544678
970.060547	2188.676025
968.865234	2081.606689
967.669922	2077.067627
966.474609	2074.621582
965.279297	2061.721191
964.083984	2053.006348
962.886719	2098.641846
961.691406	2010.506348
960.494141	2045.685547
959.298828	2016.087036
958.101563	2001.120483
956.904297	2071.787354
955.707031	2073.521484
954.509766	2006.358154
953.312500	1968.441528
952.113281	1938.886108
950.916016	2032.456787
949.716797	2017.504883
948.519531	2042.192017
947.320313	1966.759766
946.121094	2006.043945
944.921875	1976.511963
943.722656	1913.636963
942.523438	1946.657227
941.324219	1948.408203
940.125000	1958.492554
938.923828	2010.236328
937.724609	1899.504639
936.523438	1915.839233
935.322266	1932.168213
934.121094	1886.039917
932.919922	1829.520386
931.718750	1868.746704
930.517578	1895.475586
929.316406	1861.866577
928.113281	1932.266113
926.912109	1819.637817
925.708984	1898.337280
924.505859	1771.201172
923.304688	1814.546997
922.101563	1851.643433
920.898438	1845.093262
919.695313	1792.841187
918.490234	1775.917603
917.287109	1767.306763
916.083984	1831.372192
914.878906	1756.321655
913.673828	1695.826538
912.470703	1801.377563
911.265625	1709.770752
910.060547	1757.194092
908.855469	1854.383179
907.648438	1719.262329
906.443359	1768.733032
905.238281	1718.673706
904.031250	1666.558594
902.826172	1689.070435
901.619141	1620.401123
900.412109	1630.482544
899.205078	1706.845703
897.998047	1621.639893
896.791016	1689.695435
895.583984	1658.350830
894.375000	1616.666870
893.167969	1647.434570
891.958984	1616.113037
890.751953	1551.699341
889.542969	1677.616699
888.333984	1580.122803
887.125000	1670.838379
885.916016	1631.269287
884.707031	1608.251099
883.496094	1541.837646
882.287109	1605.633545
881.076172	1588.829590
879.867188	1605.083252
878.656250	1652.312134
877.445313	1596.272949
876.234375	1608.387451
875.023438	1665.912964
873.812500	1547.980957
872.601563	1578.669922
871.388672	1594.905396
870.177734	1485.297607
868.964844	1598.483765
867.753906	1614.707275
866.541016	1573.193481
865.328125	1533.755249
864.115234	1529.369995
862.902344	1459.040771
861.687500	1475.274048
860.474609	1578.025391
859.261719	1528.321167
858.046875	1515.702759
856.832031	1513.383789
855.619141	1445.187988
854.404297	1461.406738
853.189453	1529.068848
851.974609	1551.440308
850.759766	1569.689575
849.542969	1464.517944
848.328125	1451.927368
847.111328	1459.903076
845.896484	1541.886475
844.679688	1519.011475
843.462891	1473.537720
842.246094	1497.942261
841.029297	1454.541992
839.812500	1505.644531
838.595703	1472.526367
837.378906	1414.779053
836.160156	1433.013428
834.941406	1459.452271
833.724609	1436.626221
832.505859	1399.444092
831.287109	1436.132935
830.068359	1433.835205
828.849609	1324.890503
827.630859	1375.927124
826.410156	1353.138550
825.191406	1389.803589
823.970703	1389.564941
822.751953	1368.834839
821.531250	1477.186279
820.310547	1448.254272
819.089844	1380.418213
817.869141	1402.706421
816.648438	1433.176392
815.427734	1430.883179
814.205078	1438.824097
812.984375	1467.225708
811.761719	1378.996094
810.539063	1427.854492
809.318359	1435.790283
808.095703	1478.487305
806.873047	1423.029419
805.648438	1492.288818
804.425781	1471.593628
803.203125	1530.603027
801.978516	1424.094727
800.755859	1525.991333
799.531250	1456.284912
798.306641	1578.562012
797.082031	1498.661499
795.857422	1496.362549
794.632813	1581.830200
793.408203	1585.639771
792.183594	1542.519409
790.957031	1538.174194
789.732422	1537.909668
788.505859	1560.077759
787.279297	1476.211914
786.052734	1539.155151
784.826172	1555.196533
783.599609	1554.929077
782.373047	1644.314575
781.146484	1615.510742
779.917969	1570.421875
778.691406	1545.713623
777.462891	1614.677246
776.234375	1563.504150
775.007813	1546.951538
773.779297	1632.160034
772.550781	1585.079712
771.320313	1592.944702
770.091797	1560.125610
768.863281	1604.598877
767.632813	1529.088379
766.404297	1547.122314
765.173828	1630.195190
763.943359	1585.203735
762.712891	1546.323730
761.482422	1529.804565
760.251953	1712.354980
759.021484	1600.359985
757.789063	1589.931763
756.558594	1609.960205
755.326172	1619.832275
754.095703	1629.701050
752.863281	1718.703735
751.630859	1647.399292
750.398438	1714.055054
749.166016	1644.803833
747.933594	1691.159302
746.699219	1666.539063
745.466797	1666.252075
744.232422	1678.125366
742.998047	1710.258301
741.765625	1752.510254
740.531250	1821.081299
739.296875	1766.083862
738.062500	1763.754639
736.826172	1834.312744
735.591797	1811.729736
734.357422	1754.747559
733.121094	1881.930786
731.886719	1867.443970
730.650391	1885.328125
729.414063	1893.093384
728.177734	1848.279053
726.941406	1934.899536
725.705078	1877.964355
724.466797	1857.429321
723.230469	1879.337891
721.992188	1893.157104
720.755859	1993.835571
719.517578	1936.938965
718.279297	1976.993042
717.041016	1988.766479
715.802734	1994.479736
714.564453	2093.035400
713.326172	2118.908447
712.085938	2068.101807
710.847656	2138.351074
709.607422	2105.710938
708.367188	2103.331055
707.128906	2100.952148
705.888672	2104.621582
704.648438	2114.336426
703.406250	2196.595947
702.166016	2246.589111
700.925781	2113.242432
699.683594	2191.431152
698.443359	2100.430420
697.201172	2214.836914
695.958984	2280.888428
694.716797	2179.855225
693.474609	2203.628418
692.232422	2291.780518
690.990234	2243.103027
689.746094	2274.898438
688.503906	2352.937012
687.259766	2344.488037
686.017578	2352.125000
684.773438	2341.668945
683.529297	2365.380615
682.285156	2457.401123
681.041016	2436.887207
679.794922	2474.630371
678.550781	2434.037598
677.306641	2425.585693
676.060547	2439.219971
674.814453	2438.798828
673.570313	2498.584473
672.324219	2562.362549
671.078125	2509.758789
669.830078	2529.384033
668.583984	2575.073975
667.337891	2570.618896
666.089844	2534.088135
664.843750	2583.762207
663.595703	2589.328125
662.347656	2612.926270
661.099609	2620.488525
659.851563	2712.177734
658.603516	2659.637939
657.355469	2729.262207
656.107422	2676.737305
654.857422	2626.232422
653.609375	2663.804199
652.359375	2747.386230
651.109375	2706.898193
649.859375	2732.434570
648.609375	2719.962402
647.359375	2795.478271
646.109375	2769.004395
644.859375	2822.496826
643.607422	2750.059814
642.357422	2785.552734
641.105469	2886.964111
639.853516	2810.557861
638.601563	2850.016113
637.349609	2843.532715
636.097656	2926.894775
634.845703	2836.560791
633.593750	2750.249756
632.339844	2781.701904
631.087891	2781.220703
629.833984	2850.557373
628.580078	2722.419922
627.326172	2821.654053
626.072266	2874.997314
624.818359	2842.605469
623.564453	2858.058105
622.310547	2843.614746
621.054688	2807.260010
619.800781	2836.654785
618.544922	2838.155518
617.289063	2897.404785
616.033203	2855.092529
614.777344	2888.439453
613.521484	2937.697266
612.265625	2883.459717
611.009766	2964.535156
609.751953	2912.301025
608.496094	2957.542236
607.238281	2871.520996
605.980469	3024.118652
604.722656	3019.619385
603.464844	3048.909912
602.207031	3064.279785
600.949219	3101.499756
599.689453	3081.097412
598.431641	3128.232178
597.171875	3117.761230
595.914063	3091.409912
594.654297	3134.547852
593.394531	3201.488281
592.134766	3270.389893
590.875000	3212.284180
589.615234	3191.889893
588.353516	3193.320557
587.093750	3220.530518
585.832031	3239.800049
584.572266	3265.010010
583.310547	3321.923828
582.048828	3343.146973
580.787109	3263.312988
579.525391	3324.159424
578.263672	3375.081055
577.000000	3342.810791
575.738281	3417.471191
574.474609	3375.306152
573.210938	3473.686768
571.949219	3445.379150
570.685547	3361.679688
569.421875	3406.597412
568.158203	3465.344971
566.892578	3581.422119
565.628906	3458.211670
564.365234	3505.057861
563.099609	3510.379883
561.833984	3440.603516
560.568359	3600.052979
559.302734	3461.141113
558.037109	3638.308594
556.771484	3615.954102
555.505859	3512.652588
554.240234	3592.984131
552.972656	3675.261475
551.707031	3654.889160
550.439453	3614.792480
549.171875	3681.240479
547.904297	3682.574219
546.636719	3581.357422
545.369141	3720.731934
544.101563	3840.343506
542.832031	3833.763916
541.564453	3748.356445
540.294922	3798.936523
539.025391	3863.289307
537.757813	3929.589355
536.488281	4066.763672
535.218750	3985.327393
533.947266	4077.164063
532.677734	4104.013184
531.408203	4014.740479
530.136719	4183.263184
528.867188	4239.589355
527.595703	4266.391113
526.324219	4242.050293
525.052734	4416.314941
523.781250	4443.071289
522.509766	4328.293945
521.236328	4498.521484
519.964844	4491.845215
518.691406	4493.029785
517.419922	4580.641113
516.146484	4554.314453
514.873047	4659.556152
513.599609	4723.533203
512.326172	4752.156250
511.052734	4694.416504
509.777344	4842.729004
508.503906	4786.955078
507.230469	4725.316406
505.955078	5010.828125
504.679688	5039.370117
503.404297	4881.654297
502.128906	4912.168457
500.853516	5085.738770
499.578125	5069.179199
498.300781	5044.788574
497.025391	5088.963867
495.748047	4992.114746
494.472656	5077.404297
493.195313	5004.083984
491.917969	5075.639160
490.640625	5125.641113
489.363281	4942.771484
488.085938	5141.466797
486.806641	5031.032227
485.529297	5047.759277
484.250000	4933.468262
482.970703	4920.879883
481.693359	4951.299316
480.414063	4926.985840
479.134766	4832.334961
477.853516	4923.318359
476.574219	5006.456055
475.294922	4864.968262
474.013672	5032.052246
472.734375	4841.799805
471.453125	4751.165527
470.171875	4693.740723
468.890625	4817.808105
467.609375	4815.019043
466.328125	4781.020020
465.044922	4694.375000
463.763672	4619.459473
462.482422	4618.655273
461.199219	4586.663086
459.916016	4693.056641
458.632813	4664.958984
457.349609	4658.302246
456.066406	4704.241699
454.783203	4574.881836
453.500000	4665.605957
452.214844	4524.616211
450.931641	4500.469727
449.646484	4482.169922
448.361328	4436.633789
447.076172	4589.560059
445.791016	4530.404297
444.505859	4453.765137
443.220703	4474.379395
441.933594	4533.870117
440.648438	4455.325684
439.361328	4458.437012
438.076172	4376.046387
436.789063	4406.369629
435.501953	4454.164551
434.214844	4441.735352
432.927734	4349.695801
431.638672	4350.879395
430.351563	4223.946289
429.062500	4395.942383
427.775391	4317.557617
426.486328	4322.625488
425.197266	4331.570801
423.908203	4342.452637
422.619141	4308.730957
421.330078	4414.612793
420.041016	4411.904785
418.750000	4304.539551
417.460938	4309.602539
416.169922	4322.413086
414.878906	4327.470703
413.587891	4146.598145
412.296875	4178.793945
411.005859	4257.444824
409.714844	4196.694336
408.421875	4201.768555
407.130859	4290.048828
405.837891	4190.629395
404.546875	4211.176758
403.253906	4268.463867
401.960938	4316.062012
400.667969	4189.639160
399.375000	4260.431152
398.080078	4099.272949
396.787109	4057.978027
395.492188	4151.939453
394.199219	4102.922852
392.904297	4090.618652
391.609375	4078.318604
390.314453	4141.319336
389.019531	4082.686279
387.724609	4191.984375
386.429688	4137.221680
385.132813	4080.548828
383.837891	4079.836426
382.541016	4133.126953
381.244141	4072.627197
379.947266	4172.171875
378.650391	4017.230957
377.353516	4028.093506
376.056641	4137.228027
374.759766	4119.165527
373.460938	4101.109375
372.162109	4092.689453
370.865234	4078.495361
369.566406	4050.828857
368.267578	4055.896240
366.968750	4082.132324
365.669922	4158.391113
364.369141	4090.326172
363.070313	4078.069824
361.769531	3977.346680
360.470703	4059.338623
359.169922	4035.557861
357.869141	4194.401367
356.568359	4024.538086
355.267578	4106.463867
353.966797	4084.612061
352.664063	4049.321533
351.363281	4173.452148
350.060547	4117.035645
348.759766	4070.237549
347.457031	4142.470703
346.154297	4162.857910
344.851563	4112.238281
343.548828	4188.262695
342.246094	4143.411133
340.941406	4140.768555
339.638672	4243.593750
338.333984	4074.134521
337.029297	3985.244385
335.724609	4066.959961
334.419922	4047.086182
333.115234	4107.687012
331.810547	4097.391113
330.505859	4198.181152
329.199219	4185.957520
327.894531	4160.335938
326.587891	4002.642090
325.281250	4038.305664
323.974609	4024.204102
322.667969	3855.136719
321.361328	3963.496582
320.054688	3914.989258
318.748047	4000.354004
317.439453	3892.588623
316.130859	3895.730469
314.824219	3919.894287
313.515625	3965.069336
312.207031	3937.627686
310.898438	3942.668945
309.589844	4014.553955
308.279297	3989.027344
306.970703	3984.510498
305.660156	4023.899170
304.351563	4061.365234
303.041016	4011.041016
301.730469	4010.338623
300.419922	3963.855469
299.109375	3839.193359
297.798828	3945.305420
296.486328	4013.249512
295.175781	3976.328857
293.863281	3901.303711
292.550781	3881.565186
291.238281	3928.515137
289.927734	3988.782471
288.613281	3986.178955
287.300781	4071.169434
285.988281	4011.436523
284.673828	4010.733643
283.361328	3941.515869
282.046875	3967.465088
280.732422	3957.257080
279.419922	3996.509766
278.105469	3921.636719
276.789063	4016.025635
275.474609	3935.471680
274.160156	4027.924072
272.843750	3968.301514
271.529297	3878.296631
270.212891	3927.013184
268.896484	3987.109619
267.580078	3921.837891
266.263672	4023.688721
264.947266	4017.287598
263.628906	4113.391113
262.312500	3955.147217
260.994141	4102.460938
259.677734	3995.498291
258.359375	3994.797363
257.041016	3878.408203
255.722656	4038.905029
254.404297	4011.654297
253.085938	3927.547119
251.765625	3951.495605
250.447266	3912.905029
249.126953	4065.675781
247.806641	3928.579834
246.486328	4096.444824
245.166016	4035.132813
243.845703	4059.036377
242.525391	4012.895020
241.205078	4165.486816
239.882813	4094.743896
238.562500	4048.619873
237.240234	4119.788086
235.917969	4075.566895
234.595703	4122.123535
233.273438	4115.728027
231.951172	4101.773926
230.628906	4144.520996
229.304688	4153.241211
227.982422	4133.619629
226.658203	4204.671875
225.335938	4152.942383
224.011719	4195.642090
222.687500	4113.725586
221.361328	4143.204102
220.037109	4191.544434
218.712891	4143.635742
217.386719	4210.824219
216.062500	4070.502686
214.736328	4084.874756
213.410156	4159.580078
212.083984	4066.472412
210.757813	4239.169922
209.431641	4155.503418
208.105469	4220.721680
206.777344	4112.596680
205.451172	4172.148438
204.123047	4201.547363
202.794922	4202.691895
201.466797	4275.374512
200.138672	4331.090820
198.810547	4360.440430
197.482422	4359.673828
196.154297	4308.112793
194.824219	4290.427246
193.494141	4250.179688
192.166016	4332.164551
190.835938	4312.603516
189.505859	4392.668457
188.175781	4530.963379
186.843750	4575.261719
185.513672	4478.646973
184.183594	4423.388672
182.851563	4595.383301
181.519531	4630.250000
180.187500	4565.606934
178.857422	4684.930176
177.523438	4550.864258
176.191406	4503.155762
174.859375	4607.418457
173.527344	4512.824707
172.193359	4658.306152
170.859375	4565.611816
169.527344	4703.533203
168.193359	4695.208008
166.859375	4643.783691
165.523438	4577.387695
164.189453	4608.428711
162.855469	4658.188965
161.519531	4694.822266
160.185547	4594.761230
158.849609	4769.922363
157.513672	4746.622559
156.177734	4770.114258
154.841797	4662.625000
153.505859	4757.209961
152.167969	4791.909668
150.832031	4744.314453
149.494141	4736.000000
148.158203	4836.112793
146.820313	4842.737305
145.482422	4795.166016
144.144531	4906.425293
142.804688	4924.241699
141.466797	4975.670898
140.128906	4901.964844
138.789063	4912.303711
137.449219	5042.111328
136.111328	5016.958984
134.771484	5077.656250
133.431641	5158.855469
132.091797	5282.930664
130.750000	5304.380859
129.410156	5256.826660
128.068359	5196.237305
126.728516	5348.179688
125.386719	5304.369629
124.044922	5262.437988
122.703125	5244.741699
121.361328	5303.427246
120.019531	5298.767090
118.675781	5374.181152
117.333984	5432.812012
115.990234	5403.931152
114.646484	5399.255859
113.304688	5424.355469
111.960938	5369.443848
110.615234	5424.302246
109.271484	5592.592285
107.927734	5606.481934
106.582031	5638.958496
105.238281	5541.302246
103.892578	5430.670410
102.546875	5453.869141
101.201172	5660.990234
99.855469	5667.421387
98.509766	5712.852539
97.164063	5683.990723
95.816406	5816.661133
94.470703	5862.040527
93.123047	5833.166992
91.775391	5854.404785
90.427734	5858.937012
89.080078	5861.612305
87.732422	5847.595215
86.384766	5939.277344
85.035156	6082.837402
83.687500	6118.835938
82.337891	6091.809082
80.988281	5999.937500
79.638672	5956.267090
78.289063	5997.818359
76.939453	6246.778320
75.589844	6149.388184
74.240234	6261.233887
72.888672	6219.405762
71.539063	6129.474121
70.187500	5993.314941
68.835938	6068.107422
67.484375	6017.093262
66.132813	6058.565918
64.781250	5959.495605
63.427734	5976.929688
62.076172	6003.599121
60.722656	6015.474609
59.369141	5879.526367
58.015625	5666.033691
56.662109	5334.402832
55.308594	5322.379395
53.955078	5247.581055
52.601563	5006.658203
51.246094	4889.488770
