#Wave		#Intensity
4002.039063	1761.077881
4001.340820	1685.909912
4000.642578	1771.531372
3999.943359	1785.559692
3999.245117	1688.674805
3998.545898	1706.289063
3997.846680	1773.969360
3997.147461	1712.892578
3996.448242	1726.918945
3995.749023	1701.617676
3995.049805	1644.156128
3994.350586	1693.923462
3993.650391	1690.078125
3992.951172	1750.539551
3992.250977	1653.815430
3991.550781	1674.977905
3990.850586	1681.850464
3990.150391	1724.422974
3989.450195	1795.539063
3988.750000	1734.576050
3988.048828	1634.379028
3987.348633	1666.227783
3986.647461	1730.172729
3985.947266	1797.663818
3985.246094	1754.580322
3984.544922	1682.985474
3983.843750	1675.584839
3983.141602	1671.751099
3982.440430	1675.046509
3981.739258	1728.227661
3981.037109	1717.261719
3980.334961	1649.303711
3979.633789	1723.833130
3978.931641	1759.166870
3978.229492	1687.674438
3977.527344	1712.322754
3976.824219	1665.776001
3976.122070	1718.890137
3975.419922	1725.730347
3974.716797	1711.222656
3974.013672	1632.692261
3973.311523	1657.325439
3972.608398	1760.180908
3971.905273	1749.232178
3971.201172	1667.191284
3970.498047	1674.031860
3969.794922	1641.780151
3969.090820	1698.365479
3968.387695	1747.827637
3967.683594	1786.618042
3966.979492	1683.341797
3966.275391	1704.376099
3965.571289	1665.050049
3964.867188	1714.477539
3964.163086	1650.318848
3963.458008	1646.505249
3962.753906	1749.130859
3962.048828	1638.881714
3961.343750	1681.179932
3960.638672	1698.641113
3959.933594	1716.096558
3959.228516	1687.460205
3958.523438	1733.267822
3957.817383	1743.621338
3957.112305	1722.081055
3956.406250	1757.232544
3955.701172	1636.514282
3954.995117	1593.751343
3954.289063	1731.598389
3953.583008	1649.888062
3952.876953	1695.642578
3952.169922	1656.436890
3951.463867	1670.326172
3950.757813	1641.751953
3950.050781	1786.533569
3949.343750	1658.910278
3948.636719	1683.399780
3947.929688	1672.521484
3947.222656	1682.859131
3946.515625	1650.775269
3945.808594	1625.770264
3945.100586	1653.778809
3944.393555	1706.510498
3943.685547	1745.094849
3942.977539	1727.154663
3942.269531	1673.905640
3941.561523	1659.513306
3940.853516	1581.579956
3940.145508	1591.915283
3939.436523	1648.126465
3938.728516	1577.289673
3938.019531	1732.270386
3937.311523	1675.552612
3936.602539	1657.649048
3935.893555	1710.278076
3935.184570	1674.745728
3934.474609	1589.871704
3933.765625	1617.813599
3933.056641	1684.511353
3932.346680	1634.911743
3931.636719	1666.355835
3930.927734	1680.177856
3930.217773	1577.775269
3929.507813	1637.383301
3928.797852	1573.748047
3928.086914	1703.739990
3927.376953	1664.751343
3926.666992	1629.294189
3925.956055	1695.882813
3925.245117	1674.503296
3924.534180	1614.440430
3923.823242	1680.999268
3923.112305	1631.503052
3922.401367	1592.569458
3921.690430	1578.253662
3920.979492	1581.514771
3920.267578	1640.997437
3919.555664	1591.547119
3918.844727	1461.318604
3918.132813	1541.865112
3917.420898	1668.037231
3916.708984	1604.569824
3915.996094	1642.928101
3915.284180	1656.704346
3914.572266	1642.400757
3913.859375	1635.119507
3913.146484	1550.658325
3912.433594	1571.455811
3911.720703	1743.053955
3911.007813	1567.444824
3910.294922	1542.651001
3909.582031	1616.018188
3908.869141	1612.253906
3908.155273	1597.977783
3907.441406	1674.804321
3906.728516	1569.439209
3906.014648	1663.758789
3905.300781	1572.437500
3904.586914	1579.188232
3903.872070	1624.447388
3903.158203	1470.168945
3902.444336	1644.925049
3901.729492	1630.663940
3901.014648	1528.939453
3900.300781	1605.653442
3899.585938	1517.955933
3898.871094	1626.120361
3898.155273	1531.454712
3897.440430	1569.663940
3896.725586	1534.458618
3896.009766	1471.306152
3895.294922	1684.217896
3894.579102	1586.125000
3893.863281	1488.063477
3893.147461	1613.556396
3892.431641	1693.613159
3891.715820	1515.278687
3890.999023	1612.779785
3890.283203	1595.069458
3889.566406	1584.344238
3888.850586	1615.492676
3888.133789	1521.040527
3887.416992	1656.831055
3886.700195	1586.815063
3885.983398	1659.786377
3885.265625	1450.336914
3884.548828	1540.735718
3883.831055	1547.458984
3883.114258	1595.996582
3882.396484	1658.455200
3881.678711	1598.968140
3880.960938	1525.567871
3880.243164	1591.490112
3879.525391	1622.572021
3878.806641	1465.650635
3878.088867	1528.069946
3877.370117	1531.304932
3876.652344	1656.327759
3875.933594	1551.688354
3875.214844	1589.703613
3874.496094	1565.102539
3873.777344	1537.031860
3873.057617	1693.245361
3872.338867	1606.065430
3871.619141	1525.864990
3870.900391	1560.372314
3870.180664	1563.596680
3869.460938	1712.732178
3868.741211	1566.568604
3868.021484	1635.776978
3867.301758	1461.893066
3866.581055	1621.364746
3865.861328	1617.633301
3865.140625	1561.841675
3864.420898	1544.240112
3863.700195	1554.401367
3862.979492	1564.559326
3862.258789	1526.154419
3861.538086	1494.697876
3860.816406	1605.415527
3860.095703	1580.890015
3859.374023	1500.911255
3858.653320	1587.314331
3857.931641	1604.385742
3857.209961	1482.865967
3856.488281	1617.727417
3855.766602	1624.395020
3855.044922	1606.819580
3854.322266	1575.400024
3853.600586	1561.299927
3852.877930	1595.662598
3852.156250	1643.857178
3851.433594	1508.645874
3850.710938	1563.758179
3849.988281	1542.752808
3849.264648	1525.212646
3848.541992	1587.211670
3847.819336	1614.616455
3847.095703	1586.702637
3846.372070	1527.690796
3845.649414	1603.472412
3844.925781	1623.946533
3844.202148	1578.775635
3843.478516	1502.532227
3842.753906	1602.444092
3842.030273	1574.563110
3841.305664	1598.477661
3840.582031	1515.376099
3839.857422	1611.770264
3839.132813	1518.340942
3838.408203	1594.002319
3837.683594	1528.202881
3836.958984	1558.999878
3836.234375	1513.918579
3835.508789	1523.153320
3834.783203	1532.388062
3834.058594	1541.622803
3833.333008	1550.857544
3832.607422	1547.163086
3831.881836	1450.448120
3831.156250	1529.443359
3830.430664	1549.862915
3829.704102	1559.945190
3828.978516	1521.821655
3828.251953	1566.329956
3827.525391	1597.056152
3826.798828	1648.420776
3826.072266	1586.221436
3825.345703	1620.369873
3824.619141	1602.911499
3823.892578	1612.971924
3823.165039	1554.256714
3822.437500	1529.941040
3821.710938	1478.132935
3820.983398	1567.257080
3820.255859	1597.933472
3819.528320	1587.369629
3818.800781	1552.761963
3818.072266	1549.078247
3817.344727	1572.869385
3816.616211	1452.438965
3815.888672	1514.002197
3815.160156	1657.927002
3814.431641	1633.637085
3813.703125	1451.507690
3812.974609	1636.544189
3812.245117	1560.813843
3811.516602	1570.853027
3810.788086	1553.454834
3810.058594	1481.202881
3809.329102	1583.810181
3808.599609	1569.845825
3807.870117	1679.260132
3807.140625	1545.356934
3806.411133	1500.571655
3805.681641	1551.712158
3804.951172	1558.313110
3804.221680	1568.336304
3803.491211	1516.728394
3802.760742	1554.140503
3802.030273	1598.386108
3801.299805	1563.908691
3800.569336	1563.657959
3799.837891	1570.249268
3799.107422	1539.213257
3798.375977	1501.347290
3797.645508	1631.042969
3796.914063	1600.012085
3796.182617	1657.866333
3795.451172	1428.612427
3794.719727	1503.561401
3793.988281	1534.070190
3793.255859	1554.320801
3792.524414	1584.811401
3791.791992	1564.067383
3791.059570	1416.995483
3790.327148	1631.843994
3789.594727	1600.862183
3788.862305	1552.826294
3788.129883	1579.875488
3787.397461	1525.034790
3786.664063	1572.546631
3785.931641	1637.096313
3785.198242	1500.431030
3784.464844	1571.790527
3783.731445	1741.987427
3782.998047	1598.554077
3782.264648	1496.061279
3781.531250	1570.782959
3780.796875	1638.666992
3780.063477	1515.779419
3779.329102	1518.942261
3778.594727	1491.457520
3777.860352	1518.455322
3777.125977	1511.403809
3776.391602	1558.810791
3775.657227	1541.546021
3774.921875	1616.152344
3774.187500	1517.238647
3773.452148	1547.607544
3772.716797	1520.153076
3771.981445	1587.914429
3771.246094	1584.260132
3770.510742	1617.997803
3769.775391	1604.144043
3769.040039	1614.081055
3768.303711	1539.076904
3767.568359	1562.609009
3766.832031	1470.654907
3766.095703	1572.295776
3765.359375	1585.625244
3764.623047	1548.028198
3763.886719	1629.242310
3763.149414	1615.406250
3762.413086	1557.463501
3761.675781	1519.895020
3760.939453	1648.550415
3760.202148	1577.063965
3759.464844	1641.240112
3758.727539	1552.825317
3757.990234	1637.324097
3757.251953	1515.044678
3756.514648	1630.021729
3755.776367	1555.218384
3755.039063	1578.683228
3754.300781	1490.363281
3753.562500	1628.976929
3752.824219	1493.271729
3752.085938	1628.454834
3751.346680	1543.568359
3750.608398	1506.091797
3749.870117	1624.288086
3749.130859	1610.494141
3748.391602	1576.407593
3747.652344	1623.507202
3746.913086	1589.429443
3746.173828	1555.362427
3745.434570	1632.868896
3744.695313	1568.384521
3743.955078	1618.827148
3743.214844	1561.123779
3742.475586	1594.658691
3741.735352	1618.048950
3740.995117	1600.902466
3740.254883	1522.977417
3739.514648	1701.679932
3738.773438	1559.623291
3738.033203	1576.249634
3737.291992	1673.864136
3736.551758	1585.867065
3735.810547	1659.833130
3735.069336	1608.970581
3734.328125	1564.869385
3733.586914	1594.966797
3732.844727	1581.225342
3732.103516	1597.826660
3731.361328	1621.163330
3730.620117	1681.561035
3729.877930	1664.444946
3729.135742	1576.589966
3728.393555	1653.806885
3727.651367	1670.380371
3726.908203	1596.035156
3726.166016	1636.178833
3725.422852	1713.336548
3724.680664	1588.536865
3723.937500	1564.727295
3723.194336	1779.802368
3722.451172	1722.330444
3721.708008	1644.696533
3720.964844	1731.866943
3720.220703	1650.894043
3719.477539	1674.161865
3718.733398	1569.695435
3717.989258	1717.314453
3717.246094	1730.479858
3716.501953	1652.931396
3715.756836	1750.079834
3715.012695	1739.723755
3714.268555	1739.444946
3713.523438	1665.302002
3712.779297	1759.029175
3712.034180	1651.342896
3711.289063	1788.668091
3710.543945	1768.249634
3709.798828	1767.966309
3709.053711	1700.598267
3708.308594	1730.509033
3707.562500	1757.057007
3706.817383	1699.780884
3706.071289	1833.592041
3705.325195	1786.376587
3704.579102	1796.143311
3703.833008	1795.855591
3703.086914	1741.968750
3702.339844	1842.171753
3701.593750	1694.526489
3700.846680	1761.221558
3700.100586	1794.417236
3699.353516	1817.560547
3698.606445	1807.229126
3697.859375	1796.901001
3697.112305	1816.687012
3696.365234	1879.953003
3695.617188	1752.557983
3694.870117	1758.965210
3694.122070	1905.797607
3693.374023	1785.145386
3692.625977	1831.653442
3691.877930	1868.120728
3691.129883	1824.383789
3690.381836	1867.522217
3689.632813	1930.688477
3688.884766	1950.417725
3688.135742	2050.281738
3687.386719	1909.728516
3686.638672	1919.437012
3685.889648	2002.569824
3685.139648	1895.462402
3684.390625	1988.582031
3683.641602	2044.975586
3682.891602	2047.983398
3682.142578	2037.650513
3681.392578	2050.661621
3680.642578	2016.994385
3679.892578	2043.337891
3679.142578	2013.015259
3678.392578	2175.974121
3677.641602	1985.716431
3676.891602	2078.671875
3676.140625	2075.008301
3675.389648	2028.053833
3674.639648	2230.834717
3673.888672	2140.592529
3673.136719	2180.191895
3672.385742	2113.282715
3671.634766	2206.113281
3670.882813	2345.491211
3670.131836	2341.789063
3669.379883	2304.829102
3668.627930	2178.096924
3667.875977	2320.714844
3667.124023	2290.424561
3666.372070	2266.791260
3665.620117	2415.972412
3664.867188	2412.262695
3664.115234	2468.352783
3663.362305	2461.313965
3662.609375	2533.983398
3661.856445	2463.845947
3661.103516	2539.811523
3660.350586	2622.391846
3659.596680	2502.489502
3658.843750	2595.004150
3658.089844	2624.449463
3657.336914	2478.065430
3656.583008	2796.083496
3655.829102	2676.249023
3655.075195	2715.609375
3654.321289	2735.065674
3653.566406	2714.739258
3652.812500	2757.388672
3652.057617	2876.237793
3651.303711	2895.655518
3650.548828	2812.377197
3649.793945	2765.558105
3649.039063	2821.410889
3648.284180	2960.020264
3647.528320	2741.055908
3646.773438	3055.059570
3646.017578	3133.995605
3645.262695	2968.050293
3644.506836	3063.516602
3643.750977	3026.639893
3642.995117	3112.144043
3642.239258	3214.154541
3641.482422	3256.620361
3640.726563	3252.792969
3639.969727	3245.661621
3639.213867	3268.273926
3638.457031	3347.048584
3637.700195	3386.155273
3636.943359	3243.582031
3636.186523	3325.625244
3635.429688	3443.963623
3634.671875	3483.029297
3633.915039	3479.170410
3633.157227	3481.913330
3632.399414	3560.552246
3631.641602	3556.682617
3630.883789	3585.802002
3630.125977	3588.525879
3629.368164	3716.563232
3628.609375	3696.184326
3627.851563	3590.098145
3627.092773	3737.850342
3626.333984	3687.816895
3625.575195	3716.882080
3624.816406	3778.883789
3624.057617	3804.630859
3623.298828	3807.314697
3622.540039	3898.908691
3621.780273	3835.727295
3621.020508	3805.485352
3620.261719	4051.731689
3619.501953	4018.173828
3618.742188	3849.721680
3617.982422	3997.147461
3617.221680	3930.720947
3616.461914	3928.447754
3615.701172	3926.174561
3614.941406	3923.901367
3614.180664	3921.628174
3613.419922	4072.187012
3612.659180	4124.112793
3611.898438	4093.881592
3611.137695	4264.050781
3610.375977	4197.676270
3609.615234	4131.322754
3608.853516	4245.583984
3608.091797	4258.035645
3607.330078	4185.139648
3606.568359	4250.107910
3605.806641	4160.828613
3605.044922	4225.779785
3604.282227	4316.953125
3603.520508	4345.779785
3602.757813	4194.235352
3601.995117	4229.630371
3601.233398	4255.178711
3600.470703	4326.606934
3599.707031	4479.942871
3598.944336	4289.177734
3598.181641	4337.632813
3597.417969	4415.553223
3596.655273	4467.247559
3595.891602	4443.609375
3595.127930	4488.734375
3594.364258	4560.033203
3593.600586	4503.661621
3592.835938	4499.667480
3592.072266	4397.516113
3591.307617	4576.740234
3590.543945	4507.317871
3589.779297	4490.244141
3589.014648	4541.842285
3588.250000	4547.653809
3587.485352	4553.462891
3586.720703	4572.342773
3585.955078	4548.735840
3585.190430	4384.645020
3584.424805	4671.414063
3583.659180	4553.082520
3582.893555	4552.353027
3582.127930	4594.070801
3581.362305	4586.805664
3580.596680	4690.522461
3579.830078	4614.708496
3579.064453	4649.862793
3578.297852	4802.457031
3577.531250	4648.373047
3576.764648	4732.427246
3575.998047	4653.405762
3575.231445	4571.148926
3574.464844	4648.654785
3573.698242	4820.658691
3572.930664	4715.602051
3572.163086	4679.004883
3571.396484	4707.575684
3570.628906	4762.195801
3569.861328	4699.553711
3569.092773	4649.957031
3568.325195	4802.231934
3567.557617	4785.186523
3566.789063	4696.542969
3566.020508	4806.432617
3565.252930	4792.647949
3564.484375	4782.121094
3563.715820	4852.912598
3562.946289	4712.294434
3562.177734	4893.628418
3561.409180	4805.065430
3560.639648	4882.308594
3559.870117	4888.026367
3559.101563	4913.239258
3558.332031	4717.513672
3557.562500	4707.012695
3556.791992	4865.407227
3556.022461	4802.926758
3555.252930	4831.379395
3554.482422	4963.707031
3553.711914	4897.994629
3552.942383	4932.908691
3552.171875	4789.346191
3551.401367	4950.793945
3550.629883	4966.219727
3549.859375	4822.720703
3549.088867	4890.045410
3548.317383	4834.144531
3547.545898	4985.729492
3546.774414	4907.142578
3546.002930	4993.854004
3545.231445	4811.606445
3544.459961	4801.116699
3543.688477	4842.455566
3542.916016	4828.725586
3542.144531	5103.187500
3541.372070	4953.442871
3540.599609	4774.612793
3539.827148	5006.875977
3539.054688	4944.590332
3538.282227	4879.088867
3537.509766	4910.656250
3536.736328	4997.199219
3535.962891	4854.106445
3535.190430	4872.729004
3534.416992	4985.099121
3533.643555	4764.500000
3532.870117	4944.719727
3532.095703	4804.980469
3531.322266	4891.442871
3530.548828	4897.119629
3529.774414	4938.321777
3529.000000	4982.740234
3528.225586	4856.021484
3527.451172	4874.612305
3526.676758	4857.692871
3525.902344	4915.003906
3525.127930	5007.790039
3524.352539	4758.573730
3523.577148	4880.385742
3522.802734	4998.933105
3522.027344	4965.886230
3521.251953	4900.608887
3520.476563	4874.035156
3519.700195	5005.399414
3518.924805	5004.597168
3518.148438	4755.700195
3517.373047	4854.804688
3516.596680	4924.888672
3515.820313	4792.060059
3515.043945	4891.110840
3514.267578	4842.035645
3513.490234	4902.419434
3512.713867	4737.495117
3511.937500	4733.518066
3511.160156	4661.977539
3510.382813	4851.025391
3509.605469	4689.430664
3508.828125	4801.233398
3508.050781	4839.047852
3507.273438	4854.346680
3506.495117	4757.140137
3505.716797	4704.957520
3504.939453	4739.549805
3504.161133	4780.555664
3503.382813	4776.577637
3502.604492	4807.929199
3501.826172	4784.680664
3501.046875	4857.759766
3500.268555	4619.428711
3499.489258	4615.479004
3498.710938	4717.432129
3497.931641	4691.006836
3497.152344	4613.260742
3496.373047	4660.635254
3495.592773	4634.231934
3494.813477	4623.869629
3494.034180	4693.662109
3493.253906	4590.332520
3492.473633	4692.158203
3491.693359	4697.814941
3490.913086	4671.430176
3490.132813	4600.205078
3489.352539	4673.136230
3488.572266	4566.706543
3487.791016	4722.870117
3487.009766	4782.940430
3486.229492	4654.137207
3485.448242	4451.765625
3484.666992	4652.645996
3483.885742	4565.517090
3483.103516	4644.757324
3482.322266	4612.029297
3481.540039	4716.818848
3480.758789	4431.500977
3479.976563	4635.387207
3479.194336	4548.343750
3478.412109	4665.859375
3477.629883	4585.229492
3476.846680	4475.872559
3476.064453	4420.853027
3475.281250	4621.350586
3474.499023	4598.257324
3473.715820	4485.775391
3472.932617	4520.170898
3472.149414	4522.638184
3471.366211	4410.221680
3470.582031	4508.426270
3469.798828	4376.906738
3469.014648	4392.153809
3468.231445	4509.448242
3467.447266	4371.614258
3466.663086	4370.913574
3465.878906	4580.595703
3465.093750	4375.887207
3464.309570	4397.492188
3463.524414	4269.344238
3462.740234	4462.979492
3461.955078	4465.449219
3461.169922	4471.103027
3460.384766	4464.018066
3459.599609	4437.834473
3458.814453	4300.253906
3458.028320	4449.142578
3457.243164	4356.151367
3456.457031	4291.823730
3455.670898	4322.945801
3454.885742	4191.853516
3454.098633	4299.300293
3453.312500	4298.611328
3452.526367	4291.564453
3451.740234	4154.204590
3450.953125	4118.581543
3450.166016	4276.791992
3449.379883	4390.475098
3448.592773	4215.069824
3447.804688	4268.384277
3447.017578	4305.804688
3446.230469	4349.562500
3445.442383	4310.773438
3444.655273	4122.825684
3443.867188	4230.058105
3443.079102	4270.626953
3442.291016	4136.705078
3441.502930	3986.967041
3440.714844	4284.430176
3439.926758	4039.592529
3439.137695	4257.694824
3438.348633	4196.786621
3437.560547	4161.251953
3436.771484	4087.703613
3435.982422	4169.422852
3435.193359	4213.103027
3434.403320	4022.393555
3433.614258	4176.918457
3432.824219	4109.758301
3432.035156	4137.591309
3431.245117	4083.119385
3430.455078	4082.465088
3429.665039	4135.602051
3428.875000	4005.228027
3428.084961	4058.360107
3427.293945	3902.738525
3426.503906	4031.761719
3425.712891	4056.408936
3424.921875	3973.568604
3424.130859	4020.341309
3423.339844	3994.416016
3422.548828	3917.944336
3421.756836	3996.294678
3420.965820	3904.053955
3420.173828	3919.218750
3419.382813	3890.172119
3418.590820	4028.460938
3417.798828	3901.551514
3417.006836	3809.399414
3416.213867	4067.546631
3415.421875	3956.467041
3414.628906	3839.113525
3413.836914	3873.192871
3413.043945	3815.807861
3412.250977	3853.032959
3411.458008	3738.923584
3410.665039	3782.452637
3409.872070	3781.846436
3409.078125	3778.089111
3408.285156	3796.386719
3407.491211	3855.628418
3406.697266	3666.039307
3405.903320	3841.796387
3405.109375	3825.437988
3404.315430	3632.796387
3403.520508	3865.129150
3402.726563	3779.540527
3401.931641	3738.030273
3401.137695	3580.131836
3400.342773	3802.886963
3399.547852	3645.028564
3398.752930	3707.333496
3397.957031	3826.210205
3397.162109	3816.166260
3396.366211	3604.976074
3395.571289	3657.819824
3394.775391	3682.369141
3393.979492	3609.525391
3393.183594	3687.470459
3392.387695	3636.632080
3391.591797	3695.708008
3390.794922	3704.533691
3389.999023	3534.437500
3389.202148	3747.283936
3388.405273	3552.131836
3387.608398	3413.515625
3386.811523	3616.868164
3386.014648	3691.562256
3385.216797	3556.126221
3384.419922	3521.066406
3383.622070	3589.469971
3382.825195	3648.448242
3382.027344	3491.167969
3381.229492	3500.008545
3380.431641	3455.586670
3379.632813	3498.886230
3378.834961	3470.138184
3378.036133	3444.530762
3377.238281	3406.407715
3376.439453	3268.124512
3375.640625	3549.290039
3374.841797	3492.392090
3374.042969	3448.027832
3373.244141	3394.292480
3372.444336	3334.318604
3371.644531	3274.363770
3370.845703	3574.018799
3370.045898	3532.802734
3369.246094	3469.718994
3368.446289	3409.780518
3367.646484	3393.609375
3366.845703	3255.593018
3366.045898	3395.645020
3365.245117	3326.386475
3364.444336	3357.081543
3363.643555	3350.298584
3362.842773	3315.420898
3362.041992	3249.340576
3361.241211	3258.182129
3360.440430	3254.539307
3359.638672	3332.013916
3358.836914	3294.047119
3358.036133	3302.875488
3357.234375	3130.835938
3356.432617	3239.458984
3355.629883	3220.235352
3354.828125	3194.784180
3354.026367	3222.319092
3353.223633	3184.411865
3352.420898	3296.054199
3351.618164	3336.019043
3350.815430	3157.965088
3350.012695	3229.077637
3349.209961	3144.499023
3348.407227	3231.154785
3347.603516	3159.052246
3346.799805	3124.314941
3345.997070	3111.368408
3345.193359	3207.306396
3344.389648	3132.143311
3343.584961	3221.827148
3342.781250	3196.435547
3341.977539	3223.902588
3341.172852	3186.085205
3340.368164	3023.964600
3339.564453	3057.660645
3338.759766	3150.376709
3337.954102	3171.615967
3337.149414	3130.730957
3336.344727	3068.121094
3335.539063	3036.580078
3334.734375	3054.719238
3333.928711	3029.398193
3333.123047	3097.187012
3332.317383	3130.822021
3331.511719	3077.579102
3330.705078	3157.734863
3329.899414	2974.245605
3329.092773	3076.098389
3328.287109	2967.090820
3327.480469	3103.010986
3326.673828	2975.437256
3325.867188	2857.201172
3325.060547	2918.711182
3324.252930	3042.159912
3323.446289	2933.261963
3322.638672	2873.949951
3321.831055	2873.488770
3321.024414	2999.961182
3320.216797	3027.338867
3319.408203	3014.473633
3318.600586	2856.173340
3317.792969	3090.855225
3316.984375	3047.051025
3316.175781	2969.238281
3315.368164	2897.635498
3314.559570	2872.434814
3313.750977	3004.907227
3312.941406	2958.060547
3312.132813	2963.767090
3311.323242	2892.221924
3310.514648	2842.326172
3309.705078	2882.027100
3308.895508	2838.325928
3308.085938	2856.398438
3307.276367	2781.840088
3306.466797	2858.569092
3305.656250	2864.283447
3304.846680	2854.565918
3304.036133	2804.739502
3303.225586	3004.816406
3302.415039	2942.643555
3301.604492	2892.826904
3300.793945	2818.357666
3299.983398	2820.988525
3299.171875	2761.967529
3298.361328	2767.688477
3297.549805	2671.716064
3296.738281	2877.718994
3295.926758	2806.404053
3295.115234	2732.031738
3294.303711	2913.289063
3293.491211	2835.844238
3292.679688	2823.074951
3291.867188	2773.372314
3291.054688	2760.616699
3290.242188	2692.477295
3289.429688	2858.182861
3288.617188	2710.070068
3287.804688	2801.904297
3286.991211	2733.801514
3286.177734	2831.751465
3285.365234	2855.890381
3284.551758	2720.190918
3283.738281	2759.705811
3282.924805	2833.007080
3282.110352	2783.397461
3281.296875	2721.517090
3280.482422	2862.355469
3279.668945	2772.845703
3278.854492	2760.119873
3278.040039	2701.352295
3277.225586	2805.272461
3276.411133	2832.440918
3275.595703	2746.075684
3274.781250	2773.244629
3273.965820	2680.781982
3273.150391	2753.954102
3272.335938	2753.511963
3271.519531	2734.675537
3270.704102	2685.191895
3269.888672	2697.020264
3269.073242	2684.330078
3268.256836	2748.239502
3267.440430	2775.368164
3266.625000	2658.535400
3265.808594	2749.978760
3264.991211	2611.754395
3264.174805	2703.175781
3263.358398	2718.046143
3262.541016	2830.843750
3261.724609	2723.293457
3260.907227	2628.015381
3260.089844	2612.299072
3259.272461	2630.230225
3258.455078	2629.808105
3257.637695	2675.247314
3256.819336	2818.493896
3256.001953	2720.235107
3255.183594	2683.127197
3254.365234	2756.027588
3253.546875	2575.341797
3252.728516	2709.325684
3251.910156	2718.052734
3251.090820	2622.957764
3250.272461	2643.907959
3249.453125	2762.531738
3248.633789	2630.851074
3247.814453	2581.604004
3246.995117	2584.240723
3246.175781	2599.078613
3245.356445	2726.764404
3244.536133	2555.550049
3243.716797	2536.845215
3242.896484	2646.187744
3242.076172	2682.340332
3241.255859	2593.528564
3240.435547	2526.075195
3239.615234	2559.182861
3238.793945	2641.018311
3237.973633	2607.091797
3237.152344	2652.351074
3236.331055	2664.104004
3235.509766	2587.571045
3234.688477	2648.030029
3233.867188	2678.037109
3233.045898	2631.966064
3232.223633	2619.374512
3231.402344	2615.912109
3230.580078	2536.419189
3229.757813	2539.052734
3228.935547	2587.289795
3228.113281	2559.516113
3227.291016	2595.576904
3226.467773	2434.102295
3225.645508	2597.781738
3224.822266	2618.629639
3223.999023	2572.648682
3223.175781	2660.305176
3222.352539	2556.640625
3221.529297	2474.260742
3220.705078	2589.209229
3219.881836	2503.815430
3219.057617	2588.377686
3218.233398	2536.385010
3217.409180	2481.375244
3216.584961	2511.306641
3215.760742	2523.033203
3214.936523	2486.244141
3214.111328	2652.578369
3213.287109	2464.228271
3212.461914	2636.573730
3211.636719	2539.188477
3210.811523	2566.046875
3209.986328	2514.140137
3209.161133	2562.194092
3208.334961	2434.601807
3207.509766	2585.592285
3206.683594	2445.928467
3205.857422	2509.095459
3205.031250	2496.587891
3204.205078	2402.390625
3203.378906	2498.811035
3202.552734	2453.039063
3201.725586	2377.039551
3200.899414	2582.271973
3200.072266	2385.345703
3199.245117	2536.101074
3198.417969	2420.846924
3197.590820	2471.828613
3196.762695	2510.708740
3195.935547	2461.972168
3195.107422	2383.047852
3194.280273	2461.181396
3193.452148	2430.592285
3192.624023	2572.089600
3191.795898	2381.517090
3190.966797	2429.421387
3190.138672	2356.612793
3189.309570	2401.488281
3188.481445	2455.398926
3187.652344	2464.052490
3186.823242	2391.284668
3185.994141	2402.960693
3185.165039	2275.964600
3184.334961	2381.090332
3183.505859	2362.626465
3182.675781	2365.260010
3181.845703	2473.333252
3181.016602	2457.875488
3180.185547	2427.364258
3179.355469	2378.796143
3178.525391	2288.094482
3177.695313	2405.123535
3176.864258	2338.523926
3176.033203	2431.433594
3175.202148	2235.476318
3174.371094	2319.347656
3173.540039	2288.897461
3172.708984	2303.566162
3171.877930	2249.073975
3171.045898	2275.769287
3170.213867	2329.508301
3169.381836	2275.038086
3168.550781	2412.895508
3167.717773	2343.407471
3166.885742	2415.124268
3166.053711	2303.610107
3165.220703	2411.345215
3164.388672	2287.857666
3163.555664	2281.486084
3162.722656	2287.122559
3161.889648	2304.760986
3161.056641	2247.380859
3160.222656	2232.019775
3159.389648	2441.629150
3158.555664	2276.288330
3157.722656	2308.906982
3156.888672	2275.556885
3156.054688	2317.157715
3155.220703	2232.865479
3154.385742	2217.523438
3153.551758	2310.048340
3152.716797	2258.750488
3151.882813	2192.492920
3151.047852	2210.108887
3150.212891	2212.748047
3149.377930	2215.385986
3148.541992	2197.070313
3147.707031	2223.652344
3146.872070	2145.494629
3146.036133	2187.035645
3145.200195	2237.537354
3144.364258	2240.168457
3143.528320	2251.770020
3142.692383	2230.478760
3141.856445	2236.099121
3141.019531	2196.883301
3140.182617	2244.345703
3139.346680	2133.429199
3138.509766	2210.761475
3137.672852	2246.250732
3136.835938	2192.131592
3135.998047	2099.210938
3135.161133	2206.354980
3134.323242	2164.208496
3133.485352	2131.029785
3132.648438	2115.766357
3131.810547	2207.920166
3130.971680	2073.321533
3130.133789	2222.124023
3129.295898	2141.246338
3128.457031	2194.573730
3127.619141	2080.932373
3126.780273	2080.597900
3125.941406	2154.771240
3125.102539	2091.848145
3124.262695	2121.305664
3123.423828	2192.457764
3122.583984	2120.623535
3121.745117	2078.591553
3120.905273	2164.603271
3120.065430	2152.347412
3119.225586	2149.024902
3118.385742	2077.255127
3117.544922	2088.823242
3116.705078	2064.687012
3115.864258	2147.643066
3115.024414	2075.919434
3114.183594	2048.823242
3113.342773	2078.225098
3112.500977	2161.125488
3111.660156	2229.138184
3110.819336	1979.156494
3109.977539	2073.917480
3109.135742	2097.350098
3108.293945	2138.596680
3107.452148	2084.796387
3106.610352	2072.583740
3105.768555	1974.278809
3104.926758	2137.221191
3104.083984	2018.162231
3103.241211	2044.544312
3102.398438	1970.042236
3101.555664	2020.155151
3100.712891	2105.843506
3099.870117	2066.953369
3099.027344	2105.166260
3098.183594	1950.671265
3097.339844	1988.890503
3096.497070	2151.568115
3095.653320	2056.402344
3094.809570	2070.885010
3093.964844	1990.573364
3093.121094	2090.950684
3092.276367	1972.165894
3091.432617	2004.416748
3090.587891	2012.975098
3089.743164	2107.364258
3088.898438	1994.571777
3088.053711	2109.645264
3087.208984	1952.513184
3086.363281	2079.387939
3085.517578	2046.521973
3084.672852	2004.795776
3083.827148	2096.123291
3082.981445	1983.458984
3082.135742	2027.472412
3081.289063	2003.506104
3080.443359	2136.138428
3079.596680	2156.473389
3078.750000	1981.864136
3077.904297	2005.170288
3077.056641	2108.190430
3076.209961	1966.146973
3075.363281	1956.975464
3074.516602	1909.441162
3073.668945	1947.493652
3072.821289	2062.240967
3071.973633	2029.461426
3071.125977	1993.742920
3070.278320	1984.575684
3069.430664	1913.495361
3068.583008	1895.500000
3067.734375	1939.406494
3066.885742	1977.404785
3066.038086	1859.227539
3065.189453	1932.578491
3064.339844	1964.668335
3063.491211	1993.802734
3062.642578	1887.476929
3061.792969	1948.999512
3060.944336	1951.629517
3060.094727	1927.770142
3059.245117	1956.886841
3058.395508	1950.687500
3057.545898	1968.024048
3056.695313	1888.293091
3055.845703	1867.403687
3054.995117	1811.237061
3054.144531	1852.103394
3053.293945	1860.623535
3052.443359	1936.735474
3051.592773	1921.731567
3050.742188	1903.794556
3049.890625	1897.613281
3049.039063	1923.740967
3048.188477	1891.129395
3047.336914	1890.824951
3046.485352	1922.812134
3045.633789	1869.670532
3044.781250	1796.003418
3043.929688	1965.896484
3043.077148	1824.762329
3042.224609	1944.731079
3041.372070	1929.754272
3040.519531	1850.271851
3039.666992	1879.292236
3038.814453	1835.019531
3037.960938	1899.203369
3037.108398	1884.245605
3036.254883	1910.311646
3035.401367	1880.709595
3034.547852	1859.903931
3033.694336	1924.031738
3032.840820	1815.384521
3031.986328	1923.412354
3031.132813	1867.487793
3030.278320	1741.342285
3029.423828	1951.744995
3028.569336	1840.254883
3027.714844	1796.080322
3026.860352	1778.242798
3026.004883	1956.336914
3025.150391	1868.307983
3024.294922	1862.160522
3023.439453	1794.634888
3022.583984	1829.414673
3021.728516	1887.558472
3020.873047	1869.725830
3020.016602	1828.531128
3019.161133	1807.793091
3018.304688	1830.862305
3017.448242	1859.763184
3016.591797	1847.787231
3015.735352	1783.280029
3014.878906	1876.373779
3014.021484	1806.047119
3013.165039	1855.348999
3012.307617	1869.633911
3011.450195	1866.416626
3010.592773	1834.042114
3009.735352	1801.678101
3008.877930	1827.621704
3008.020508	1693.265137
3007.162109	1812.463501
3006.303711	1835.479248
3005.445313	1826.444580
3004.587891	1855.275635
3003.728516	1843.328613
3002.870117	1744.037964
3002.011719	1781.601563
3001.152344	1807.510376
3000.293945	1830.500610
2999.434570	1795.289307
2998.575195	1719.359985
2997.715820	1864.521484
2996.855469	1756.614014
2995.996094	1753.423218
2995.136719	1828.732178
2994.276367	1735.416992
2993.416016	1781.640259
2992.555664	1752.293701
2991.695313	1804.310181
2990.834961	1862.119995
2989.973633	1919.911133
2989.113281	1751.164795
2988.251953	1794.437012
2987.390625	1828.985718
2986.530273	1793.858765
2985.667969	1741.329956
2984.806641	1778.772095
2983.945313	1708.854736
2983.083008	1842.016846
2982.221680	1818.517334
2981.359375	1710.928833
2980.497070	1745.446045
2979.634766	1681.388062
2978.772461	1753.579102
2977.909180	1817.052734
2977.046875	1813.862427
2976.183594	1775.908203
2975.320313	1781.415161
2974.457031	1766.647461
2973.593750	1743.197388
2972.730469	1687.907471
2971.867188	1760.004028
2971.002930	1808.923096
2970.139648	1689.985352
2969.275391	1707.073120
2968.411133	1831.191772
2967.546875	1793.295288
2966.682617	1804.574097
2965.817383	1784.042847
2964.953125	1870.485718
2964.087891	1771.905640
2963.222656	1762.949829
2962.357422	1748.217651
2961.492188	1747.935791
2960.626953	1701.435181
2959.761719	1764.701782
2958.895508	1732.651978
2958.030273	1717.936279
2957.164063	1732.093506
2956.297852	1697.177979
2955.431641	1728.649292
2954.565430	1708.172607
2953.698242	1788.676270
2952.832031	1678.776978
2951.964844	1736.187012
2951.097656	1819.530518
2950.230469	1709.679321
2949.363281	1683.460083
2948.496094	1683.188599
2947.628906	1798.185547
2946.760742	1725.864624
2945.893555	1783.201904
2945.025391	1702.265625
2944.157227	1673.192749
2943.289063	1724.751953
2942.419922	1744.626221
2941.551758	1698.289673
2940.683594	1651.968018
2939.814453	1671.844360
2938.945313	1726.239014
2938.076172	1688.564819
2937.207031	1748.691406
2936.337891	1731.155396
2935.468750	1704.999390
2934.598633	1609.857788
2933.728516	1715.946655
2932.859375	1655.319824
2931.989258	1778.607178
2931.119141	1637.548584
2930.248047	1760.798950
2929.377930	1703.075684
2928.506836	1636.756470
2927.636719	1665.202881
2926.765625	1811.333740
2925.894531	1736.418701
2925.023438	1655.788452
2924.152344	1773.158081
2923.280273	1689.679077
2922.409180	1715.220947
2921.537109	1789.507080
2920.665039	1769.147095
2919.792969	1757.394287
2918.920898	1673.984863
2918.048828	1665.116943
2917.176758	1713.561646
2916.303711	1733.340454
2915.430664	1715.873413
2914.558594	1641.130005
2913.685547	1715.319946
2912.811523	1760.854126
2911.938477	1800.648071
2911.065430	1688.729614
2910.191406	1734.245972
2909.318359	1788.331421
2908.444336	1676.468994
2907.570313	1693.360962
2906.696289	1698.807739
2905.821289	1770.020752
2904.947266	1723.990845
2904.072266	1675.117065
2903.198242	1696.554443
2902.323242	1717.991821
2901.448242	1739.429199
2900.573242	1760.866577
2899.697266	1782.303955
2898.822266	1770.593140
2897.946289	1718.911377
2897.071289	1650.117065
2896.195313	1744.046509
2895.319336	1720.933472
2894.443359	1649.318359
2893.566406	1680.435547
2892.690430	1734.363281
2891.813477	1674.189087
2890.937500	1696.732056
2890.060547	1562.452393
2889.183594	1687.632324
2888.306641	1613.252930
2887.428711	1641.490723
2886.551758	1624.129639
2885.673828	1646.658691
2884.796875	1649.241333
2883.918945	1563.536011
2883.041016	1600.301270
2882.162109	1651.289917
2881.284180	1605.477905
2880.406250	1576.757446
2879.527344	1622.033691
2878.648438	1616.081421
2877.769531	1658.491943
2876.890625	1587.116821
2876.011719	1606.767456
2875.132813	1583.761108
2874.252930	1586.348389
2873.374023	1768.009644
2872.494141	1628.466187
2871.614258	1602.629395
2870.734375	1593.847534
2869.854492	1579.387085
2868.973633	1681.378052
2868.093750	1689.625732
2867.212891	1567.265259
2866.332031	1586.883667
2865.452148	1580.950806
2864.570313	1603.398560
2863.689453	1640.026123
2862.808594	1634.087402
2861.926758	1622.477539
2861.045898	1610.871338
2860.164063	1602.104492
2859.282227	1519.627197
2858.400391	1661.115112
2857.518555	1516.302246
2856.635742	1598.236206
2855.753906	1629.144287
2854.871094	1660.042480
2853.988281	1535.149658
2853.105469	1577.380615
2852.222656	1565.800049
2851.339844	1486.278931
2850.456055	1607.752563
2849.573242	1553.721069
2848.689453	1533.662720
2847.805664	1598.486084
2846.921875	1524.681152
2846.038086	1535.748047
2845.154297	1524.188721
2844.269531	1543.734009
2843.385742	1616.983887
2842.500977	1540.408936
2841.616211	1599.505737
2840.731445	1511.656006
2839.846680	1627.239624
2838.961914	1528.115356
2838.076172	1615.417358
2837.190430	1603.861572
2836.305664	1533.021362
2835.419922	1467.849609
2834.534180	1591.795044
2833.648438	1580.250488
2832.761719	1574.352295
2831.875977	1540.246338
2830.989258	1503.330933
2830.102539	1646.910767
2829.215820	1576.154663
2828.329102	1595.634033
2827.442383	1465.716675
2826.555664	1541.572021
2825.667969	1513.145264
2824.781250	1526.987305
2823.893555	1526.740601
2823.005859	1560.290771
2822.118164	1543.142944
2821.229492	1534.447144
2820.341797	1528.569092
2819.453125	1522.692871
2818.565430	1530.889160
2817.676758	1609.424805
2816.788086	1502.262207
2815.899414	1521.708740
2815.009766	1518.650513
2814.121094	1552.147461
2813.231445	1560.330811
2812.342773	1568.511475
2811.453125	1559.826416
2810.563477	1514.613647
2809.673828	1545.274292
2808.783203	1587.161621
2807.893555	1516.687988
2807.002930	1595.073242
2806.113281	1510.582153
2805.222656	1515.952637
2804.332031	1555.003784
2803.440430	1594.042114
2802.549805	1529.247437
2801.659180	1587.915771
2800.767578	1579.243896
2799.875977	1489.241455
2798.984375	1525.454590
2798.092773	1572.870728
2797.201172	1533.371094
2796.309570	1530.320435
2795.416992	1574.910400
2794.524414	1583.061401
2793.632813	1543.585449
2792.740234	1490.117432
2791.846680	1473.073364
2790.954102	1584.837769
2790.061523	1550.986206
2789.167969	1511.547119
2788.275391	1516.900146
2787.381836	1494.268799
2786.488281	1563.972290
2785.593750	1532.948486
2784.700195	1583.044800
2783.806641	1510.081177
2782.912109	1557.368896
2782.017578	1640.983276
2781.124023	1573.635742
2780.228516	1545.434814
2779.333984	1556.361694
2778.439453	1514.203979
2777.543945	1614.517212
2776.649414	1569.570801
2775.753906	1533.015991
2774.858398	1543.935669
2773.962891	1512.979736
2773.067383	1487.615845
2772.170898	1615.741577
2771.275391	1487.134644
2770.378906	1553.846069
2769.482422	1486.653564
2768.585938	1525.455811
2767.689453	1544.727173
2766.792969	1466.417114
2765.896484	1552.589722
2764.999023	1477.090576
2764.101563	1499.143677
2763.205078	1445.965942
2762.307617	1579.441406
2761.409180	1501.201294
2760.511719	1534.375000
2759.614258	1545.263794
2758.715820	1514.391846
2757.817383	1461.262939
2756.918945	1502.770142
2756.020508	1552.611206
2755.122070	1474.463867
2754.223633	1477.006836
2753.324219	1585.230957
2752.425781	1468.186890
2751.526367	1523.553345
2750.626953	1512.187866
2749.727539	1506.384521
2748.828125	1425.553833
2747.927734	1525.345825
2747.028320	1463.983887
2746.127930	1519.297119
2745.227539	1507.942993
2744.327148	1538.241699
2743.426758	1537.992676
2742.526367	1435.042480
2741.625000	1515.292725
2740.724609	1573.318604
2739.823242	1495.381714
2738.921875	1425.791870
2738.020508	1533.726196
2737.119141	1588.938232
2736.216797	1450.052612
2735.315430	1524.665161
2734.413086	1507.788330
2733.511719	1526.942749
2732.609375	1529.466309
2731.707031	1468.271606
2730.803711	1545.590454
2729.901367	1451.179688
2728.998047	1506.324341
2728.095703	1542.071289
2727.192383	1422.794067
2726.289063	1488.986938
2725.385742	1521.952148
2724.482422	1491.271606
2723.578125	1496.562622
2722.674805	1515.681274
2721.770508	1501.608887
2720.866211	1542.839844
2719.961914	1517.709595
2719.057617	1467.710938
2718.152344	1442.600830
2717.248047	1577.761841
2716.342773	1566.455444
2715.438477	1447.424561
2714.533203	1403.001099
2713.627930	1383.444336
2712.721680	1485.374268
2711.816406	1543.103638
2710.910156	1399.332397
2710.004883	1462.576050
2709.098633	1506.485229
2708.192383	1406.928589
2707.286133	1428.766602
2706.379883	1398.199585
2705.472656	1436.575806
2704.565430	1474.939697
2703.659180	1480.213745
2702.751953	1397.293823
2701.844727	1499.023071
2700.937500	1504.290405
2700.029297	1448.953491
2699.122070	1512.065796
2698.213867	1476.021729
2697.305664	1431.729370
2696.397461	1486.555054
2695.489258	1456.037476
2694.581055	1409.017700
2693.672852	1469.323364
2692.763672	1502.098389
2691.855469	1468.847290
2690.946289	1474.109619
2690.037109	1429.874634
2689.127930	1369.158081
2688.217773	1517.375122
2687.308594	1467.657593
2686.398438	1474.973145
2685.489258	1482.288574
2684.579102	1489.604004
2683.668945	1496.919556
2682.757813	1482.945923
2681.847656	1400.333008
2680.937500	1471.484131
2680.026367	1476.735352
2679.115234	1446.307373
2678.204102	1446.072998
2677.292969	1478.760864
2676.381836	1442.861206
2675.469727	1475.538940
2674.558594	1373.838623
2673.646484	1373.615967
2672.734375	1455.632446
2671.822266	1455.396484
2670.910156	1411.313843
2669.998047	1509.723999
2669.084961	1419.074951
2668.172852	1468.148315
2667.259766	1478.864868
2666.346680	1486.839722
2665.433594	1420.892700
2664.520508	1469.933838
2663.606445	1384.852783
2662.693359	1401.046753
2661.779297	1474.690918
2660.865234	1501.807129
2659.951172	1498.828491
2659.037109	1501.320190
2658.123047	1337.024536
2657.208008	1495.365723
2656.293945	1445.923584
2655.378906	1401.963257
2654.463867	1464.581665
2653.548828	1491.664063
2652.633789	1431.328247
2651.718750	1493.911377
2650.802734	1600.164673
2649.886719	1419.711060
2648.971680	1397.642700
2648.055664	1460.190552
2647.138672	1424.478149
2646.222656	1448.803101
2645.306641	1445.840210
2644.389648	1470.153687
2643.473633	1499.913452
2642.556641	1396.056641
2641.639648	1444.902344
2640.721680	1531.893188
2639.804688	1455.334961
2638.887695	1367.901855
2637.969727	1443.964966
2637.051758	1419.214478
2636.133789	1487.073730
2635.215820	1416.030884
2634.297852	1396.742310
2633.379883	1483.627808
2632.460938	1418.063599
2631.541992	1496.753296
2630.623047	1452.975586
2629.704102	1379.286743
2628.785156	1493.304810
2627.866211	1482.184082
2626.946289	1386.772827
2626.027344	1432.766113
2625.107422	1448.843262
2624.187500	1391.533569
2623.267578	1440.220947
2622.347656	1423.685425
2621.426758	1447.903076
2620.506836	1431.371582
2619.585938	1550.627197
2618.665039	1479.780518
2617.744141	1446.963379
2616.823242	1484.728882
2615.902344	1443.779785
2614.981445	1438.118652
2614.059570	1489.432007
2613.137695	1367.125488
2612.215820	1475.387939
2611.293945	1385.663330
2610.372070	1450.507935
2609.450195	1504.488281
2608.527344	1460.878418
2607.604492	1417.282715
2606.682617	1460.404175
2605.759766	1462.876099
2604.835938	1470.764404
2603.913086	1443.444092
2602.990234	1472.994629
2602.066406	1451.097290
2601.142578	1437.327515
2600.218750	1534.524292
2599.294922	1455.802490
2598.371094	1452.860596
2597.447266	1395.818115
2596.522461	1533.527832
2595.598633	1508.941040
2594.673828	1541.141113
2593.749023	1470.604614
2592.824219	1483.880127
2591.898438	1532.283081
2590.973633	1483.398193
2590.047852	1469.649536
2589.122070	1415.388428
2588.197266	1488.077026
2587.271484	1455.432373
2586.344727	1517.291504
2585.418945	1541.339355
2584.492188	1492.508301
2583.566406	1492.265869
2582.639648	1467.740967
2581.712891	1497.176392
2580.786133	1456.475464
2579.858398	1537.141113
2578.931641	1450.609741
2578.003906	1471.941040
2577.077148	1501.351563
2576.149414	1441.817993
2575.221680	1398.470947
2574.292969	1454.820068
2573.365234	1486.907837
2572.437500	1486.666260
2571.508789	1462.189453
2570.580078	1483.490845
2569.651367	1569.391235
2568.722656	1426.487549
2567.793945	1566.190308
2566.864258	1501.361084
2565.935547	1455.384155
2565.005859	1476.665527
2564.076172	1406.503784
2563.146484	1417.030762
2562.216797	1435.619385
2561.286133	1419.258179
2560.356445	1529.217163
2559.425781	1496.723267
2558.495117	1531.406860
2557.564453	1407.590820
2556.633789	1407.361938
2555.703125	1423.245483
2554.771484	1417.644287
2553.839844	1385.199829
2552.909180	1384.974731
2551.977539	1333.760742
2551.045898	1400.623657
2550.113281	1413.809692
2549.181641	1408.215210
2548.249023	1324.848022
2547.317383	1356.810059
2546.384766	1407.528564
2545.452148	1409.980347
2544.519531	1423.151733
2543.585938	1366.646729
2542.653320	1524.501099
2541.719727	1481.391968
2540.786133	1365.980225
2539.853516	1395.215576
2538.918945	1427.119019
2537.985352	1432.241089
2537.051758	1351.708740
2536.117188	1405.013184
2535.182617	1353.944946
2534.249023	1332.321899
2533.313477	1415.027466
2532.378906	1358.633423
2531.444336	1433.285645
2530.508789	1384.927612
2529.574219	1368.663330
2528.638672	1301.622314
2527.703125	1317.436646
2526.767578	1333.250977
2525.832031	1349.065308
2524.895508	1364.879639
2523.959961	1345.963623
2523.023438	1396.477173
2522.086914	1348.195557
2521.150391	1358.653198
2520.213867	1377.114014
2519.276367	1392.900391
2518.339844	1376.666016
2517.402344	1275.076172
2516.464844	1365.549683
2515.527344	1309.327759
2514.589844	1466.421875
2513.652344	1460.851685
2512.713867	1332.677002
2511.776367	1340.454956
2510.837891	1361.552734
2509.899414	1358.667114
2508.960938	1486.299805
2508.021484	1435.457397
2507.083008	1413.921753
2506.143555	1371.094604
2505.205078	1386.842773
2504.265625	1407.908691
2503.326172	1362.442261
2502.386719	1378.184082
2501.446289	1375.299561
2500.506836	1359.117432
2499.566406	1412.082031
2498.625977	1342.721924
2497.685547	1369.087646
2496.745117	1358.232788
2495.804688	1421.793091
2494.863281	1355.133545
2493.922852	1384.136597
2492.981445	1370.629883
2492.040039	1383.685913
2491.098633	1380.805298
2490.157227	1372.615601
2489.214844	1398.937500
2488.273438	1388.093384
2487.331055	1361.330688
2486.388672	1392.947876
2485.446289	1392.721069
2484.503906	1344.751587
2483.561523	1416.135010
2482.618164	1399.995361
2481.675781	1442.184692
2480.732422	1418.093994
2479.789063	1386.060547
2478.845703	1377.885498
2477.902344	1406.803955
2476.958008	1406.574829
2476.013672	1446.073120
2475.070313	1324.027100
2474.125977	1392.649658
2473.181641	1397.717285
2472.237305	1405.429932
2471.291992	1370.798706
2470.347656	1301.782104
2469.402344	1309.506470
2468.457031	1430.964844
2467.511719	1430.731689
2466.566406	1369.682617
2465.621094	1343.022095
2464.674805	1279.363770
2463.728516	1324.084351
2462.783203	1292.159302
2461.836914	1439.901978
2460.890625	1368.344482
2459.943359	1418.303589
2458.997070	1391.665161
2458.049805	1359.754883
2457.103516	1304.096069
2456.156250	1372.509033
2455.208984	1406.592529
2454.260742	1387.893188
2453.313477	1232.016235
2452.365234	1318.860229
2451.417969	1366.116577
2450.469727	1397.536255
2449.521484	1341.943481
2448.573242	1378.628784
2447.624023	1365.226318
2446.675781	1343.922607
2445.726563	1354.242432
2444.778320	1390.901733
2443.829102	1364.336548
2442.878906	1366.747559
2441.929688	1319.130859
2440.980469	1329.446167
2440.030273	1384.504272
2439.080078	1342.171265
2438.129883	1368.265259
2437.179688	1362.780518
2436.229492	1338.884644
2435.279297	1391.266235
2434.328125	1380.521118
2433.377930	1388.183472
2432.426758	1293.323730
2431.475586	1392.987427
2430.523438	1442.689453
2429.572266	1350.494507
2428.621094	1452.727051
2427.668945	1315.908813
2426.716797	1292.058960
2425.764648	1370.619507
2424.812500	1296.888184
2423.860352	1336.049561
2422.907227	1369.949219
2421.955078	1351.357788
2421.001953	1338.019531
2420.048828	1395.510498
2419.095703	1258.901855
2418.142578	1360.965576
2417.188477	1347.634399
2416.235352	1360.521729
2415.281250	1273.806763
2414.327148	1336.492798
2413.373047	1362.476196
2412.418945	1278.422974
2411.463867	1338.458130
2410.509766	1353.953003
2409.554688	1390.390259
2408.599609	1358.747314
2407.644531	1269.527832
2406.689453	1319.046753
2405.734375	1295.280884
2404.778320	1342.163086
2403.822266	1336.712280
2402.867188	1305.108887
2401.912109	1338.891235
2400.955078	1325.599731
2399.998047	1333.225952
2399.042969	1343.463379
2398.085938	1340.630859
2397.128906	1340.412109
2396.171875	1316.681152
2395.214844	1251.165405
2394.257813	1305.805054
2393.300781	1313.425537
2392.341797	1313.211182
2391.384766	1354.762207
2390.427734	1346.711304
2389.468750	1304.739868
2388.509766	1262.781982
2387.552734	1317.357178
2386.593750	1264.978027
2385.634766	1241.301636
2384.675781	1272.387207
2383.716797	1311.283325
2382.757813	1311.069336
2381.798828	1310.855225
2380.839844	1237.683105
2379.878906	1294.796021
2378.919922	1325.842163
2377.960938	1315.208252
2377.000000	1294.161865
2376.039063	1260.104858
2375.080078	1205.234009
2374.119141	1218.050659
2373.158203	1301.123657
2372.197266	1243.671143
2371.236328	1303.300171
2370.275391	1227.659180
2369.314453	1308.075684
2368.351563	1237.658691
2367.390625	1320.646973
2366.429688	1369.817505
2365.466797	1174.680054
2364.503906	1270.629883
2363.542969	1267.824463
2362.580078	1257.227051
2361.617188	1254.424561
2360.654297	1251.622925
2359.691406	1256.611084
2358.728516	1230.447021
2357.765625	1219.864258
2356.802734	1320.871216
2355.837891	1224.654907
2354.875000	1260.773438
2353.910156	1257.973755
2352.947266	1242.208130
2351.982422	1208.297363
2351.017578	1208.099976
2350.054688	1251.967651
2349.089844	1220.663452
2348.125000	1285.244507
2347.160156	1238.400146
2346.195313	1186.390381
2345.228516	1232.815552
2344.263672	1173.055054
2343.298828	1317.853149
2342.332031	1180.437744
2341.367188	1198.362671
2340.400391	1200.754639
2339.433594	1262.656250
2338.468750	1244.340942
2337.501953	1220.858521
2336.535156	1176.694580
2335.568359	1186.845093
2334.601563	1228.015869
2333.632813	1207.136108
2332.666016	1256.043457
2331.699219	1312.686768
2330.730469	1384.813110
2329.763672	1413.001831
2328.794922	1410.188110
2327.828125	1322.157959
2326.859375	1293.540771
2325.890625	1277.840332
2324.921875	1246.658447
2323.953125	1184.519043
2322.984375	1266.892700
2322.015625	1305.382690
2321.046875	1147.826660
2320.076172	1124.428345
2319.107422	1281.535522
2318.136719	1201.404297
2317.167969	1224.407104
2316.197266	1182.970459
2315.226563	1200.814941
2314.257813	1185.160034
2313.287109	1128.293823
2312.316406	1200.225952
2311.345703	1102.173096
2310.375000	1163.786865
2309.402344	1150.724854
2308.431641	1225.179932
2307.460938	1186.377319
2306.488281	1265.948242
2305.517578	1131.963623
2304.544922	1190.939575
2303.572266	1177.885742
2302.601563	1154.550659
2301.628906	1177.500488
2300.656250	1200.442627
2299.683594	1192.535889
2298.710938	1212.898438
2297.736328	1127.913696
2296.763672	1227.914673
2295.791016	1145.523804
2294.816406	1106.816040
2293.843750	1142.581299
2292.869141	1170.633301
2291.896484	1124.240112
2290.921875	1188.214600
2289.947266	1182.888306
2288.972656	1231.439209
2287.998047	1195.326538
2287.023438	1161.790405
2286.048828	1151.343262
2285.072266	1225.505615
2284.097656	1107.388672
2283.123047	1122.585327
2282.146484	1201.840942
2281.171875	1119.655640
2280.195313	1204.009277
2279.218750	1116.727905
2278.242188	1193.371582
2277.265625	1118.922729
2276.289063	1146.900024
2275.312500	1090.400513
2274.335938	1207.945557
2273.359375	1130.984131
2272.382813	1174.291260
2271.404297	1217.584106
2270.427734	1237.844971
2269.449219	1153.257568
2268.472656	1071.254639
2267.494141	1206.561768
2266.515625	1168.026367
2265.537109	1124.392578
2264.558594	1098.658325
2263.580078	1170.007202
2262.601563	1146.828003
2261.623047	1179.839111
2260.642578	1169.432495
2259.664063	1146.264526
2258.685547	1214.994629
2257.705078	1173.962158
2256.724609	1222.251587
2255.746094	1165.923828
2254.765625	1099.411011
2253.785156	1244.604858
2252.804688	1106.700928
2251.824219	1160.060913
2250.843750	1198.108398
2249.863281	1159.680786
2248.880859	1131.459229
2247.900391	1205.163330
2246.919922	1154.015991
2245.937500	1130.903198
2244.955078	1138.357788
2243.974609	1158.541260
2242.992188	1117.618164
2242.009766	1191.251953
2241.027344	1104.526978
2240.044922	1162.871216
2239.062500	1172.857300
2238.080078	1208.277466
2237.097656	1200.449585
2236.113281	1169.737915
2235.130859	1154.291260
2234.146484	1062.587402
2233.164063	1108.163086
2232.179688	1107.981445
2231.195313	1156.075439
2230.210938	1138.103149
2229.226563	1153.156494
2228.242188	1092.017700
2227.257813	1124.847778
2226.273438	1134.818359
2225.289063	1180.322144
2224.302734	1164.901245
2223.318359	1129.185303
2222.332031	1111.240601
2221.347656	1138.961670
2220.361328	1118.484985
2219.375000	1174.089844
2218.390625	1173.897339
2217.404297	1186.379883
2216.417969	1143.097412
2215.429688	1109.965820
2214.443359	1137.655029
2213.457031	1084.268433
2212.470703	1139.814819
2211.482422	1094.042847
2210.496094	1134.376831
2209.507813	1167.102539
2208.521484	1108.692139
2207.533203	1070.547607
2206.544922	1151.345825
2205.556641	1130.916870
2204.568359	1037.136108
2203.580078	1120.429077
2202.591797	1107.601440
2201.601563	1140.288330
2200.613281	1132.517456
2199.625000	1112.111450
2198.634766	1144.781494
2197.646484	1147.120361
2196.656250	1081.248779
2195.666016	1124.011230
2194.675781	1045.537720
2193.685547	1098.391968
2192.695313	1085.588623
2191.705078	1113.176758
2190.714844	1135.708252
2189.724609	1145.615479
2188.734375	1142.904541
2187.742188	966.138123
2186.751953	1079.475830
2185.759766	1119.646362
2184.767578	1046.344482
2183.777344	1061.298218
2182.785156	1086.328857
2181.792969	1169.312866
2180.800781	1103.609863
2179.808594	1095.870972
2178.816406	1118.360596
2177.822266	1120.695435
2176.830078	1060.079346
2175.837891	1062.422852
2174.843750	1029.525146
2173.849609	1114.926147
2172.857422	1129.841187
2171.863281	1074.305054
2170.869141	1119.408081
2169.875000	1091.558105
2168.880859	978.217468
2167.886719	1086.171021
2166.892578	1121.186890
2165.898438	1035.545166
2164.902344	1078.096924
2163.908203	1173.400024
2162.912109	1080.255127
2161.917969	1054.959595
2160.921875	1084.923096
2159.925781	1014.437378
2158.931641	1122.225342
2157.935547	1026.654907
2156.939453	1064.132568
2155.943359	1116.653687
2154.945313	1066.291870
2153.949219	1098.727295
2152.953125	1030.828247
2151.955078	1078.304932
2150.958984	1115.736816
2149.960938	1092.991821
2148.964844	1055.215454
2147.966797	1110.174927
2146.968750	1062.385620
2145.970703	1052.190308
2144.972656	1124.656616
2143.974609	1119.463135
2142.976563	1109.263184
2141.976563	1081.541626
2140.978516	1061.338745
2139.980469	1091.197266
2138.980469	1168.590332
2137.980469	1078.328979
2136.982422	1110.671387
2135.982422	1037.956909
2134.982422	1100.303589
2133.982422	1052.617432
2132.982422	1072.443359
2131.982422	1044.773071
2130.982422	1069.591797
2129.982422	1116.890137
2128.980469	1121.702881
2127.980469	1071.562256
2126.978516	1001.458801
2125.978516	1046.239990
2124.976563	1058.550903
2123.974609	1103.307983
2122.972656	1058.202881
2121.970703	1125.403320
2120.968750	1027.915649
2119.966797	1117.549683
2118.964844	1060.001221
2117.962891	1092.245117
2116.958984	1064.639160
2115.957031	1059.478394
2114.953125	1064.289063
2113.951172	1029.225098
2112.947266	1056.464111
2111.943359	931.727783
2110.939453	1023.735657
2109.935547	1085.828003
2108.931641	1028.378906
2107.927734	1043.147461
2106.923828	1030.529907
2105.919922	1067.692261
2104.914063	1027.702515
2103.910156	1082.268921
2102.904297	1087.065918
2101.898438	1057.041260
2100.894531	1022.052917
2099.888672	1049.234497
2098.882813	1093.808594
2097.876953	1024.034058
2096.871094	1063.627319
2095.865234	1036.120605
2094.859375	1053.340088
2093.851563	1003.489136
2092.845703	1067.894287
2091.837891	1057.786377
2090.832031	995.545837
2089.824219	1027.651245
2088.816406	1022.518433
2087.810547	1012.424377
2086.802734	975.042419
2085.794922	1031.936035
2084.787109	1031.766235
2083.777344	969.601440
2082.769531	1048.782349
2081.761719	1108.105225
2080.751953	996.387024
2079.744141	991.266663
2078.734375	1028.269775
2077.726563	1010.759094
2076.716797	1067.562378
2075.707031	1064.910034
2074.697266	980.546387
2073.687500	1037.326538
2072.677734	1133.692871
2071.667969	994.911560
2070.656250	1007.120239
2069.646484	1041.591675
2068.636719	1073.578003
2067.625000	1033.828735
2066.613281	1048.495728
2065.603516	1073.047607
2064.591797	1100.063477
2063.580078	909.565613
2062.568359	1025.563965
2061.556641	983.390991
2060.544922	1005.462830
2059.533203	985.537048
2058.519531	1012.540405
2057.507813	1059.288574
2056.496094	1022.082031
2055.482422	1012.040100
2054.468750	967.449707
2053.457031	982.095764
2052.443359	1043.613281
2051.429688	1043.441284
2050.416016	1038.336670
2049.402344	1025.835815
2048.388672	1010.873474
2047.375000	1050.149170
2046.359375	1020.399292
2045.345703	1035.017090
2044.330078	988.032104
2043.316406	941.062500
2042.300781	1024.653076
2041.285156	1029.409668
2040.269531	1046.476074
2039.255859	1051.227295
2038.240234	1021.516235
2037.222656	994.276001
2036.207031	930.134583
2035.191406	1025.931763
2034.175781	1035.602051
2033.158203	1008.377319
2032.142578	993.456787
2031.125000	1040.007324
2030.107422	951.339172
2029.091797	906.941284
2028.074219	980.514648
2027.056641	987.724060
2026.039063	1012.127380
2025.021484	962.836243
2024.001953	1001.970398
2022.984375	955.152466
2021.966797	1001.640015
2020.947266	996.565613
2019.929688	962.042603
2018.910156	971.699097
2017.890625	942.098267
2016.871094	983.643494
2015.853516	1020.269836
2014.833984	971.058228
2013.812500	941.476868
2012.792969	963.383789
2011.773438	1007.342102
2010.753906	987.571533
2009.732422	935.955566
2008.712891	1038.690308
2007.691406	1006.677551
2006.671875	974.675354
2005.650391	996.551270
2004.628906	932.735596
2003.607422	954.611206
2002.585938	927.533203
2001.564453	990.999939
2000.542969	963.924805
1999.519531	941.750793
1998.498047	1017.412109
1997.476563	1014.798950
1996.453125	909.500977
1995.429688	963.129700
1994.408203	914.088989
1993.384766	911.494446
1992.361328	952.879761
1991.337891	972.265503
1990.314453	976.989990
1989.291016	986.596985
1988.267578	959.575806
1987.242188	966.741211
1986.218750	1015.398865
1985.193359	937.136536
1984.169922	968.702576
1983.144531	897.792664
1982.119141	980.578979
1981.095703	877.985413
1980.070313	926.609375
1979.044922	911.828125
1978.019531	911.677551
1976.992188	889.591919
1975.966797	955.239563
1974.941406	903.916687
1973.914063	1006.080750
1972.888672	889.004395
1971.861328	954.608704
1970.833984	966.625183
1969.808594	915.342651
1968.781250	885.983215
1967.753906	941.810120
1966.726563	914.889160
1965.699219	963.394348
1964.669922	936.478638
1963.642578	863.363647
1962.615234	875.379089
1961.585938	931.152222
1960.558594	948.014038
1959.529297	923.553345
1958.500000	920.970764
1957.470703	928.107422
1956.441406	930.383240
1955.412109	939.944702
1954.382813	971.358521
1953.353516	898.358154
1952.324219	842.375061
1951.294922	956.313904
1950.263672	861.510986
1949.234375	958.424255
1948.203125	926.727966
1947.171875	926.574829
1946.140625	926.421692
1945.111328	955.366028
1944.080078	904.295959
1943.046875	884.754639
1942.015625	857.948914
1940.984375	949.888123
1939.953125	886.738708
1938.919922	947.151672
1937.888672	833.161926
1936.855469	1000.113342
1935.824219	953.945557
1934.791016	907.792969
1933.757813	963.311646
1932.724609	905.072815
1931.691406	975.091003
1930.658203	943.480408
1929.625000	945.743164
1928.591797	918.984619
1927.556641	955.102356
1926.523438	959.779541
1925.488281	942.700562
1924.455078	911.126465
1923.419922	954.470642
1922.384766	908.409119
1921.349609	963.817261
1920.314453	963.657837
1919.279297	922.447083
1918.244141	917.465759
1917.208984	936.625854
1916.171875	936.470886
1915.136719	962.861023
1914.099609	1037.498047
1913.064453	909.469910
1912.027344	897.259521
1910.990234	962.223938
1909.955078	942.775208
1908.917969	925.743713
1907.880859	865.330688
1906.841797	920.617371
1905.804688	896.369080
1904.767578	886.583923
1903.730469	888.846008
1902.691406	895.924072
1901.652344	1001.727783
1900.615234	857.105957
1899.576172	900.293701
1898.537109	974.755615
1897.498047	981.813477
1896.458984	868.568604
1895.419922	844.368774
1894.380859	863.470642
1893.341797	858.518066
1892.300781	940.126038
1891.261719	925.546326
1890.220703	870.109863
1889.181641	920.433411
1888.140625	929.892334
1887.099609	891.299561
1886.058594	905.564087
1885.019531	850.176697
1883.976563	917.270386
1882.935547	864.300171
1881.894531	885.760925
1880.853516	888.014282
1879.810547	868.670105
1878.769531	964.495972
1877.726563	918.758118
1876.685547	940.192017
1875.642578	851.308350
1874.599609	915.903992
1873.556641	886.985168
1872.513672	862.869629
1871.470703	843.554993
1870.427734	920.089355
1869.382813	888.793274
1868.339844	953.318359
1867.294922	895.683411
1866.251953	926.663208
1865.207031	945.662292
1864.164063	866.514038
1863.119141	895.089905
1862.074219	849.476624
1861.029297	868.475830
1859.984375	894.644958
1858.937500	937.547363
1857.892578	836.957092
1856.847656	884.636597
1855.800781	810.384033
1854.755859	903.464294
1853.708984	896.145386
1852.664063	833.874390
1851.617188	895.848328
1850.570313	855.094788
1849.523438	878.834412
1848.476563	852.423523
1847.429688	868.993652
1846.380859	854.527893
1845.333984	866.318970
1844.287109	897.195374
1843.238281	851.717163
1842.189453	918.366150
1841.142578	860.974609
1840.093750	808.371155
1839.044922	872.609985
1837.996094	891.535522
1836.947266	853.253479
1835.898438	891.239868
1834.849609	879.179016
1833.798828	850.446777
1832.750000	826.487610
1831.701172	878.741638
1830.650391	783.355164
1829.599609	845.121399
1828.550781	866.403320
1827.500000	818.662903
1826.449219	904.186890
1825.398438	875.488342
1824.347656	796.847656
1823.294922	856.171814
1822.244141	834.629028
1821.193359	796.451111
1820.140625	841.483276
1819.089844	770.043335
1818.037109	829.322632
1816.984375	826.809143
1815.931641	871.806335
1814.878906	850.285706
1813.826172	795.526367
1812.773438	878.495239
1811.720703	890.219055
1810.667969	840.227295
1809.613281	797.371521
1808.560547	889.775818
1807.505859	880.138794
1806.453125	813.578125
1805.398438	851.387939
1804.343750	891.556335
1803.289063	843.992981
1802.234375	893.630676
1801.179688	834.232849
1800.125000	834.094299
1799.070313	826.848267
1798.013672	810.129395
1796.958984	840.784119
1795.904297	814.596375
1794.847656	814.461121
1793.791016	840.365356
1792.734375	778.688110
1791.677734	908.713013
1790.621094	794.991821
1789.564453	849.269836
1788.507813	875.146667
1787.451172	877.366150
1786.394531	848.846680
1785.335938	822.700806
1784.279297	876.929016
1783.220703	843.697144
1782.162109	843.557007
1781.105469	890.667114
1780.046875	833.828247
1778.988281	862.030457
1777.929688	868.971252
1776.869141	868.826843
1775.810547	826.192566
1774.751953	847.296692
1773.691406	854.235229
1772.632813	884.765137
1771.572266	870.464172
1770.513672	804.279053
1769.453125	867.816711
1768.392578	829.947571
1767.332031	860.455994
1766.271484	801.387451
1765.210938	855.456726
1764.150391	841.177124
1763.087891	848.104797
1762.027344	847.963806
1760.964844	861.953247
1759.904297	904.194031
1758.841797	823.998169
1757.779297	852.107849
1756.716797	891.975647
1755.654297	811.821716
1754.591797	790.512329
1753.529297	842.132019
1752.466797	846.695801
1751.404297	886.531250
1750.339844	853.467712
1749.277344	820.415100
1748.212891	869.636414
1747.148438	867.141846
1746.085938	827.054626
1745.021484	779.933167
1743.957031	800.942688
1742.892578	812.551514
1741.828125	828.852539
1740.761719	845.148071
1739.697266	807.451599
1738.632813	844.866882
1737.566406	837.686951
1736.501953	825.817261
1735.435547	839.753967
1734.369141	788.017822
1733.302734	825.405090
1732.236328	832.301331
1731.169922	829.818665
1730.103516	810.930786
1729.037109	810.795837
1727.970703	827.061523
1726.902344	836.294128
1725.835938	840.839294
1724.767578	857.091797
1723.699219	838.218018
1722.632813	842.760559
1721.564453	795.808044
1720.496094	809.716858
1719.427734	814.261780
1718.359375	797.750122
1717.289063	818.668823
1716.220703	799.823181
1715.152344	804.366577
1714.082031	801.894775
1713.013672	778.386292
1711.943359	796.953552
1710.873047	836.545044
1709.802734	862.105408
1708.732422	780.203918
1707.662109	831.456116
1706.591797	847.663818
1705.521484	831.179199
1704.449219	803.028198
1703.378906	774.886475
1702.308594	823.763184
1701.236328	783.961243
1700.164063	779.165039
1699.093750	788.364990
1698.021484	799.893921
1696.949219	776.444092
1695.876953	757.664490
1694.802734	797.163391
1693.730469	792.369568
1692.658203	750.295593
1691.583984	827.051392
1690.511719	780.326904
1689.437500	740.604797
1688.365234	801.023926
1687.291016	772.952393
1686.216797	786.790283
1685.142578	784.331787
1684.068359	770.239014
1682.994141	791.050232
1681.919922	811.854431
1680.843750	762.876465
1679.769531	830.187500
1678.693359	778.897644
1677.619141	788.066528
1676.542969	804.205200
1675.466797	741.325684
1674.390625	794.643005
1673.314453	782.894897
1672.238281	812.960022
1671.162109	773.344482
1670.085938	803.401123
1669.007813	747.549194
1667.931641	738.139771
1666.853516	742.658325
1665.777344	823.749207
1664.699219	772.571106
1663.621094	821.154846
1662.542969	795.506042
1661.464844	800.011108
1660.386719	809.151611
1659.308594	760.336609
1658.230469	792.657715
1657.152344	790.208191
1656.072266	829.464355
1654.994141	785.311462
1653.914063	780.548157
1652.833984	798.944214
1651.753906	821.964844
1650.673828	803.307617
1649.593750	773.083557
1648.513672	830.810425
1647.433594	807.533325
1646.353516	816.652466
1645.271484	883.595398
1644.191406	869.571838
1643.109375	800.057556
1642.029297	890.088867
1640.947266	839.086609
1639.865234	788.101318
1638.783203	903.507874
1637.701172	808.631653
1636.619141	870.866455
1635.537109	877.649902
1634.455078	861.338867
1633.371094	895.827576
1632.289063	833.349915
1631.205078	775.509216
1630.123047	835.379395
1629.039063	842.161804
1627.955078	823.565918
1626.871094	851.106689
1625.787109	839.433899
1624.703125	866.962769
1623.619141	827.626770
1622.533203	829.793518
1621.449219	822.741150
1620.363281	801.865845
1619.279297	822.466370
1618.193359	801.598022
1617.107422	826.797791
1616.021484	851.989136
1614.935547	782.778137
1613.849609	796.458801
1612.763672	826.245544
1611.677734	766.278015
1610.591797	754.646240
1609.503906	802.827881
1608.417969	752.094116
1607.330078	786.462463
1606.242188	804.724731
1605.156250	731.027771
1604.068359	763.083862
1602.980469	795.129211
1601.892578	767.424194
1600.802734	776.485107
1599.714844	746.495544
1598.626953	790.004761
1597.537109	803.649597
1596.449219	808.106812
1595.359375	739.110535
1594.269531	741.281982
1593.181641	757.220337
1592.091797	768.564880
1591.001953	736.322632
1589.910156	752.253723
1588.820313	749.834900
1587.730469	752.002258
1586.640625	767.922668
1585.548828	721.955811
1584.458984	726.418152
1583.367188	737.752502
1582.275391	721.593750
1581.183594	735.215393
1580.091797	753.412537
1579.000000	741.838379
1577.908203	766.895996
1576.816406	759.901184
1575.724609	807.832092
1574.630859	775.663635
1573.539063	734.355164
1572.445313	750.243591
1571.351563	731.822571
1570.259766	722.553894
1569.166016	768.156616
1568.072266	749.741699
1566.978516	733.618408
1565.882813	776.911316
1564.789063	753.934814
1563.695313	788.072693
1562.599609	769.669739
1561.505859	714.736816
1560.410156	762.562805
1559.314453	696.235718
1558.220703	776.001770
1557.125000	782.717834
1556.029297	812.247559
1554.933594	850.892212
1553.835938	770.920776
1552.740234	747.987244
1551.644531	788.903259
1550.546875	809.288391
1549.451172	772.684021
1548.353516	756.602234
1547.255859	795.210754
1546.158203	797.355774
1545.060547	774.444519
1543.962891	705.992981
1542.865234	730.921936
1541.767578	803.651855
1540.669922	744.334717
1539.570313	705.520264
1538.472656	691.749146
1537.373047	812.214111
1536.273438	762.034058
1535.175781	720.968201
1534.076172	748.135071
1532.976563	727.547485
1531.876953	727.425659
1530.775391	704.575562
1529.675781	752.178833
1528.576172	720.243958
1527.474609	674.689697
1526.375000	724.545288
1525.273438	658.567200
1524.171875	703.867676
1523.072266	690.128784
1521.970703	776.264771
1520.869141	760.248962
1519.767578	719.279175
1518.664063	732.770508
1517.562500	707.696838
1516.460938	734.792847
1515.357422	725.599670
1514.253906	682.402832
1513.152344	720.822998
1512.048828	661.776855
1510.945313	663.931946
1509.841797	677.414246
1508.738281	690.892029
1507.634766	722.483948
1506.531250	720.098389
1505.425781	753.938904
1504.322266	620.254089
1503.216797	697.103088
1502.113281	644.938538
1501.007813	667.455994
1499.902344	696.752502
1498.796875	678.541199
1497.691406	721.394531
1496.585938	685.096802
1495.480469	669.157288
1494.375000	687.127319
1493.267578	657.633301
1492.162109	666.561157
1491.054688	639.339539
1489.947266	706.995422
1488.841797	650.417053
1487.734375	670.630066
1486.626953	643.425964
1485.519531	715.550232
1484.412109	645.466980
1483.302734	731.105652
1482.195313	690.372803
1481.087891	708.302917
1479.978516	692.396545
1478.869141	611.100891
1477.761719	698.928040
1476.652344	676.268433
1475.542969	694.185791
1474.433594	673.788025
1473.324219	682.687317
1472.214844	612.738586
1471.103516	682.458191
1469.994141	722.878906
1468.882813	632.694336
1467.773438	646.095337
1466.662109	641.485229
1465.550781	666.132507
1464.441406	693.021484
1463.330078	695.154846
1462.218750	672.544983
1461.105469	694.921448
1459.994141	676.816345
1458.882813	656.469055
1457.769531	676.589050
1456.658203	656.248596
1455.544922	732.538086
1454.431641	665.014893
1453.320313	653.671753
1452.207031	610.889526
1451.093750	642.224487
1449.980469	689.265076
1448.865234	693.638855
1447.751953	644.145386
1446.638672	704.626038
1445.523438	659.634583
1444.410156	625.874573
1443.294922	659.412964
1442.179688	677.242371
1441.064453	625.559204
1439.949219	706.157898
1438.833984	699.315063
1437.718750	667.823303
1436.603516	660.989136
1435.486328	669.839172
1434.371094	669.726563
1433.253906	642.739868
1432.138672	703.088562
1431.021484	644.762634
1429.904297	635.700745
1428.787109	680.354004
1427.669922	675.764404
1426.552734	655.515564
1425.435547	666.589722
1424.316406	657.531677
1423.199219	693.199158
1422.080078	650.603394
1420.962891	628.140259
1419.843750	677.204590
1418.724609	634.632935
1417.605469	638.994690
1416.486328	679.096924
1415.367188	752.688110
1414.248047	629.739929
1413.128906	694.383606
1412.009766	658.548950
1410.888672	660.670166
1409.767578	662.790710
1408.648438	644.829285
1407.527344	671.491211
1406.406250	653.534363
1405.285156	640.043701
1404.164063	664.463196
1403.042969	695.562561
1401.921875	670.926636
1400.798828	615.098328
1399.677734	668.472656
1398.554688	652.765137
1397.433594	645.972839
1396.310547	639.182800
1395.187500	676.929871
1394.064453	634.514954
1392.941406	641.086182
1391.818359	654.331970
1390.695313	663.122864
1389.572266	640.762512
1388.447266	598.389282
1387.324219	636.098633
1386.199219	656.005249
1385.074219	687.022095
1383.951172	684.683411
1382.826172	680.122925
1381.701172	651.119202
1380.576172	653.231445
1379.449219	626.463440
1378.324219	641.905884
1377.199219	650.680786
1376.072266	663.893494
1374.947266	692.641785
1373.820313	654.791443
1372.693359	679.093018
1371.566406	632.382080
1370.439453	607.871948
1369.312500	676.531799
1368.185547	680.853394
1367.058594	660.782227
1365.931641	634.066711
1364.802734	614.010132
1363.675781	622.771790
1362.546875	649.257629
1361.417969	662.441406
1360.289063	642.393433
1359.160156	620.137451
1358.031250	670.964233
1356.902344	608.858337
1355.773438	668.524475
1354.644531	646.278992
1353.513672	663.873413
1352.384766	630.573425
1351.253906	592.860352
1350.123047	614.878357
1348.994141	654.580322
1347.863281	610.249023
1346.732422	610.146179
1345.601563	665.300903
1344.468750	598.890869
1343.337891	605.418579
1342.207031	583.224670
1341.074219	625.093811
1339.943359	616.154663
1338.810547	638.131409
1337.677734	620.362305
1336.544922	600.391785
1335.412109	646.636536
1334.279297	646.527466
1333.146484	637.593628
1332.013672	622.045288
1330.878906	613.118530
1329.746094	613.015137
1328.611328	593.069275
1327.478516	610.604004
1326.343750	614.908997
1325.208984	641.248474
1324.074219	575.043396
1322.939453	612.395020
1321.804688	601.279236
1320.669922	563.741821
1319.533203	592.269409
1318.398438	640.599731
1317.261719	638.290649
1316.126953	602.972839
1314.990234	539.063599
1313.853516	591.769958
1312.716797	563.076355
1311.580078	615.760803
1310.443359	573.880188
1309.306641	595.767395
1308.167969	578.082581
1307.031250	626.333557
1305.892578	575.690125
1304.755859	628.319031
1303.617188	555.726868
1302.478516	562.221619
1301.339844	584.084778
1300.201172	592.767883
1299.062500	583.887573
1297.923828	577.204895
1296.783203	574.913147
1295.644531	585.785828
1294.503906	603.235596
1293.365234	568.042297
1292.224609	589.874817
1291.083984	613.892395
1289.943359	622.557129
1288.802734	589.575989
1287.662109	567.562805
1286.521484	565.275940
1285.380859	578.324219
1284.238281	589.177795
1283.097656	613.166992
1281.955078	571.462646
1280.814453	586.690125
1279.671875	547.193115
1278.529297	584.303528
1277.386719	547.008240
1276.244141	595.044373
1275.101563	559.947144
1273.957031	607.964844
1272.814453	605.675598
1271.669922	557.477173
1270.527344	570.497864
1269.382813	598.812195
1268.238281	624.931946
1267.093750	605.163940
1265.949219	605.061646
1264.804688	615.879211
1263.660156	578.653931
1262.515625	504.326263
1261.369141	639.578430
1260.224609	619.827881
1259.078125	580.444885
1257.933594	615.254822
1256.787109	571.523071
1255.640625	615.046753
1254.494141	564.787842
1253.347656	606.117676
1252.201172	579.856262
1251.052734	621.169495
1249.906250	579.660156
1248.759766	618.780579
1247.611328	577.285645
1246.462891	622.927429
1245.316406	585.801208
1244.167969	618.362061
1243.019531	592.133911
1241.871094	618.152893
1240.720703	604.990967
1239.572266	635.350647
1238.423828	602.610779
1237.273438	591.633240
1236.125000	693.746521
1234.974609	584.909851
1233.824219	606.551086
1232.673828	649.921448
1231.525391	625.905334
1230.373047	625.799438
1229.222656	671.317017
1228.072266	629.932007
1226.921875	651.543457
1225.769531	590.632751
1224.619141	655.665100
1223.466797	653.383362
1222.314453	690.168579
1221.162109	672.691956
1220.009766	674.747681
1218.857422	631.248657
1217.705078	689.701355
1216.552734	670.067993
1215.398438	674.290833
1214.246094	700.189941
1213.091797	665.392883
1211.939453	693.451660
1210.785156	658.667542
1209.630859	682.385315
1208.476563	658.444458
1207.322266	688.650879
1206.167969	736.168701
1205.013672	699.241821
1203.857422	783.537659
1202.703125	724.974182
1201.546875	778.944763
1200.392578	720.401794
1199.236328	776.517822
1198.080078	702.856628
1196.923828	745.982971
1195.767578	847.466003
1194.611328	786.799377
1193.453125	803.955444
1192.296875	808.140808
1191.140625	760.474182
1189.982422	766.825562
1188.824219	777.494080
1187.667969	785.999695
1186.509766	785.866455
1185.351563	854.808716
1184.193359	817.973694
1183.033203	852.361084
1181.875000	830.641479
1180.716797	880.114990
1179.556641	800.164978
1178.398438	849.626831
1177.238281	853.794861
1176.078125	868.739868
1174.917969	819.020264
1173.757813	928.783875
1172.597656	870.452576
1171.437500	909.080933
1170.277344	919.696045
1169.117188	934.614502
1167.955078	932.302856
1166.792969	923.533691
1165.632813	916.919861
1164.470703	959.804932
1163.308594	933.822144
1162.146484	933.663696
1160.984375	970.071167
1159.822266	1053.778809
1158.660156	956.840820
1157.496094	954.528687
1156.333984	984.459351
1155.169922	986.441406
1154.005859	1020.653931
1152.843750	1063.448364
1151.679688	1028.899658
1150.515625	1039.463257
1149.351563	1065.054321
1148.185547	1103.518188
1147.021484	1026.054810
1145.857422	1094.558838
1144.691406	1126.560425
1143.527344	1115.641846
1142.361328	1147.629028
1141.195313	1089.526245
1140.029297	1190.126831
1138.863281	1174.916748
1137.697266	1234.739258
1136.531250	1155.228271
1135.363281	1298.607544
1134.197266	1236.252930
1133.029297	1143.928955
1131.863281	1171.578369
1130.695313	1274.169556
1129.527344	1288.940918
1128.359375	1265.173828
1127.191406	1356.994873
1126.023438	1331.084351
1124.855469	1358.673584
1123.687500	1349.885742
1122.517578	1313.294800
1121.349609	1353.704224
1120.179688	1383.408813
1119.009766	1432.343872
1117.839844	1425.688110
1116.671875	1470.324951
1115.500000	1427.340332
1114.330078	1531.780151
1113.160156	1525.111816
1111.990234	1512.038818
1110.818359	1563.028687
1109.648438	1543.548706
1108.476563	1658.552612
1107.304688	1596.378906
1106.132813	1604.642944
1104.962891	1760.113525
1103.789063	1702.220459
1102.617188	1838.426758
1101.445313	1740.024658
1100.273438	1805.821411
1099.099609	1814.041016
1097.927734	1869.146362
1096.753906	1915.708984
1095.580078	1989.953247
1094.406250	1923.578369
1093.232422	2068.080811
1092.058594	2050.693359
1090.884766	2073.764893
1089.710938	2084.055908
1088.535156	2166.708984
1087.361328	2125.907715
1086.185547	2191.504150
1085.011719	2257.077881
1083.835938	2269.455811
1082.660156	2313.728027
1081.484375	2362.237549
1080.308594	2370.339111
1079.132813	2440.077393
1077.955078	2395.034424
1076.779297	2405.250732
1075.601563	2549.301758
1074.425781	2455.409668
1073.248047	2624.887207
1072.070313	2734.854004
1070.892578	2545.444092
1069.714844	2598.075928
1068.537109	2674.034912
1067.359375	2656.604492
1066.179688	2779.200928
1065.001953	2712.971680
1063.822266	2737.959473
1062.644531	2731.132080
1061.464844	2616.182617
1060.285156	2791.674072
1059.105469	2776.363281
1057.925781	2790.723633
1056.746094	2773.299316
1055.566406	2798.246338
1054.384766	2802.005615
1053.205078	2790.940674
1052.023438	2822.223389
1050.843750	2834.443848
1049.662109	2804.330322
1048.480469	2852.523438
1047.298828	2746.249756
1046.117188	2724.627930
1044.935547	2751.659180
1043.751953	2882.300293
1042.570313	2769.750732
1041.388672	2765.050781
1040.205078	2789.942871
1039.021484	2772.561768
1037.837891	2795.330811
1036.656250	2761.054199
1035.472656	2798.602539
1034.287109	2812.908203
1033.103516	2698.411377
1031.919922	2763.394775
1030.734375	2625.727539
1029.550781	2749.790771
1028.365234	2751.432129
1027.179688	2750.963135
1025.996094	2712.527100
1024.810547	2726.827148
1023.625000	2711.602539
1022.439453	2789.143311
1021.251953	2628.472412
1020.066406	2625.916748
1018.878906	2583.326660
1017.693359	2646.088867
1016.505859	2687.765625
1015.318359	2594.641602
1014.132813	2535.239990
1012.945313	2600.072510
1011.755859	2572.264648
1010.568359	2542.361328
1009.380859	2577.699951
1008.193359	2554.117432
1007.003906	2391.710205
1005.814453	2513.286133
1004.626953	2437.156250
1003.437500	2474.584473
1002.248047	2427.916260
1001.058594	2482.146973
999.869141	2382.958984
998.679688	2380.451416
997.488281	2333.830566
996.298828	2350.234863
995.107422	2314.134766
993.917969	2322.138184
992.726563	2321.741699
991.535156	2243.687500
990.343750	2289.471680
989.152344	2263.903076
987.960938	2286.592285
986.769531	2284.104736
985.576172	2227.093750
984.384766	2157.521729
983.191406	2192.791504
982.000000	2188.225098
980.806641	2162.703857
979.613281	2244.050781
978.419922	2092.832764
977.226563	2140.650391
976.033203	2102.589111
974.837891	2049.883545
973.644531	2108.151367
972.449219	2084.766846
971.255859	2069.761230
970.060547	2109.163818
968.865234	2062.778076
967.669922	2033.141846
966.474609	2126.905273
965.279297	1952.989380
964.083984	2055.096924
962.886719	2117.454346
961.691406	2010.506348
960.494141	2051.954102
959.298828	1957.589111
958.101563	2017.831299
956.904297	1923.504272
955.707031	1971.202759
954.509766	1933.285767
953.312500	1882.857178
952.113281	1938.886108
950.916016	1961.508545
949.716797	1977.864136
948.519531	1862.796143
947.320313	1937.560791
946.121094	1943.485352
944.921875	1893.114868
943.722656	1932.398071
942.523438	1984.173096
941.324219	1885.892456
940.125000	1904.321411
938.923828	1801.921631
937.724609	1912.001343
936.523438	1926.251465
935.322266	1794.751099
934.121094	1815.261353
932.919922	1792.055908
931.718750	1854.179688
930.517578	1901.717529
929.316406	1768.253174
928.113281	1805.389648
926.912109	1771.807373
925.708984	1858.831909
924.505859	1781.595581
923.304688	1781.290649
922.101563	1741.500854
920.898438	1676.790771
919.695313	1792.841187
918.490234	1734.375610
917.287109	1761.076538
916.083984	1752.469604
914.878906	1752.169556
913.673828	1677.145386
912.470703	1703.837524
911.265625	1738.820190
910.060547	1717.776489
908.855469	1593.027222
907.648438	1580.311035
906.443359	1654.688110
905.238281	1637.819336
904.031250	1674.849854
902.826172	1616.533691
901.619141	1628.689697
900.412109	1586.975342
899.205078	1675.774414
897.998047	1613.355591
896.791016	1561.311768
895.583984	1598.310669
894.375000	1581.476929
893.167969	1626.738159
891.958984	1585.073730
890.751953	1572.388672
889.542969	1652.793823
888.333984	1602.873291
887.125000	1617.073730
885.916016	1517.556030
884.707031	1649.594238
883.496094	1525.303223
882.287109	1522.975342
881.076172	1545.441528
879.867188	1563.768311
878.656250	1613.069702
877.445313	1579.752686
876.234375	1540.252930
875.023438	1525.538696
873.812500	1564.492676
872.601563	1537.397461
871.388672	1479.362427
870.177734	1569.877075
868.964844	1491.230591
867.753906	1429.108765
866.541016	1591.750122
865.328125	1490.463745
864.115234	1484.024780
862.902344	1504.378174
861.687500	1487.636719
860.474609	1487.381592
859.261719	1460.349976
858.046875	1427.149536
856.832031	1544.269165
855.619141	1494.596191
854.404297	1428.473633
853.189453	1465.271973
851.974609	1434.156372
850.759766	1479.170044
849.542969	1425.436768
848.328125	1464.266724
847.111328	1429.060059
845.896484	1412.368042
844.679688	1461.457642
843.462891	1385.166504
842.246094	1389.038452
841.029297	1362.092285
839.812500	1359.804443
838.595703	1390.377075
837.378906	1373.711426
836.160156	1365.263550
834.941406	1416.346069
833.724609	1389.422729
832.505859	1383.028320
831.287109	1442.287842
830.068359	1376.399658
828.849609	1380.265259
827.630859	1345.168701
826.410156	1359.289185
825.191406	1379.554321
823.970703	1346.525391
822.751953	1307.360229
821.531250	1397.282959
820.310547	1403.188354
819.089844	1331.263916
817.869141	1371.990234
816.648438	1365.612305
815.427734	1391.989380
814.205078	1340.582886
812.984375	1405.835449
811.761719	1348.306274
810.539063	1341.937744
809.318359	1405.111084
808.095703	1417.139282
806.873047	1359.647461
805.648438	1334.883057
804.425781	1428.672119
803.203125	1412.078369
801.978516	1477.217407
800.755859	1462.663696
799.531250	1421.562744
798.306641	1435.613281
797.082031	1459.867798
795.857422	1469.823975
794.632813	1516.515991
793.408203	1461.155762
792.183594	1491.510132
790.957031	1485.133667
789.732422	1468.561035
788.505859	1539.684570
787.279297	1516.991211
786.052734	1520.807617
784.826172	1528.699097
783.599609	1503.981201
782.373047	1460.933716
781.146484	1558.468750
779.917969	1560.237549
778.691406	1486.654663
777.462891	1478.254272
776.234375	1520.752075
775.007813	1524.561401
773.779297	1552.790649
772.550781	1550.488770
771.320313	1483.086426
770.091797	1484.865356
768.863281	1559.857178
767.632813	1577.889038
766.404297	1488.164917
765.173828	1593.607300
763.943359	1524.234375
762.712891	1495.524658
761.482422	1576.531738
760.251953	1576.260376
759.021484	1588.174561
757.789063	1557.442627
756.558594	1597.778931
755.326172	1607.653076
754.095703	1570.845093
752.863281	1592.895508
751.630859	1629.139893
750.398438	1614.660156
749.166016	1685.366211
747.933594	1729.686890
746.699219	1684.785767
745.466797	1702.739258
744.232422	1751.087402
742.998047	1685.941895
741.765625	1732.250000
740.531250	1709.669189
739.296875	1735.703979
738.062500	1757.679688
736.826172	1702.711914
735.591797	1797.559692
734.357422	1762.843262
733.121094	1768.610229
731.886719	1790.561035
730.650391	1770.023682
729.414063	1773.763794
728.177734	1874.567505
726.941406	1856.047852
725.705078	1776.889893
724.466797	1784.668213
723.230469	1889.441895
721.992188	1893.157104
720.755859	1933.232666
719.517578	1902.603149
718.279297	1944.682617
717.041016	1946.366455
715.802734	1941.993408
714.564453	1889.181396
713.326172	1973.611938
712.085938	1983.359985
710.847656	2053.623779
709.607422	2059.320557
708.367188	2105.347656
707.128906	2002.154907
705.888672	2048.175781
704.648438	2035.729126
703.406250	2043.438843
702.166016	2067.264893
700.925781	2107.198975
699.683594	2159.204102
698.443359	2156.817871
697.201172	2128.256836
695.958984	2166.139404
694.716797	2189.919189
693.474609	2221.740479
692.232422	2183.127197
690.990234	2200.856201
689.746094	2176.339600
688.503906	2252.384277
687.259766	2239.931152
686.017578	2291.813965
684.773438	2295.438477
683.529297	2264.897217
682.285156	2348.897705
681.041016	2231.971680
679.794922	2356.121338
678.550781	2381.822266
677.306641	2377.395264
676.060547	2407.098633
674.814453	2440.805908
673.570313	2516.646484
672.324219	2454.009033
671.078125	2493.709229
669.830078	2417.056152
668.583984	2506.886475
667.337891	2494.422607
666.089844	2616.285645
664.843750	2575.744141
663.595703	2599.348877
662.347656	2628.956543
661.099609	2564.392578
659.851563	2591.992676
658.603516	2639.610596
657.355469	2647.164063
656.107422	2642.702637
654.857422	2632.237549
653.609375	2661.802979
652.359375	2583.303467
651.109375	2712.900146
649.859375	2830.450195
648.609375	2611.963867
647.359375	2781.480713
646.109375	2753.010010
644.859375	2764.527832
643.607422	2732.072510
642.357422	2807.533447
641.105469	2677.184570
639.853516	2656.746338
638.601563	2742.166748
637.349609	2711.739746
636.097656	2717.260498
634.845703	2696.828857
633.593750	2712.329102
632.339844	2809.638672
631.087891	2757.279053
629.833984	2818.640869
628.580078	2772.281006
627.326172	2705.996094
626.072266	2753.378174
624.818359	2776.822754
623.564453	2710.571289
622.310547	2797.781982
621.054688	2777.374268
619.800781	2798.806152
618.544922	2883.964355
617.289063	2901.387451
616.033203	2753.551514
614.777344	2822.747803
613.521484	2760.559814
612.265625	2825.750732
611.009766	2821.282471
609.751953	2852.622559
608.496094	2955.553223
607.238281	2809.874756
605.980469	2946.577148
604.722656	2977.873535
603.464844	2959.469971
602.207031	3054.343750
600.949219	3115.407715
599.689453	3013.555664
598.431641	2991.185791
597.171875	3076.058838
595.914063	3010.004883
594.654297	3106.755859
593.394531	3012.931885
592.134766	3107.664307
590.875000	3184.506592
589.615234	3132.376709
588.353516	3149.685059
587.093750	3200.699707
585.832031	3140.662842
584.572266	3263.027588
583.310547	3199.036377
582.048828	3226.226074
580.787109	3195.946533
579.525391	3264.728516
578.263672	3299.815186
577.000000	3220.029785
575.738281	3296.691406
574.474609	3335.713135
573.210938	3297.528076
571.949219	3384.031006
570.685547	3383.444580
569.421875	3367.031738
568.158203	3336.779053
566.892578	3454.856201
565.628906	3315.849609
564.365234	3386.443359
563.099609	3443.176758
561.833984	3505.818848
560.568359	3337.260986
559.302734	3370.266602
558.037109	3533.623047
556.771484	3534.985107
555.505859	3413.927002
554.240234	3519.939941
552.972656	3418.664307
551.707031	3439.779541
550.439453	3571.383301
549.171875	3517.498291
547.904297	3647.070068
546.636719	3608.967041
545.369141	3564.961914
544.101563	3765.429199
542.832031	3743.093750
541.564453	3744.415039
540.294922	3722.090820
539.025391	3782.516846
537.757813	3734.587158
536.488281	3891.489014
535.218750	3932.163330
533.947266	3860.607910
532.677734	4060.709717
531.408203	3977.348389
530.136719	3990.431396
528.867188	4021.215820
527.595703	4002.814941
526.324219	4143.718262
525.052734	4203.954102
523.781250	4226.815918
522.509766	4265.394043
521.236328	4394.361816
519.964844	4356.264648
518.691406	4432.127441
517.419922	4515.820313
516.146484	4522.891602
514.873047	4482.834961
513.599609	4537.026367
512.326172	4524.460938
511.052734	4676.753906
509.777344	4679.865723
508.503906	4784.993652
507.230469	4746.893066
505.955078	4789.214355
504.679688	4707.987305
503.404297	4813.036621
502.128906	4843.562500
500.853516	4823.122559
499.578125	4741.945801
498.300781	4868.465820
497.025391	4981.229980
495.748047	4927.485840
494.472656	4848.304199
493.195313	4880.743652
491.917969	5030.618164
490.640625	4855.561523
489.363281	4858.630859
488.085938	4832.352539
486.806641	4800.214844
485.529297	4850.229492
484.250000	4921.735840
482.970703	4727.329102
481.693359	4878.975098
480.414063	4807.768555
479.134766	4779.576172
477.853516	4925.271973
476.574219	4725.172852
475.294922	4689.196289
474.013672	4715.718262
472.734375	4652.422852
471.453125	4567.677246
470.171875	4592.254395
468.890625	4636.335449
467.609375	4711.617188
466.328125	4677.636230
465.044922	4589.058594
463.763672	4605.809570
462.482422	4458.786133
461.199219	4598.358887
459.916016	4523.498535
458.632813	4536.351074
457.349609	4525.820313
456.066406	4503.604980
454.783203	4454.131348
453.500000	4513.720703
452.214844	4400.014160
450.931641	4352.530273
449.646484	4343.987305
448.361328	4339.339355
447.076172	4465.044434
445.791016	4450.650391
444.505859	4354.576172
443.220703	4517.159180
441.933594	4434.715820
440.648438	4391.178711
439.361328	4279.632813
438.076172	4352.728516
436.789063	4252.884766
435.501953	4316.246582
434.214844	4251.403320
432.927734	4242.895020
431.638672	4321.756836
430.351563	4270.533691
429.062500	4302.783691
427.775391	4203.069336
426.486328	4289.643066
425.197266	4294.714844
423.908203	4136.870117
422.619141	4182.687988
421.330078	4257.571289
420.041016	4278.151855
418.750000	4174.686523
417.460938	4230.153809
416.169922	4204.229980
414.878906	4153.132324
413.587891	4167.902344
412.296875	4118.765137
411.005859	4118.046875
409.714844	4096.035645
408.421875	4188.220703
407.130859	4204.905762
405.837891	4101.631348
404.546875	4100.916016
403.253906	4032.508789
401.960938	4120.756348
400.667969	4143.238281
399.375000	3947.277832
398.080078	4078.013184
396.787109	4098.557617
395.492188	4126.823242
394.199219	4116.444824
392.904297	4032.677979
391.609375	3985.629639
390.314453	4075.676270
389.019531	4069.173828
387.724609	4020.213379
386.429688	3897.942139
385.132813	4094.054199
383.837891	3971.812500
382.541016	3955.689941
381.244141	3947.285889
379.947266	3990.940674
378.650391	3851.452637
377.353516	4003.038330
376.056641	3971.507568
374.759766	4022.833496
373.460938	3929.668213
372.162109	3963.649414
370.865234	3949.477783
369.566406	3898.730225
368.267578	4044.346436
366.968750	3972.428711
365.669922	3990.977783
364.369141	4067.238770
363.070313	4012.666748
361.769531	4065.817627
360.470703	3949.730713
359.169922	3968.266602
357.869141	4040.619629
356.568359	4089.884033
355.267578	4144.895508
353.966797	4030.816650
352.664063	3918.698242
351.363281	4044.772461
350.060547	4111.274414
348.759766	4031.839111
347.457031	3958.189941
346.154297	3961.336670
344.851563	3966.400879
343.548828	3919.661377
342.246094	3934.322021
340.941406	4018.022217
339.638672	3986.638428
338.333984	3934.176025
337.029297	4006.330322
335.724609	3965.381836
334.419922	3980.018066
333.115234	4046.378418
331.810547	4003.528320
330.505859	3998.997559
329.199219	3984.893799
327.894531	4127.788574
326.587891	4098.353027
325.281250	3961.750000
323.974609	3951.489258
322.667969	3868.529297
321.361328	3967.322510
320.054688	3844.225098
318.748047	3832.079102
317.439453	3793.170898
316.130859	3939.696045
314.824219	3789.931885
313.515625	3865.703613
312.207031	3859.295410
310.898438	3854.799561
309.589844	3861.764160
308.279297	3817.168701
306.970703	4009.330078
305.660156	3857.827393
304.351563	3782.718994
303.041016	3814.496094
301.730469	3886.327148
300.419922	3870.386230
299.109375	3829.657227
297.798828	3855.682861
296.486328	3837.848633
295.175781	3865.769531
293.863281	3872.715820
292.550781	3849.171143
291.238281	3842.781250
289.927734	3855.442139
288.613281	3908.093262
287.300781	3787.444336
285.988281	3904.820313
284.673828	3892.714844
283.361328	3916.774170
282.046875	3935.116455
280.732422	3900.181396
279.419922	3924.226318
278.105469	3769.487793
276.789063	3848.691406
275.474609	3830.906006
274.160156	3919.574951
272.843750	3833.364014
271.529297	3838.392578
270.212891	3854.818359
268.896484	3914.927490
267.580078	3954.124268
266.263672	3919.251465
264.947266	3857.811279
263.628906	3821.068848
262.312500	3902.007080
260.994141	3956.351074
259.677734	3948.068359
258.359375	3831.666992
257.041016	3899.270264
255.722656	3870.143311
254.404297	3892.214600
253.085938	3876.367676
251.765625	3930.648438
250.447266	3956.486816
249.126953	3948.214600
247.806641	3964.569580
246.486328	3863.498779
245.166016	3912.052734
243.845703	4000.346924
242.525391	3912.572754
241.205078	4104.925293
239.882813	3990.672119
238.562500	3993.755615
237.240234	3989.271240
235.917969	4028.286621
234.595703	4063.506104
233.273438	3886.971436
231.951172	3897.630371
230.628906	3942.303223
229.304688	4049.315674
227.982422	4061.829102
226.658203	4055.449219
225.335938	4079.288330
224.011719	4063.466064
222.687500	4034.433838
221.361328	4137.541504
220.037109	4066.987061
218.712891	4079.480957
217.386719	4108.949219
216.062500	4113.886230
214.736328	4130.136719
213.410156	4069.072510
212.083984	4147.538086
210.757813	4182.622559
209.431641	4110.273438
208.105469	4135.930664
206.777344	4067.382568
205.451172	4108.106445
204.123047	4178.948242
202.794922	4089.716309
201.466797	4168.066406
200.138672	4223.801758
198.810547	4095.087646
197.482422	4337.094727
196.154297	4270.487305
194.824219	4235.879883
193.494141	4252.060547
192.166016	4285.157715
190.835938	4203.566406
189.505859	4325.002441
188.175781	4344.914063
186.843750	4253.959961
185.513672	4439.195801
184.183594	4338.865234
182.851563	4379.416992
181.519531	4421.832520
180.187500	4357.226074
178.857422	4493.479004
177.523438	4455.155273
176.191406	4475.010742
174.859375	4569.898926
173.527344	4443.425781
172.193359	4463.272461
170.859375	4469.986816
169.527344	4549.810547
168.193359	4592.119629
166.859375	4617.547363
165.523438	4434.988281
164.189453	4554.101563
162.855469	4469.014160
161.519531	4511.299316
160.185547	4619.101563
158.849609	4666.960938
157.513672	4600.629883
156.177734	4691.517090
154.841797	4647.656738
153.505859	4581.363770
152.167969	4664.723633
150.832031	4609.670898
149.494141	4635.035156
148.158203	4718.341309
146.820313	4786.665527
145.482422	4744.709961
144.144531	4766.294922
142.804688	4718.753418
141.466797	4828.119141
140.128906	4834.738281
138.789063	4891.766113
137.449219	4965.574219
136.111328	5024.424805
134.771484	4896.644531
133.431641	5112.210938
132.091797	5107.579102
130.750000	5009.693359
129.410156	5053.564941
128.068359	5034.029785
126.728516	5219.554688
125.386719	5093.760254
124.044922	5187.898926
122.703125	5241.015625
121.361328	5094.791992
120.019531	5317.392090
118.675781	5262.451660
117.333984	5350.891602
115.990234	5335.055664
114.646484	5263.390137
113.304688	5348.061035
111.960938	5430.840820
110.615234	5411.280762
109.271484	5417.765625
107.927734	5493.050781
106.582031	5471.630371
105.238281	5615.657227
103.892578	5369.338379
102.546875	5347.950684
101.201172	5523.506348
99.855469	5500.241211
98.509766	5562.416504
97.164063	5606.000488
95.816406	5647.712402
94.470703	5759.946777
93.123047	5784.913086
91.775391	5765.335938
90.427734	5794.002441
89.080078	5650.149414
87.732422	5821.630859
86.384766	5707.491699
85.035156	5908.565430
83.687500	6013.178711
82.337891	6051.036621
80.988281	5857.258301
79.638672	5969.235352
78.289063	5818.143066
76.939453	5967.127441
75.589844	6049.398438
74.240234	6066.843262
72.888672	6067.622559
71.539063	6020.283691
70.187500	6006.267578
68.835938	5973.755859
67.484375	5906.110840
66.132813	5829.242676
64.781250	5806.023926
63.427734	5854.913574
62.076172	5848.333984
60.722656	5969.272949
59.369141	5691.056152
58.015625	5442.496094
56.662109	5201.412109
55.308594	5198.645996
53.955078	5062.937012
52.601563	4999.273926
51.246094	4852.573242
