#Wave		#Intensity
4002.039063	1660.853882
4001.340820	1721.704102
4000.642578	1631.956177
3999.943359	1663.898315
3999.245117	1695.830200
3998.545898	1688.403442
3997.846680	1688.132080
3997.147461	1687.860840
3996.448242	1669.712524
3995.749023	1680.168701
3995.049805	1787.126221
3994.350586	1693.923462
3993.650391	1732.955322
3992.951172	1679.088867
3992.250977	1646.671509
3991.550781	1646.406860
3990.850586	1728.270874
3990.150391	1617.315918
3989.450195	1556.371826
3988.750000	1727.437866
3988.048828	1605.830933
3987.348633	1662.659912
3986.647461	1708.768555
3985.947266	1687.093140
3985.246094	1601.232788
3984.544922	1590.278564
3983.843750	1668.454712
3983.141602	1714.525146
3982.440430	1760.580811
3981.739258	1696.157471
3981.037109	1635.317627
3980.334961	1784.667725
3979.633789	1684.655151
3978.931641	1684.384521
3978.229492	1662.750977
3977.527344	1723.002441
3976.824219	1630.182495
3976.122070	1637.038208
3975.419922	1672.357300
3974.716797	1593.820679
3974.013672	1686.048218
3973.311523	1621.760498
3972.608398	1546.825684
3971.905273	1713.678589
3971.201172	1631.643433
3970.498047	1663.369263
3969.794922	1755.496582
3969.090820	1694.812500
3968.387695	1659.015259
3967.683594	1609.021851
3966.979492	1591.006592
3966.275391	1675.969849
3965.571289	1636.648315
3964.867188	1710.927856
3964.163086	1685.809570
3963.458008	1618.117310
3962.753906	1632.049072
3962.048828	1720.471069
3961.343750	1677.633179
3960.638672	1680.909912
3959.933594	1730.279175
3959.228516	1666.189697
3958.523438	1609.209839
3957.817383	1655.022705
3957.112305	1626.409912
3956.406250	1689.919189
3955.701172	1501.909180
3954.995117	1615.001343
3954.289063	1703.269531
3953.583008	1593.239502
3952.876953	1624.843262
3952.169922	1631.661133
3951.463867	1684.481567
3950.757813	1673.596191
3950.050781	1588.422974
3949.343750	1581.093628
3948.636719	1662.180420
3947.929688	1665.449463
3947.222656	1601.544556
3946.515625	1594.217651
3945.808594	1643.441650
3945.100586	1674.981201
3944.393555	1621.714966
3943.685547	1699.171387
3942.977539	1716.558594
3942.269531	1645.654053
3941.561523	1610.080933
3940.853516	1736.913696
3940.145508	1644.861450
3939.436523	1669.301636
3938.728516	1598.461304
3938.019531	1587.620483
3937.311523	1647.332764
3936.602539	1583.583862
3935.893555	1636.224854
3935.184570	1674.745728
3934.474609	1611.022949
3933.765625	1600.190308
3933.056641	1575.264893
3932.346680	1546.823853
3931.636719	1673.401733
3930.927734	1609.730103
3930.217773	1697.517212
3929.507813	1528.224487
3928.797852	1584.310181
3928.086914	1665.018677
3927.376953	1650.673096
3926.666992	1608.180176
3925.956055	1646.624756
3925.245117	1604.145996
3924.534180	1617.957764
3923.823242	1579.013916
3923.112305	1526.017944
3922.401367	1599.600586
3921.690430	1641.524414
3920.979492	1641.260864
3920.267578	1623.427856
3919.555664	1696.947632
3918.844727	1573.727661
3918.132813	1608.597290
3917.420898	1653.990601
3916.708984	1611.592041
3915.996094	1607.822876
3915.284180	1632.134521
3914.572266	1572.212646
3913.859375	1593.013428
3913.146484	1617.315674
3912.433594	1620.563721
3911.720703	1497.553345
3911.007813	1574.458008
3910.294922	1591.735352
3909.582031	1528.381592
3908.869141	1542.155884
3908.155273	1650.542847
3907.441406	1552.172241
3906.728516	1614.980957
3906.014648	1474.615723
3905.300781	1586.445923
3904.586914	1586.191284
3903.872070	1627.948242
3903.158203	1617.185791
3902.444336	1609.926636
3901.729492	1578.174683
3901.014648	1577.921509
3900.300781	1532.192261
3899.585938	1626.381348
3898.871094	1521.209351
3898.155273	1524.461792
3897.440430	1552.184448
3896.725586	1590.384155
3896.009766	1562.170654
3895.294922	1551.437256
3894.579102	1474.327637
3893.863281	1596.349731
3893.147461	1543.705444
3892.431641	1515.521851
3891.715820	1613.038574
3890.999023	1616.270630
3890.283203	1553.185791
3889.566406	1619.241699
3888.850586	1566.644043
3888.133789	1632.676636
3887.416992	1478.939697
3886.700195	1555.427612
3885.983398	1586.560547
3885.265625	1579.333130
3884.548828	1540.735718
3883.831055	1578.826416
3883.114258	1599.481323
3882.396484	1581.803955
3881.678711	1532.779907
3880.960938	1577.813354
3880.243164	1521.840698
3879.525391	1511.150757
3878.806641	1618.830322
3878.088867	1555.916260
3877.370117	1548.706177
3876.652344	1527.579590
3875.933594	1631.708252
3875.214844	1558.396606
3874.496094	1544.234497
3873.777344	1575.283813
3873.057617	1564.600464
3872.338867	1626.923462
3871.619141	1529.340698
3870.900391	1525.620117
3870.180664	1396.812988
3869.460938	1577.242188
3868.741211	1552.674438
3868.021484	1542.006348
3867.301758	1507.034668
3866.581055	1604.005371
3865.861328	1607.219360
3865.140625	1554.900146
3864.420898	1530.359375
3863.700195	1519.704956
3862.979492	1554.151978
3862.258789	1612.867798
3861.538086	1605.673096
3860.816406	1601.948120
3860.095703	1483.817749
3859.374023	1545.973267
3858.653320	1538.793823
3857.931641	1542.012207
3857.209961	1545.229492
3856.488281	1572.694336
3855.766602	1582.832642
3855.044922	1579.115845
3854.322266	1513.076538
3853.600586	1554.376221
3852.877930	1626.814331
3852.156250	1484.662598
3851.433594	1591.690552
3850.710938	1577.596680
3849.988281	1560.048218
3849.264648	1525.212646
3848.541992	1552.631836
3847.819336	1538.553223
3847.095703	1503.737793
3846.372070	1565.710205
3845.649414	1530.901489
3844.925781	1541.021606
3844.202148	1558.047729
3843.478516	1561.251953
3842.753906	1536.826660
3842.030273	1588.375122
3841.305664	1563.953247
3840.582031	1577.510010
3839.857422	1525.487061
3839.132813	1611.511841
3838.408203	1469.794312
3837.683594	1583.397583
3836.958984	1565.898071
3836.234375	1451.844482
3835.508789	1568.843872
3834.783203	1547.907593
3834.058594	1644.172607
3833.333008	1543.964844
3832.607422	1612.633179
3831.881836	1577.922119
3831.156250	1570.779663
3830.430664	1546.418823
3829.704102	1504.847778
3828.978516	1576.910278
3828.251953	1531.905029
3827.525391	1462.820801
3826.798828	1555.503418
3826.072266	1489.878296
3825.345703	1431.154663
3824.619141	1551.315552
3823.892578	1482.283325
3823.165039	1485.484253
3822.437500	1560.883667
3821.710938	1498.758057
3820.983398	1519.139526
3820.255859	1529.205200
3819.528320	1501.473022
3818.800781	1642.080200
3818.072266	1531.904419
3817.344727	1490.448242
3816.616211	1428.403442
3815.888672	1538.033936
3815.160156	1603.005981
3814.431641	1568.428833
3813.703125	1605.923462
3812.974609	1550.771362
3812.245117	1547.092407
3811.516602	1498.827026
3810.788086	1591.176636
3810.058594	1618.351196
3809.329102	1494.677979
3808.599609	1559.562988
3807.870117	1542.177612
3807.140625	1511.091797
3806.411133	1538.257202
3805.681641	1551.712158
3804.951172	1486.390991
3804.221680	1547.790405
3803.491211	1509.880859
3802.760742	1506.215576
3802.030273	1523.087402
3801.299805	1529.687500
3800.569336	1546.550049
3799.837891	1494.986816
3799.107422	1587.099854
3798.375977	1439.788696
3797.645508	1569.494141
3796.914063	1507.703613
3796.182617	1486.952271
3795.451172	1592.663574
3794.719727	1472.806763
3793.988281	1540.903442
3793.255859	1540.656372
3792.524414	1618.966919
3791.791992	1519.672485
3791.059570	1591.132324
3790.327148	1556.738159
3789.594727	1546.248535
3788.862305	1525.523926
3788.129883	1538.928345
3787.397461	1511.387939
3786.664063	1477.034058
3785.931641	1514.314087
3785.198242	1548.171997
3784.464844	1609.295288
3783.731445	1557.902710
3782.998047	1503.118042
3782.264648	1591.482056
3781.531250	1526.487549
3780.796875	1505.802124
3780.063477	1543.029419
3779.329102	1508.725098
3778.594727	1447.190430
3777.860352	1440.149292
3777.125977	1545.444336
3776.391602	1596.249390
3775.657227	1606.202515
3774.921875	1605.945068
3774.187500	1568.266846
3773.452148	1476.179443
3772.716797	1591.569702
3771.981445	1550.511719
3771.246094	1648.854492
3770.510742	1505.825684
3769.775391	1515.780151
3769.040039	1535.925537
3768.303711	1488.114136
3767.568359	1579.593872
3766.832031	1640.476563
3766.095703	1585.879395
3765.359375	1527.904297
3764.623047	1500.501099
3763.886719	1524.020386
3763.149414	1618.800049
3762.413086	1554.070313
3761.675781	1547.036011
3760.939453	1523.043579
3760.202148	1553.323242
3759.464844	1529.337280
3758.727539	1613.853394
3757.990234	1444.099487
3757.251953	1559.106323
3756.514648	1528.357178
3755.776367	1680.584595
3755.039063	1531.255005
3754.300781	1554.719849
3753.562500	1547.697388
3752.824219	1567.765991
3752.085938	1625.069336
3751.346680	1560.493530
3750.608398	1627.932861
3749.870117	1570.145142
3749.130859	1529.292847
3748.391602	1518.899170
3747.652344	1620.125000
3746.913086	1538.703003
3746.173828	1572.268555
3745.434570	1504.402954
3744.695313	1585.285278
3743.955078	1557.994385
3743.214844	1540.849487
3742.475586	1564.252075
3741.735352	1564.001465
3740.995117	1567.128174
3740.254883	1620.907349
3739.514648	1549.744141
3738.773438	1549.495850
3738.033203	1569.499146
3737.291992	1599.620117
3736.551758	1643.228149
3735.810547	1545.129150
3735.069336	1683.178833
3734.328125	1564.869385
3733.586914	1659.035278
3732.844727	1614.940063
3732.103516	1655.132568
3731.361328	1540.273682
3730.620117	1587.204956
3729.877930	1634.121094
3729.135742	1681.022217
3728.393555	1653.806885
3727.651367	1660.277222
3726.908203	1653.276855
3726.166016	1727.077637
3725.422852	1652.747070
3724.680664	1585.171387
3723.937500	1642.122437
3723.194336	1655.317139
3722.451172	1490.219482
3721.708008	1658.150024
3720.964844	1701.601318
3720.220703	1691.241821
3719.477539	1670.800171
3718.733398	1694.061035
3717.989258	1737.478638
3717.246094	1639.755737
3716.501953	1595.817871
3715.756836	1669.461914
3715.012695	1618.816284
3714.268555	1773.025024
3713.523438	1655.229614
3712.779297	1671.749023
3712.034180	1725.183350
3711.289063	1674.569214
3710.543945	1721.275269
3709.798828	1684.096924
3709.053711	1714.015259
3708.308594	1757.338623
3707.562500	1710.112793
3706.817383	1783.596558
3706.071289	1776.606567
3705.325195	1756.212524
3704.579102	1745.878174
3703.833008	1785.804077
3703.086914	1735.268921
3702.339844	1708.195557
3701.593750	1694.526489
3700.846680	1808.098145
3700.100586	1794.417236
3699.353516	1820.907837
3698.606445	1837.349609
3697.859375	1753.400635
3697.112305	1830.069580
3696.365234	1836.466553
3695.617188	1846.206055
3694.870117	1835.878174
3694.122070	1892.423584
3693.374023	1841.975830
3692.625977	1871.762573
3691.877930	1881.488403
3691.129883	1961.379639
3690.381836	1884.226318
3689.632813	1913.987061
3688.884766	1766.731079
3688.135742	1883.320801
3687.386719	1883.019043
3686.638672	1906.084351
3685.889648	1855.714722
3685.139648	1865.428711
3684.390625	1961.889648
3683.641602	1974.919312
3682.891602	2017.964111
3682.142578	1987.626343
3681.392578	1930.622925
3680.642578	1940.315186
3679.892578	1933.337646
3679.142578	2009.682495
3678.392578	2122.657715
3677.641602	2025.697266
3676.891602	1998.723022
3676.140625	2078.338867
3675.389648	2078.005859
3674.639648	2041.047363
3673.888672	2177.212158
3673.136719	2116.949707
3672.385742	2156.546631
3671.634766	2199.458252
3670.882813	2225.721436
3670.131836	2298.545654
3669.379883	2201.727051
3668.627930	2164.795654
3667.875977	2181.072754
3667.124023	2210.641846
3666.372070	2343.237305
3665.620117	2286.367432
3664.867188	2256.096924
3664.115234	2355.399902
3663.362305	2368.308838
3662.609375	2427.708984
3661.856445	2467.166504
3661.103516	2446.851074
3660.350586	2453.098145
3659.596680	2462.661865
3658.843750	2422.446289
3658.089844	2558.091797
3657.336914	2567.634033
3656.583008	2570.539307
3655.829102	2593.341553
3655.075195	2476.874512
3654.321289	2565.989014
3653.566406	2645.130615
3652.812500	2783.901855
3652.057617	2829.846924
3651.303711	2773.070557
3650.548828	2875.316162
3649.793945	2801.990723
3649.039063	2851.214355
3648.284180	2996.440918
3647.528320	2807.265137
3646.773438	2846.534424
3646.017578	3018.166748
3645.262695	2991.212402
3644.506836	3046.974854
3643.750977	3043.178955
3642.995117	3145.216797
3642.239258	2999.216309
3641.482422	3130.984375
3640.726563	3067.674561
3639.969727	3252.271729
3639.213867	3202.181396
3638.457031	3257.838135
3637.700195	3211.066162
3636.943359	3207.248779
3636.186523	3319.020264
3635.429688	3259.052734
3634.671875	3545.756836
3633.915039	3413.151855
3633.157227	3409.304688
3632.399414	3481.355469
3631.641602	3517.090576
3630.883789	3414.264160
3630.125977	3727.053467
3629.368164	3528.591553
3628.609375	3547.809570
3627.851563	3603.284912
3627.092773	3629.076904
3626.333984	3565.878418
3625.575195	3608.143555
3624.816406	3624.038330
3624.057617	3725.573486
3623.298828	3820.488770
3622.540039	3777.067871
3621.780273	3806.094971
3621.020508	3789.025635
3620.261719	3742.338623
3619.501953	3866.792969
3618.742188	3968.174561
3617.982422	3947.799805
3617.221680	3785.991455
3616.461914	4078.086182
3615.701172	3850.543457
3614.941406	3922.256592
3614.180664	4003.808350
3613.419922	4128.060547
3612.659180	4153.687988
3611.898438	4005.169922
3611.137695	4063.659912
3610.375977	4092.570068
3609.615234	4174.015625
3608.853516	4127.377441
3608.091797	4087.320557
3607.330078	4224.529297
3606.568359	4263.235352
3605.806641	4039.416748
3605.044922	4261.869629
3604.282227	4097.168945
3603.520508	4168.668945
3602.757813	4141.766602
3601.995117	4114.873047
3601.233398	4310.909180
3600.470703	4297.107422
3599.707031	4306.250977
3598.944336	4354.710938
3598.181641	4209.862793
3597.417969	4386.072266
3596.655273	4316.592285
3595.891602	4332.273926
3595.127930	4243.180176
3594.364258	4330.885742
3593.600586	4366.195313
3592.835938	4237.868652
3592.072266	4446.595215
3591.307617	4347.739746
3590.543945	4190.039551
3589.779297	4388.861816
3589.014648	4414.317871
3588.250000	4488.805664
3587.485352	4422.709961
3586.720703	4500.440430
3585.955078	4545.468262
3585.190430	4495.731445
3584.424805	4410.076172
3583.659180	4477.959961
3582.893555	4509.899414
3582.127930	4522.237305
3581.362305	4557.423828
3580.596680	4612.183594
3579.830078	4546.173340
3579.064453	4565.022949
3578.297852	4593.654785
3577.531250	4514.630371
3576.764648	4523.691406
3575.998047	4509.922852
3575.231445	4607.014160
3574.464844	4622.575684
3573.698242	4706.579590
3572.930664	4507.033691
3572.163086	4695.296387
3571.396484	4606.582520
3570.628906	4775.225098
3569.861328	4653.958496
3569.092773	4532.730957
3568.325195	4593.864258
3567.557617	4518.257813
3566.789063	4585.882813
3566.020508	4598.165039
3565.252930	4776.379883
3564.484375	4638.982422
3563.715820	4683.776367
3562.946289	4585.462891
3562.177734	4792.829102
3561.409180	4662.019043
3560.639648	4593.010742
3559.870117	4923.776855
3559.101563	4705.271484
3558.332031	4659.032227
3557.562500	4794.720703
3556.791992	4638.051758
3556.022461	4809.421875
3555.252930	4766.441895
3554.482422	4785.156250
3553.711914	4820.094238
3552.942383	4816.076660
3552.171875	4649.819336
3551.401367	4713.960449
3550.629883	4774.836914
3549.859375	4761.098633
3549.088867	4880.317383
3548.317383	4704.455566
3547.545898	4700.460449
3546.774414	4813.148438
3546.002930	4737.842285
3545.231445	4882.889160
3544.459961	4836.752441
3543.688477	4793.869141
3542.916016	4854.634277
3542.144531	4850.618164
3541.372070	4843.366211
3540.599609	4800.508789
3539.827148	4663.806641
3539.054688	4711.599121
3538.282227	4804.672852
3537.509766	4732.733887
3536.736328	4803.133301
3535.962891	4828.235352
3535.190430	4808.061035
3534.416992	4639.181152
3533.643555	4683.690918
3532.870117	4980.270020
3532.095703	4834.062500
3531.322266	4791.287598
3530.548828	4916.501465
3529.774414	4809.130859
3529.000000	4818.048340
3528.225586	4830.191406
3527.451172	4784.222168
3526.676758	4889.970215
3525.902344	4763.326172
3525.127930	4685.123047
3524.352539	4742.443359
3523.577148	4748.134766
3522.802734	4637.719727
3522.027344	4736.939453
3521.251953	4610.441406
3520.476563	4551.678223
3519.700195	4721.770508
3518.924805	4740.349609
3518.148438	4800.808105
3517.373047	4693.729492
3516.596680	4789.606934
3515.820313	4689.004883
3515.043945	4723.673340
3514.267578	4787.305176
3513.490234	4689.970215
3512.713867	4634.505859
3511.937500	4704.557129
3511.160156	4674.847168
3510.382813	4725.567871
3509.605469	4773.055664
3508.828125	4752.996094
3508.050781	4607.545410
3507.273438	4520.007324
3506.495117	4708.925781
3505.716797	4624.613281
3504.939453	4431.077148
3504.161133	4639.195313
3503.382813	4676.998535
3502.604492	4592.744629
3501.826172	4630.542969
3501.046875	4694.014648
3500.268555	4587.327148
3499.489258	4525.608887
3498.710938	4598.693848
3497.931641	4508.115723
3497.152344	4626.093262
3496.373047	4548.369629
3495.592773	4419.357422
3494.813477	4633.489258
3494.034180	4635.953125
3493.253906	4555.071777
3492.473633	4519.086426
3491.693359	4543.998535
3490.913086	4649.002441
3490.132813	4580.984375
3489.352539	4589.859375
3488.572266	4483.442383
3487.791016	4614.003906
3487.009766	4597.257324
3486.229492	4410.867188
3485.448242	4544.577637
3484.666992	4412.653809
3483.885742	4533.522949
3483.103516	4478.416016
3482.322266	4436.119629
3481.540039	4387.440918
3480.758789	4367.554199
3479.976563	4440.380859
3479.194336	4260.676270
3478.412109	4470.916016
3477.629883	4492.566406
3476.846680	4443.925293
3476.064453	4340.996582
3475.281250	4397.788574
3474.499023	4326.832520
3473.715820	4431.499023
3472.932617	4376.521484
3472.149414	4350.286621
3471.366211	4362.354004
3470.582031	4495.663574
3469.798828	4408.808594
3469.014648	4449.567383
3468.231445	4337.234375
3467.447266	4215.371582
3466.663086	4402.794922
3465.878906	4341.524902
3465.093750	4395.009766
3464.309570	4250.909180
3463.524414	4119.598633
3462.740234	4150.793945
3461.955078	4414.488281
3461.169922	4394.673828
3460.384766	4285.712402
3459.599609	4285.025391
3458.814453	4281.155762
3458.028320	4382.309570
3457.243164	4206.597656
3456.457031	4174.108887
3455.670898	4138.449219
3454.885742	4131.424805
3454.098633	4213.441406
3453.312500	4145.998047
3452.526367	4221.627930
3451.740234	4163.739746
3450.953125	4223.453125
3450.166016	4102.034668
3449.379883	4021.954590
3448.592773	4183.305664
3447.804688	4185.811523
3447.017578	4201.017090
3446.230469	4111.447754
3445.442383	4275.855469
3444.655273	4148.216309
3443.867188	4080.911377
3443.079102	4061.220215
3442.291016	4079.603271
3441.502930	3933.046143
3440.714844	4224.175781
3439.926758	3973.005859
3439.137695	4035.774902
3438.348633	4082.674561
3437.560547	4101.035645
3436.771484	4030.665771
3435.982422	4049.029297
3435.193359	4048.380371
3434.403320	3930.543701
3433.614258	3857.078857
3432.824219	4008.439453
3432.035156	4039.454102
3431.245117	3915.363525
3430.455078	3943.218262
3429.665039	3888.794922
3428.875000	3989.409424
3428.084961	3906.527344
3427.293945	3918.552002
3426.503906	4009.626709
3425.712891	4056.408936
3424.921875	3847.122559
3424.130859	4004.538086
3423.339844	3766.885986
3422.548828	3842.113281
3421.756836	3847.815674
3420.965820	3752.440186
3420.173828	3824.475342
3419.382813	3874.384033
3418.590820	3927.433838
3417.798828	3914.177734
3417.006836	3859.896973
3416.213867	3821.411133
3415.421875	3808.178223
3414.628906	3848.577393
3413.836914	3734.414063
3413.043945	3822.114990
3412.250977	3868.798096
3411.458008	3697.940430
3410.665039	3716.259766
3409.872070	3781.846436
3409.078125	3781.240234
3408.285156	3682.967529
3407.491211	3814.678223
3406.697266	3612.497559
3405.903320	3687.494629
3405.109375	3702.646240
3404.315430	3680.016602
3403.520508	3607.034180
3402.726563	3754.364746
3401.931641	3634.196045
3401.137695	3665.073486
3400.342773	3743.122803
3399.547852	3468.909668
3398.752930	3691.611328
3397.957031	3555.828857
3397.162109	3605.554199
3396.366211	3554.688721
3395.571289	3616.968018
3394.775391	3578.684814
3393.979492	3559.262207
3393.183594	3555.550781
3392.387695	3545.559326
3391.591797	3592.090088
3390.794922	3494.191650
3389.999023	3452.825195
3389.202148	3424.025879
3388.405273	3536.442139
3387.608398	3429.202881
3386.811523	3365.914551
3386.014648	3528.468750
3385.216797	3521.631104
3384.419922	3511.660156
3383.622070	3539.311523
3382.825195	3394.561279
3382.027344	3419.088379
3381.229492	3468.674561
3380.431641	3377.264160
3379.632813	3373.590332
3378.834961	3354.258057
3378.036133	3397.559814
3377.238281	3459.632813
3376.439453	3390.209473
3375.640625	3258.210693
3374.841797	3323.405518
3374.042969	3297.841553
3373.244141	3359.880371
3372.444336	3334.318604
3371.644531	3377.567139
3370.845703	3311.361328
3370.045898	3435.885254
3369.246094	3363.439209
3368.446289	3309.768555
3367.646484	3318.612549
3366.845703	3343.075195
3366.045898	3280.061768
3365.245117	3251.425537
3364.444336	3307.115723
3363.643555	3278.484131
3362.842773	3265.470947
3362.041992	3183.791748
3361.241211	3192.643799
3360.440430	3245.178223
3359.638672	3166.661133
3358.836914	3172.392090
3358.036133	3246.736084
3357.234375	3093.415527
3356.432617	3127.216064
3355.629883	3198.413818
3354.828125	3222.835938
3354.026367	3153.759033
3353.223633	3215.570557
3352.420898	3099.786377
3351.618164	3068.140625
3350.815430	3161.079590
3350.012695	3188.597412
3349.209961	3135.158936
3348.407227	3153.333252
3347.603516	3233.749023
3346.799805	2950.050537
3345.997070	3207.821045
3345.193359	3328.630371
3344.389648	3038.832031
3343.584961	3100.542236
3342.781250	3031.638672
3341.977539	3189.705078
3341.172852	3015.124512
3340.368164	2995.993652
3339.564453	3029.694336
3338.759766	3212.514160
3337.954102	3121.913818
3337.149414	2981.648438
3336.344727	3040.172607
3335.539063	3045.894775
3334.734375	2989.527100
3333.928711	3023.190430
3333.123047	2988.568115
3332.317383	2969.471436
3331.511719	2959.687988
3330.705078	3018.149414
3329.899414	2887.406250
3329.092773	2955.163086
3328.287109	2843.074463
3327.480469	3010.013672
3326.673828	2935.144775
3325.867188	2959.465332
3325.060547	3120.108398
3324.252930	2955.417969
3323.446289	2973.528564
3322.638672	2904.919189
3321.831055	2901.356689
3321.024414	2873.027832
3320.216797	2949.953125
3319.408203	2844.251709
3318.600586	2899.495605
3317.792969	2970.191162
3316.984375	2917.125977
3316.175781	2885.728516
3315.368164	2770.844482
3314.559570	2881.710693
3313.750977	2776.138672
3312.941406	2951.878662
3312.132813	2830.876465
3311.323242	2852.052246
3310.514648	2817.610352
3309.705078	2820.247314
3308.895508	2835.237305
3308.085938	2844.046387
3307.276367	2874.465332
3306.466797	2874.004150
3305.656250	2842.677979
3304.846680	2885.426025
3304.036133	2810.910645
3303.225586	2742.589111
3302.415039	2856.276611
3301.604492	2757.129150
3300.793945	2741.269287
3299.983398	2793.241211
3299.171875	2728.059326
3298.361328	2767.688477
3297.549805	2844.283447
3296.738281	2646.638672
3295.926758	2680.100342
3295.115234	2824.434082
3294.303711	2774.707520
3293.491211	2684.968750
3292.679688	2860.018066
3291.867188	2736.435059
3291.054688	2766.771973
3290.242188	2772.482178
3289.429688	2781.267334
3288.617188	2682.384766
3287.804688	2783.450439
3286.991211	2712.275391
3286.177734	2705.690918
3285.365234	2702.182617
3284.551758	2797.032471
3283.738281	2649.071533
3282.924805	2765.408203
3282.110352	2620.571777
3281.296875	2700.015381
3280.482422	2632.015625
3279.668945	2754.421387
3278.854492	2747.839111
3278.040039	2686.003662
3277.225586	2703.988037
3276.411133	2626.835693
3275.595703	2718.461426
3274.781250	2785.515625
3273.965820	2775.866943
3273.150391	2683.418457
3272.335938	2624.728516
3271.519531	2676.425537
3270.704102	2617.755615
3269.888672	2641.854004
3269.073242	2650.622803
3268.256836	2671.644043
3267.440430	2671.215332
3266.625000	2692.226318
3265.808594	2743.854004
3264.991211	2611.754395
3264.174805	2703.175781
3263.358398	2782.324219
3262.541016	2579.893311
3261.724609	2625.377441
3260.907227	2579.065186
3260.089844	2578.651123
3259.272461	2700.573486
3258.455078	2675.676758
3257.637695	2632.443359
3256.819336	2595.337646
3256.001953	2701.896484
3255.183594	2539.497314
3254.365234	2627.698242
3253.546875	2532.572266
3252.728516	2584.091797
3251.910156	2559.245117
3251.090820	2622.957764
3250.272461	2653.066895
3249.453125	2591.590576
3248.633789	2578.209717
3247.814453	2564.829102
3246.995117	2551.448242
3246.175781	2538.067383
3245.356445	2632.212158
3244.536133	2576.897217
3243.716797	2512.452637
3242.896484	2536.437988
3242.076172	2593.945068
3241.255859	2663.624023
3240.435547	2596.159424
3239.615234	2623.162354
3238.793945	2513.079590
3237.973633	2594.909180
3237.152344	2475.730713
3236.331055	2591.031250
3235.509766	2535.819824
3234.688477	2614.549072
3233.867188	2544.135254
3233.045898	2677.607178
3232.223633	2595.036621
3231.402344	2634.162842
3230.580078	2548.584229
3229.757813	2532.971191
3228.935547	2514.322754
3228.113281	2586.874268
3227.291016	2528.711914
3226.467773	2552.616455
3225.645508	2476.248291
3224.822266	2509.266846
3223.999023	2457.228760
3223.175781	2468.981689
3222.352539	2538.422363
3221.529297	2398.363281
3220.705078	2564.926025
3219.881836	2458.291504
3219.057617	2558.033447
3218.233398	2411.992920
3217.409180	2478.341797
3216.584961	2474.910889
3215.760742	2523.033203
3214.936523	2477.147949
3214.111328	2476.750244
3213.287109	2446.042236
3212.461914	2482.015869
3211.636719	2502.827637
3210.811523	2572.105957
3209.986328	2483.849365
3209.161133	2401.678467
3208.334961	2486.079834
3207.509766	2416.045166
3206.683594	2403.548584
3205.857422	2493.962158
3205.031250	2381.593506
3204.205078	2499.212402
3203.378906	2435.281982
3202.552734	2344.149658
3201.725586	2380.063721
3200.899414	2476.441162
3200.072266	2473.020020
3199.245117	2384.962646
3198.417969	2414.802490
3197.590820	2393.261963
3196.762695	2468.410400
3195.935547	2495.201416
3195.107422	2349.824219
3194.280273	2430.982910
3193.452148	2336.991943
3192.624023	2484.541992
3191.795898	2351.333252
3190.966797	2384.152588
3190.138672	2416.961426
3189.309570	2344.166504
3188.481445	2395.069580
3187.652344	2458.020508
3186.823242	2367.160889
3185.994141	2433.110840
3185.165039	2342.284180
3184.334961	2369.034180
3183.505859	2392.762207
3182.675781	2407.443115
3181.845703	2416.093994
3181.016602	2313.294434
3180.185547	2388.213379
3179.355469	2342.662598
3178.525391	2366.371338
3177.695313	2381.041992
3176.864258	2344.543457
3176.033203	2199.725098
3175.202148	2310.694092
3174.371094	2334.388916
3173.540039	2318.975098
3172.708984	2294.544189
3171.877930	2243.060303
3171.045898	2245.706299
3170.213867	2194.246582
3169.381836	2365.197998
3168.550781	2325.754883
3167.717773	2226.237061
3166.885742	2328.011475
3166.053711	2315.623779
3165.220703	2399.333496
3164.388672	2242.821045
3163.555664	2335.521484
3162.722656	2305.131348
3161.889648	2283.754150
3161.056641	2205.373779
3160.222656	2349.020752
3159.389648	2315.648193
3158.555664	2219.306152
3157.722656	2266.926758
3156.888672	2197.606201
3156.054688	2278.188721
3155.220703	2259.839844
3154.385742	2181.563721
3153.551758	2163.236084
3152.716797	2255.754883
3151.882813	2237.420898
3151.047852	2168.182617
3150.212891	2039.081665
3149.377930	2167.485840
3148.541992	2253.942627
3147.707031	2220.659668
3146.872070	2181.402588
3146.036133	2234.905029
3145.200195	2213.606445
3144.364258	2174.369141
3143.528320	2180.000488
3142.692383	2152.740723
3141.856445	2182.289063
3141.019531	2155.037842
3140.182617	2079.979492
3139.346680	2121.477051
3138.509766	2159.973877
3137.672852	2132.743408
3136.835938	2165.252686
3135.998047	2149.974121
3135.161133	2131.715088
3134.323242	2203.015137
3133.485352	2107.152588
3132.648438	1981.479370
3131.810547	2055.752686
3130.971680	2118.069336
3130.133789	2055.091797
3129.295898	2087.566162
3128.457031	2084.248779
3127.619141	2170.370605
3126.780273	2062.713135
3125.941406	1964.030884
3125.102539	2118.666748
3124.262695	2121.305664
3123.423828	2085.218018
3122.583984	2215.932373
3121.745117	2197.708740
3120.905273	2075.280029
3120.065430	2170.209229
3119.225586	2029.965454
3118.385742	2133.799316
3117.544922	2097.750000
3116.705078	2046.836670
3115.864258	2064.354980
3115.024414	2150.271973
3114.183594	2182.635986
3113.342773	2042.547485
3112.500977	2122.480957
3111.660156	2062.695801
3110.819336	2008.873535
3109.977539	2029.349121
3109.135742	2002.286011
3108.293945	2079.191162
3107.452148	2034.309814
3106.610352	2060.706543
3105.768555	2000.998413
3104.926758	2169.873291
3104.083984	2012.226440
3103.241211	1964.424316
3102.398438	2026.413940
3101.555664	1993.457031
3100.712891	2156.265137
3099.870117	1995.781372
3099.027344	1983.600342
3098.183594	2027.749512
3097.339844	2009.638916
3096.497070	1953.007446
3095.653320	1961.582764
3094.809570	2050.146484
3093.964844	2011.308594
3093.121094	2005.061646
3092.276367	2019.545288
3091.432617	2007.377441
3090.587891	2018.895630
3089.743164	2027.450195
3088.898438	2003.449707
3088.053711	1967.621460
3087.208984	1979.138428
3086.363281	1952.199097
3085.517578	1993.288696
3084.672852	1919.044922
3083.827148	1951.257202
3082.981445	1888.867798
3082.135742	2095.448975
3081.289063	1876.440063
3080.443359	1929.320068
3079.596680	1920.147461
3078.750000	1952.328125
3077.904297	1937.248535
3077.056641	1963.510620
3076.209961	2007.477295
3075.363281	2036.671387
3074.516602	1832.709351
3073.668945	1950.444336
3072.821289	2017.986816
3071.973633	1982.264648
3071.125977	1925.908569
3070.278320	1975.729126
3069.430664	1937.082275
3068.583008	1854.229492
3067.734375	1965.933350
3066.885742	1983.298706
3066.038086	1956.461304
3065.189453	2006.228516
3064.339844	1961.722778
3063.491211	1955.516968
3062.642578	1928.701050
3061.792969	2043.210938
3060.944336	1966.347656
3060.094727	1930.713379
3059.245117	1921.574585
3058.395508	1897.727661
3057.545898	1947.431763
3056.695313	1829.467773
3055.845703	1926.219482
3054.995117	1972.954712
3054.144531	1907.960571
3053.293945	1910.592896
3052.443359	1913.224243
3051.592773	1854.147827
3050.742188	1921.422363
3049.890625	1891.738281
3049.039063	1938.425903
3048.188477	1800.096802
3047.336914	1905.505371
3046.485352	1878.778320
3045.633789	1896.086670
3044.781250	1881.108154
3043.929688	1939.488892
3043.077148	1868.767944
3042.224609	1886.066406
3041.372070	1973.745605
3040.519531	1920.646729
3039.666992	1788.406006
3038.814453	1846.744995
3037.960938	1869.894653
3037.108398	1793.403320
3036.254883	1837.063477
3035.401367	1839.697144
3034.547852	1889.193726
3033.694336	1871.318481
3032.840820	1824.168701
3031.986328	1782.889038
3031.132813	1885.050415
3030.278320	1840.847534
3029.423828	1913.705078
3028.569336	1854.883301
3027.714844	1731.725708
3026.860352	1880.608765
3026.004883	1862.760254
3025.150391	1862.460327
3024.294922	1832.927246
3023.439453	1800.480713
3022.583984	1832.337036
3021.728516	1832.041992
3020.873047	1843.432739
3020.016602	1854.819824
3019.161133	1831.157104
3018.304688	1877.582886
3017.448242	1789.693604
3016.591797	1780.648071
3015.735352	1730.744751
3014.878906	1841.355957
3014.021484	1776.870361
3013.165039	1805.756348
3012.307617	1776.298096
3011.450195	1796.425903
3010.592773	1793.220825
3009.735352	1787.101440
3008.877930	1699.367554
3008.020508	1774.868164
3007.162109	1847.430542
3006.303711	1759.729248
3005.445313	1747.793945
3004.587891	1744.599854
3003.728516	1767.615356
3002.870117	1813.915894
3002.011719	1781.601563
3001.152344	1679.442017
3000.293945	1749.015747
2999.434570	1760.372803
2998.575195	1771.726196
2997.715820	1774.349609
2996.855469	1861.312866
2995.996094	1762.146729
2995.136719	1822.917480
2994.276367	1802.275635
2993.416016	1767.108154
2992.555664	1810.412842
2991.695313	1804.310181
2990.834961	1713.963867
2989.973633	1797.919800
2989.113281	1786.013794
2988.251953	1774.111572
2987.390625	1686.731201
2986.530273	1782.248047
2985.667969	1677.481201
2984.806641	1796.182617
2983.945313	1752.374023
2983.083008	1842.016846
2982.221680	1870.723511
2981.359375	1818.224365
2980.497070	1838.227295
2979.634766	1771.255371
2978.772461	1805.751709
2977.909180	1790.970703
2977.046875	1808.067383
2976.183594	1683.201660
2975.320313	1723.483032
2974.457031	1798.505005
2973.593750	1743.197388
2972.730469	1751.602051
2971.867188	1693.424927
2971.002930	1834.971558
2970.139648	1779.693481
2969.275391	1756.259888
2968.411133	1799.370117
2967.546875	1735.447021
2966.682617	1772.762695
2965.817383	1679.949585
2964.953125	1777.973267
2964.087891	1702.532471
2963.222656	1679.137451
2962.357422	1791.561890
2961.492188	1733.490112
2960.626953	1756.320190
2959.761719	1730.043091
2958.895508	1703.774536
2958.030273	1749.696533
2957.164063	1737.867188
2956.297852	1752.018799
2955.431641	1644.958374
2954.565430	1722.599731
2953.698242	1736.746948
2952.832031	1696.083984
2951.964844	1724.650879
2951.097656	1686.886475
2950.230469	1715.445557
2949.363281	1732.464844
2948.496094	1688.953003
2947.628906	1740.551392
2946.760742	1682.645996
2945.893555	1739.990234
2945.025391	1710.906616
2944.157227	1707.750977
2943.289063	1762.183960
2942.419922	1782.052246
2941.551758	1773.129517
2940.683594	1643.333984
2939.814453	1726.517334
2938.945313	1708.976563
2938.076172	1728.837280
2937.207031	1705.549438
2936.337891	1719.652710
2935.468750	1693.498535
2934.598633	1687.475952
2933.728516	1687.203857
2932.859375	1684.057983
2931.989258	1767.113770
2931.119141	1717.989624
2930.248047	1585.580811
2929.377930	1774.874878
2928.506836	1714.287109
2927.636719	1742.720947
2926.765625	1690.769531
2925.894531	1690.496948
2925.023438	1661.527710
2924.152344	1695.690063
2923.280273	1735.578735
2922.409180	1729.562256
2921.537109	1706.340942
2920.665039	1680.259644
2919.792969	1668.521118
2918.920898	1728.446655
2918.048828	1748.229492
2917.176758	1808.122803
2916.303711	1727.610352
2915.430664	1710.144287
2914.558594	1741.373657
2913.685547	1775.456421
2912.811523	1755.127686
2911.938477	1706.178467
2911.065430	1737.387939
2910.191406	1731.384155
2909.318359	1745.411499
2908.444336	1696.495117
2907.570313	1741.987915
2906.696289	1818.925415
2905.821289	1790.037109
2904.947266	1701.118652
2904.072266	1735.146851
2903.198242	1660.556396
2902.323242	1783.166870
2901.448242	1731.449951
2900.573242	1694.033325
2899.697266	1708.041260
2898.822266	1619.235962
2897.946289	1650.383423
2897.071289	1650.117065
2896.195313	1704.084717
2895.319336	1623.899048
2894.443359	1606.515991
2893.566406	1669.023438
2892.690430	1623.113037
2891.813477	1648.520020
2890.937500	1668.215576
2890.060547	1630.880859
2889.183594	1758.900513
2888.306641	1656.006958
2887.428711	1672.838623
2886.551758	1689.664673
2885.673828	1618.169800
2884.796875	1643.544434
2883.918945	1574.927856
2883.041016	1648.708984
2882.162109	1619.972412
2881.284180	1619.710938
2880.406250	1647.910767
2879.527344	1670.410156
2878.648438	1641.688354
2877.769531	1675.560425
2876.890625	1607.026855
2876.011719	1635.205811
2875.132813	1569.544189
2874.252930	1572.133789
2873.374023	1594.619629
2872.494141	1605.730225
2871.614258	1594.104858
2870.734375	1602.370728
2869.854492	1724.258911
2868.973633	1604.693604
2868.093750	1564.678589
2867.212891	1584.300659
2866.332031	1615.271606
2865.452148	1563.920776
2864.570313	1572.182007
2863.689453	1566.253296
2862.808594	1628.413452
2861.926758	1622.477539
2861.045898	1571.166748
2860.164063	1602.104492
2859.282227	1596.175537
2858.400391	1553.397827
2857.518555	1629.670654
2856.635742	1584.067383
2855.753906	1623.477783
2854.871094	1560.893188
2853.988281	1475.669678
2853.105469	1631.187134
2852.222656	1557.305542
2851.339844	1559.885132
2850.456055	1565.294312
2849.573242	1525.420166
2848.689453	1587.425781
2847.805664	1490.977295
2846.921875	1620.857788
2846.038086	1541.404541
2845.154297	1558.122437
2844.269531	1631.381836
2843.385742	1577.407349
2842.500977	1578.847412
2841.616211	1580.287476
2840.731445	1581.727539
2839.846680	1583.167603
2838.961914	1584.607666
2838.076172	1567.406738
2837.190430	1513.503174
2836.305664	1510.952637
2835.419922	1508.402100
2834.534180	1505.851685
2833.648438	1503.301147
2832.761719	1500.750610
2831.875977	1498.200073
2830.989258	1495.649536
2830.102539	1493.098999
2829.215820	1490.548584
2828.329102	1487.998047
2827.442383	1485.447510
2826.555664	1626.119019
2825.667969	1532.869629
2824.781250	1574.881714
2823.893555	1515.473145
2823.005859	1560.290771
2822.118164	1543.142944
2821.229492	1497.845581
2820.341797	1596.130127
2819.453125	1587.428345
2818.565430	1494.305420
2817.676758	1471.554565
2816.788086	1578.219238
2815.899414	1589.215210
2815.009766	1487.715088
2814.121094	1644.938843
2813.231445	1526.593872
2812.342773	1562.889526
2811.453125	1475.511475
2810.563477	1562.384399
2809.673828	1587.418213
2808.783203	1561.879395
2807.893555	1449.279663
2807.002930	1499.593506
2806.113281	1541.467651
2805.222656	1518.760010
2804.332031	1538.162598
2803.440430	1526.688232
2802.549805	1506.799683
2801.659180	1498.139648
2800.767578	1506.312622
2799.875977	1567.770264
2798.984375	1559.104370
2798.092773	1497.171143
2797.201172	1485.716064
2796.309570	1482.673096
2795.416992	1574.910400
2794.524414	1527.023804
2793.632813	1580.003906
2792.740234	1565.743652
2791.846680	1545.886841
2790.954102	1587.637939
2790.061523	1480.995850
2789.167969	1545.137085
2788.275391	1491.711792
2787.381836	1522.251343
2786.488281	1608.737183
2785.593750	1594.490234
2784.700195	1541.091309
2783.806641	1571.603027
2782.912109	1515.428955
2782.017578	1453.681885
2781.124023	1484.192871
2780.228516	1464.390381
2779.333984	1589.891846
2778.439453	1530.966309
2777.543945	1525.132202
2776.649414	1550.020996
2775.753906	1583.278809
2774.858398	1571.854980
2773.962891	1490.647949
2773.067383	1470.869629
2772.170898	1537.605469
2771.275391	1439.702515
2770.378906	1584.532471
2769.482422	1520.124146
2768.585938	1517.089478
2767.689453	1530.785645
2766.792969	1538.901611
2765.896484	1443.880615
2764.999023	1549.551636
2764.101563	1437.840454
2763.205078	1501.687256
2762.307617	1607.297485
2761.409180	1506.771606
2760.511719	1478.680786
2759.614258	1492.362793
2758.715820	1558.932739
2757.817383	1522.496826
2756.918945	1600.171997
2756.020508	1522.004272
2755.122070	1491.155884
2754.223633	1557.671997
2753.324219	1585.230957
2752.425781	1495.993408
2751.526367	1543.014893
2750.626953	1526.086548
2749.727539	1598.101685
2748.828125	1506.140747
2747.927734	1572.578735
2747.028320	1563.990356
2746.127930	1497.077026
2745.227539	1516.274170
2744.327148	1446.613525
2743.426758	1587.963501
2742.526367	1534.968018
2741.625000	1476.439087
2740.724609	1442.902344
2739.823242	1448.217529
2738.921875	1533.974487
2738.020508	1530.952759
2737.119141	1502.974731
2736.216797	1463.915527
2735.315430	1532.981445
2734.413086	1455.126587
2733.511719	1468.747070
2732.609375	1498.987793
2731.707031	1448.879395
2730.803711	1479.113403
2729.901367	1476.104492
2728.998047	1511.862305
2728.095703	1550.376953
2727.192383	1494.764282
2726.289063	1469.613525
2725.385742	1521.952148
2724.482422	1568.740234
2723.578125	1574.018799
2722.674805	1410.579224
2721.770508	1487.781860
2720.866211	1498.600708
2719.961914	1501.122559
2719.057617	1406.901733
2718.152344	1423.255615
2717.248047	1494.867065
2716.342773	1478.048828
2715.438477	1477.809448
2714.533203	1438.904663
2713.627930	1538.080811
2712.721680	1512.983521
2711.816406	1449.247559
2710.910156	1404.852539
2710.004883	1468.095215
2709.098633	1470.616577
2708.192383	1423.480713
2707.286133	1439.799561
2706.379883	1530.573486
2705.472656	1494.480103
2704.565430	1406.017334
2703.659180	1436.110474
2702.751953	1457.925903
2701.844727	1485.245239
2700.937500	1413.371826
2700.029297	1479.254761
2699.122070	1498.294678
2698.213867	1484.283081
2697.305664	1517.082520
2696.397461	1409.474365
2695.489258	1544.115234
2694.581055	1387.001831
2693.672852	1466.571777
2692.763672	1485.591797
2691.855469	1424.836792
2690.946289	1496.111328
2690.037109	1424.375122
2689.127930	1435.141602
2688.217773	1478.890869
2687.308594	1396.198608
2686.398438	1472.915649
2685.489258	1420.473877
2684.579102	1466.944214
2683.668945	1455.719849
2682.757813	1458.230103
2681.847656	1457.993774
2680.937500	1463.248169
2680.026367	1419.093262
2679.115234	1421.607666
2678.204102	1484.488525
2677.292969	1404.685669
2676.381836	1489.493530
2675.469727	1475.538940
2674.558594	1428.682495
2673.646484	1428.450928
2672.734375	1348.721558
2671.822266	1485.545898
2670.910156	1446.939209
2669.998047	1405.605103
2669.084961	1462.907349
2668.172852	1479.104736
2667.259766	1432.307983
2666.346680	1404.693848
2665.433594	1459.221191
2664.520508	1450.772705
2663.606445	1412.221313
2662.693359	1466.720825
2661.779297	1370.723877
2660.865234	1427.947754
2659.951172	1441.391602
2659.037109	1430.219360
2658.123047	1399.911255
2657.208008	1427.021851
2656.293945	1467.790161
2655.378906	1481.216431
2654.463867	1426.327759
2653.548828	1478.004150
2652.633789	1535.126831
2651.718750	1472.062622
2650.802734	1409.018799
2649.886719	1362.376587
2648.971680	1457.697632
2648.055664	1471.107910
2647.138672	1389.002686
2646.222656	1473.359131
2645.306641	1440.384155
2644.389648	1445.605591
2643.473633	1409.918701
2642.556641	1453.316772
2641.639648	1374.020264
2640.721680	1428.313110
2639.804688	1436.257568
2638.887695	1408.775513
2637.969727	1405.822510
2637.051758	1446.454712
2636.133789	1421.707886
2635.215820	1396.968994
2634.297852	1451.196289
2633.379883	1393.793457
2632.460938	1358.183838
2631.541992	1453.211426
2630.623047	1482.905762
2629.704102	1390.168701
2628.785156	1411.703491
2627.866211	1506.660522
2626.946289	1432.998657
2626.027344	1430.047363
2625.107422	1497.772339
2624.187500	1391.533569
2623.267578	1394.025146
2622.347656	1439.987183
2621.426758	1466.918701
2620.506836	1412.359131
2619.585938	1417.561157
2618.665039	1455.343750
2617.744141	1419.815796
2616.823242	1514.586304
2615.902344	1397.643921
2614.981445	1473.393188
2614.059570	1456.876099
2613.137695	1519.028320
2612.215820	1385.888306
2611.293945	1458.878418
2610.372070	1480.331421
2609.450195	1423.164551
2608.527344	1466.299194
2607.604492	1468.770996
2606.682617	1571.492432
2605.759766	1381.605225
2604.835938	1424.718384
2603.913086	1400.113770
2602.990234	1418.840332
2602.066406	1451.097290
2601.142578	1472.516357
2600.218750	1493.928345
2599.294922	1520.745361
2598.371094	1488.032227
2597.447266	1417.458740
2596.522461	1430.751709
2595.598633	1449.448730
2594.673828	1470.843384
2593.749023	1497.637695
2592.824219	1567.669434
2591.898438	1453.912354
2590.973633	1499.610229
2590.047852	1458.843262
2589.122070	1436.997314
2588.197266	1493.478394
2587.271484	1414.928711
2586.344727	1498.392822
2585.418945	1476.554565
2584.492188	1570.777222
2583.566406	1500.361328
2582.639648	1475.835205
2581.712891	1456.712158
2580.786133	1488.841675
2579.858398	1367.246582
2578.931641	1520.713623
2578.003906	1504.291382
2577.077148	1433.965942
2576.149414	1482.242798
2575.221680	1444.278198
2574.292969	1514.090454
2573.365234	1416.872314
2572.437500	1419.335327
2571.508789	1421.797485
2570.580078	1424.258789
2569.651367	1380.956665
2568.722656	1351.125977
2567.793945	1463.930420
2566.864258	1452.930054
2565.935547	1425.792236
2565.005859	1439.009277
2564.076172	1497.940063
2563.146484	1411.652954
2562.216797	1484.011108
2561.286133	1443.450073
2560.356445	1558.780273
2559.425781	1512.845947
2558.495117	1399.759521
2557.564453	1434.453247
2556.633789	1455.706543
2555.703125	1399.077148
2554.771484	1530.411377
2553.839844	1484.526245
2552.909180	1379.606567
2551.977539	1486.727295
2551.045898	1462.336914
2550.113281	1378.933960
2549.181641	1445.767700
2548.249023	1445.532593
2547.317383	1364.854370
2546.384766	1418.252563
2545.452148	1367.091187
2544.519531	1500.875610
2543.585938	1404.162476
2542.653320	1398.575684
2541.719727	1446.567139
2540.786133	1408.834473
2539.853516	1405.927490
2538.918945	1341.438354
2537.985352	1421.532715
2537.051758	1477.511230
2536.117188	1383.603516
2535.182617	1353.944946
2534.249023	1393.854858
2533.313477	1417.702393
2532.378906	1353.284424
2531.444336	1358.412476
2530.508789	1403.642822
2529.574219	1395.395020
2528.638672	1432.586426
2527.703125	1370.890503
2526.767578	1357.308105
2525.832031	1415.858887
2524.895508	1380.905640
2523.959961	1303.234619
2523.023438	1401.817383
2522.086914	1398.919678
2521.150391	1412.038452
2520.213867	1411.808716
2519.276367	1360.879639
2518.339844	1379.333984
2517.402344	1435.127563
2516.464844	1392.220581
2515.527344	1477.327148
2514.589844	1357.106812
2513.652344	1420.864868
2512.713867	1420.633667
2511.776367	1375.098877
2510.837891	1316.256470
2509.899414	1435.924683
2508.960938	1451.672729
2508.021484	1387.520020
2507.083008	1408.596313
2506.143555	1421.678711
2505.205078	1453.389893
2504.265625	1386.617065
2503.326172	1479.527100
2502.386719	1348.917603
2501.446289	1425.842529
2500.506836	1361.777100
2499.566406	1337.621948
2498.625977	1390.581299
2497.685547	1422.255981
2496.745117	1390.128662
2495.804688	1355.354126
2494.863281	1328.562256
2493.922852	1400.076660
2492.981445	1391.880005
2492.040039	1524.444824
2491.098633	1330.352783
2490.157227	1409.785156
2489.214844	1372.392212
2488.273438	1480.986816
2487.331055	1390.520996
2486.388672	1419.480225
2485.446289	1390.068237
2484.503906	1365.970581
2483.561523	1477.129639
2482.618164	1410.601440
2481.675781	1386.512085
2480.732422	1335.924072
2479.789063	1383.410400
2478.845703	1444.130005
2477.902344	1380.310425
2476.958008	1380.085693
2476.013672	1385.157959
2475.070313	1363.747925
2474.125977	1334.401978
2473.181641	1418.894775
2472.237305	1365.728516
2471.291992	1288.762451
2470.347656	1333.532837
2469.402344	1383.579468
2468.457031	1330.453369
2467.511719	1359.327393
2466.566406	1404.056885
2465.621094	1401.184448
2464.674805	1345.446655
2463.728516	1334.655884
2462.783203	1339.723389
2461.836914	1495.384399
2460.890625	1384.193970
2459.943359	1378.686157
2458.997070	1328.287598
2458.049805	1383.517578
2457.103516	1346.333984
2456.156250	1364.590698
2455.208984	1372.285400
2454.260742	1364.145996
2453.313477	1321.713379
2452.365234	1326.773438
2451.417969	1466.333618
2450.469727	1413.357422
2449.521484	1384.126343
2448.573242	1428.712891
2447.624023	1344.141724
2446.675781	1312.300903
2445.726563	1288.374634
2444.778320	1340.850342
2443.829102	1335.364136
2442.878906	1379.914673
2441.929688	1440.248657
2440.980469	1440.013916
2440.030273	1410.825684
2439.080078	1368.488403
2438.129883	1370.896606
2437.179688	1373.303955
2436.229492	1286.276123
2435.279297	1451.755981
2434.328125	1359.484619
2433.377930	1343.488159
2432.426758	1387.957153
2431.475586	1348.306641
2430.523438	1316.552612
2429.572266	1382.023560
2428.621094	1376.544189
2427.668945	1441.983887
2426.716797	1376.095337
2425.764648	1367.993896
2424.812500	1367.770752
2423.860352	1354.423462
2422.907227	1359.451416
2421.955078	1409.085693
2421.001953	1322.278198
2420.048828	1322.062500
2419.095703	1311.356079
2418.142578	1444.878662
2417.188477	1321.415771
2416.235352	1352.657471
2415.281250	1355.057739
2414.327148	1396.765991
2413.373047	1328.414307
2412.418945	1281.042725
2411.463867	1372.508911
2410.509766	1301.575684
2409.554688	1382.534912
2408.599609	1335.185181
2407.644531	1353.290527
2406.689453	1326.898193
2405.734375	1373.782837
2404.778320	1323.848999
2403.822266	1383.798096
2402.867188	1394.034058
2401.912109	1291.820801
2400.955078	1320.370605
2399.998047	1278.328491
2399.042969	1369.600830
2398.085938	1338.017578
2397.128906	1371.766724
2396.171875	1337.580933
2395.214844	1319.078369
2394.257813	1334.532837
2393.300781	1344.759766
2392.341797	1349.761719
2391.384766	1323.438232
2390.427734	1406.739136
2389.468750	1307.349365
2388.509766	1335.835571
2387.552734	1325.182983
2386.593750	1387.563599
2385.634766	1337.789307
2384.675781	1285.423950
2383.716797	1248.717163
2382.757813	1357.986328
2381.798828	1274.370239
2380.839844	1297.613037
2379.878906	1260.928101
2378.919922	1255.512573
2377.960938	1356.878174
2377.000000	1304.577759
2376.039063	1385.073853
2375.080078	1361.419922
2374.119141	1319.554810
2373.158203	1254.283203
2372.197266	1306.114868
2371.236328	1342.321167
2370.275391	1292.683472
2369.314453	1300.274048
2368.351563	1248.059204
2367.390625	1255.654419
2366.429688	1281.442139
2365.466797	1322.814453
2364.503906	1322.598389
2363.542969	1317.186401
2362.580078	1249.434326
2361.617188	1207.675781
2360.654297	1256.816406
2359.691406	1212.473877
2358.728516	1264.193481
2357.765625	1258.796021
2356.802734	1188.524536
2355.837891	1346.601440
2354.875000	1268.556030
2353.910156	1328.005249
2352.947266	1198.121460
2351.982422	1257.562744
2351.017578	1218.469971
2350.054688	1187.166016
2349.089844	1293.229370
2348.125000	1220.463989
2347.160156	1209.901367
2346.195313	1217.474854
2345.228516	1250.945190
2344.263672	1294.762695
2343.298828	1201.343506
2342.332031	1245.154663
2341.367188	1237.186523
2340.400391	1257.686890
2339.433594	1187.621338
2338.468750	1208.123169
2337.501953	1202.752563
2336.535156	1218.072876
2335.568359	1246.316650
2334.601563	1209.918823
2333.632813	1274.342896
2332.666016	1268.965698
2331.699219	1343.695068
2330.730469	1371.895142
2329.763672	1387.169922
2328.794922	1371.446655
2327.828125	1407.375244
2326.859375	1314.196045
2325.890625	1241.699341
2324.921875	1303.442139
2323.953125	1303.229004
2322.984375	1192.066040
2322.015625	1269.265381
2321.046875	1214.890747
2320.076172	1250.797607
2319.107422	1170.658203
2318.136719	1170.466797
2317.167969	1317.204224
2316.197266	1237.093262
2315.226563	1187.930664
2314.257813	1244.417969
2313.287109	1166.934082
2312.316406	1241.435425
2311.345703	1187.153809
2310.375000	1223.006104
2309.402344	1184.191162
2308.431641	1250.919067
2307.460938	1212.112183
2306.488281	1170.744873
2305.517578	1211.715576
2304.544922	1190.939575
2303.572266	1167.598633
2302.601563	1241.977661
2301.628906	1082.374878
2300.656250	1210.724854
2299.683594	1169.404785
2298.710938	1166.643799
2297.736328	1222.977051
2296.763672	1215.070435
2295.791016	1225.145386
2294.816406	1181.288574
2293.843750	1142.581299
2292.869141	1193.737915
2291.896484	1216.643433
2290.921875	1242.107666
2289.947266	1221.377075
2288.972656	1195.522217
2287.998047	1200.456787
2287.023438	1107.932617
2286.048828	1174.421509
2285.072266	1204.995117
2284.097656	1145.839600
2283.123047	1176.407837
2282.146484	1204.403442
2281.171875	1237.514160
2280.195313	1265.490601
2279.218750	1242.231689
2278.242188	1249.710938
2277.265625	1264.869141
2276.289063	1251.861938
2275.312500	1167.189331
2274.335938	1246.333618
2273.359375	1246.129517
2272.382813	1199.874878
2271.404297	1222.700073
2270.427734	1173.906738
2269.449219	1117.458008
2268.472656	1239.996338
2267.494141	1234.680786
2266.515625	1145.023682
2265.537109	1188.278564
2264.558594	1193.193970
2263.580078	1164.897949
2262.601563	1167.261475
2261.623047	1205.376709
2260.642578	1210.286011
2259.664063	1243.275879
2258.685547	1230.309692
2257.705078	1153.545410
2256.724609	1242.665039
2255.746094	1222.051392
2254.765625	1201.444580
2253.785156	1247.155273
2252.804688	1139.850952
2251.824219	1185.556763
2250.843750	1177.714966
2249.863281	1177.522095
2248.880859	1159.490845
2247.900391	1197.519531
2246.919922	1204.965820
2245.937500	1151.279785
2244.955078	1230.037720
2243.974609	1212.012451
2242.992188	1120.164063
2242.009766	1183.615723
2241.027344	1175.786865
2240.044922	1167.960449
2239.062500	1223.740479
2238.080078	1126.877808
2237.097656	1177.559570
2236.113281	1169.737915
2235.130859	1210.226074
2234.146484	1159.186157
2233.164063	1138.662964
2232.179688	1181.677368
2231.195313	1148.453003
2230.210938	1282.906372
2229.226563	1173.476440
2228.242188	1180.902832
2227.257813	1145.161011
2226.273438	1119.585815
2225.289063	1190.475464
2224.302734	1032.929810
2223.318359	1207.847656
2222.332031	1177.204590
2221.347656	1182.084961
2220.361328	1146.383667
2219.375000	1179.161499
2218.390625	1173.897339
2217.404297	1249.754883
2216.417969	1165.908691
2215.429688	1241.742554
2214.443359	1193.397583
2213.457031	1127.335083
2212.470703	1162.611206
2211.482422	1159.887939
2210.496094	1147.037231
2209.507813	1182.292603
2208.521484	1149.192383
2207.533203	1235.052612
2206.544922	1169.058838
2205.556641	1148.626953
2204.568359	1173.734497
2203.580078	1160.896118
2202.591797	1196.108398
2201.601563	1147.873413
2200.613281	1089.542480
2199.625000	1119.694092
2198.634766	1089.185059
2197.646484	1154.700439
2196.656250	1131.774536
2195.666016	1161.899170
2194.675781	1146.555786
2193.685547	1025.165894
2192.695313	1146.179565
2191.705078	1145.991577
2190.714844	1123.089355
2189.724609	1127.951782
2188.734375	1132.812622
2187.742188	1165.419922
2186.751953	1177.839355
2185.759766	1139.820190
2184.767578	1041.301880
2183.777344	1136.925171
2182.785156	1177.066284
2181.792969	1068.510010
2180.800781	1098.570557
2179.808594	1163.890503
2178.816406	1146.067627
2177.822266	1160.989990
2176.830078	1145.691406
2175.837891	1175.714478
2174.843750	1132.729370
2173.849609	1119.959595
2172.857422	1170.102783
2171.863281	1081.852905
2170.869141	1174.749634
2169.875000	1197.192749
2168.880859	1119.040527
2167.886719	1146.513916
2166.892578	1093.534302
2165.898438	1161.218140
2164.902344	1188.671021
2163.908203	1180.937866
2162.912109	1105.377319
2161.917969	1075.054077
2160.921875	1110.037109
2159.925781	1147.519531
2158.931641	1077.035034
2157.935547	1096.939453
2156.939453	1061.622803
2155.943359	1073.995117
2154.945313	1071.309692
2153.949219	1181.508179
2152.953125	1131.152100
2151.955078	1146.012451
2150.958984	1088.156860
2149.960938	1115.553589
2148.964844	1115.370361
2147.966797	1125.211182
2146.968750	1109.992554
2145.970703	1114.820679
2144.972656	1087.084595
2143.974609	1172.055298
2142.976563	1069.199585
2141.976563	1194.202271
2140.978516	1073.854492
2139.980469	1123.732910
2138.980469	1045.975830
2137.980469	1090.838623
2136.982422	1115.674438
2135.982422	1138.000977
2134.982422	1147.816772
2133.982422	1057.618042
2132.982422	1077.443115
2131.982422	1119.756836
2130.982422	1072.090820
2129.982422	1064.418701
2128.980469	1099.218872
2127.980469	1041.588501
2126.978516	1113.841919
2125.978516	1068.713013
2124.976563	1098.496216
2123.974609	1110.796509
2122.972656	1068.185913
2121.970703	1100.449829
2120.968750	1102.763916
2119.966797	1070.153687
2118.964844	1139.813110
2117.962891	1189.499878
2116.958984	1049.679443
2115.957031	1086.900146
2114.953125	1099.183838
2113.951172	1031.717163
2112.947266	1068.922363
2111.943359	1081.202881
2110.939453	1086.006714
2109.935547	1103.261108
2108.931641	1110.549683
2107.927734	1100.408569
2106.923828	1097.738403
2105.919922	1067.692261
2104.914063	1087.423706
2103.910156	1047.437256
2102.904297	1186.568604
2101.898438	1062.015503
2100.894531	1114.062500
2099.888672	1113.879272
2098.882813	1063.977417
2097.876953	1091.143066
2096.871094	1098.418823
2095.865234	1088.299316
2094.859375	1125.384644
2093.851563	1050.682861
2092.845703	1147.365601
2091.837891	1020.540344
2090.832031	1142.022583
2089.824219	1032.615723
2088.816406	1116.828369
2087.810547	1086.867310
2086.802734	1086.688477
2085.794922	994.726868
2084.787109	1078.890137
2083.777344	1029.116577
2082.769531	1130.602173
2081.761719	1078.357422
2080.751953	1112.880005
2079.744141	1092.871460
2078.734375	1082.780518
2077.726563	1102.421021
2076.716797	1134.439819
2075.707031	1030.238525
2074.697266	1052.354126
2073.687500	1054.656494
2072.677734	1059.433472
2071.667969	1091.432861
2070.656250	1012.069214
2069.646484	1051.488037
2068.636719	1066.156982
2067.625000	1046.195190
2066.613281	1058.387207
2065.603516	1031.015869
2064.591797	1048.150391
2063.580078	1062.807617
2062.568359	993.437927
2061.556641	1079.753418
2060.544922	1054.871338
2059.533203	1089.277832
2058.519531	995.253174
2057.507813	1125.957031
2056.496094	1031.957275
2055.482422	1026.850464
2054.468750	1076.041016
2053.457031	1014.174255
2052.443359	1031.277344
2051.429688	1043.441284
2050.416016	993.942200
2049.402344	1020.903931
2048.388672	1042.925537
2047.375000	986.055542
2046.359375	1094.341309
2045.345703	973.408997
2044.330078	1064.413574
2043.316406	1014.967896
2042.300781	1000.021973
2041.285156	1022.021484
2040.269531	1088.335083
2039.255859	987.218201
2038.240234	1046.131104
2037.222656	1006.581421
2036.207031	1043.325562
2035.191406	1080.057617
2034.175781	1042.981689
2033.158203	1089.539429
2032.142578	993.456787
2031.125000	1027.713989
2030.107422	1005.420471
2029.091797	1076.531860
2028.074219	992.801819
2027.056641	948.411682
2026.039063	1039.150269
2025.021484	970.204834
2024.001953	1038.807495
2022.984375	1036.180908
2021.966797	1038.464966
2020.947266	1065.294312
2019.929688	984.130310
2018.910156	1025.682373
2017.890625	1035.326782
2016.871094	1008.173279
2015.853516	995.744141
2014.833984	985.771179
2013.812500	1056.709717
2012.792969	1034.473145
2011.773438	977.930603
2010.753906	1002.274780
2009.732422	989.858765
2008.712891	972.547241
2007.691406	996.880188
2006.671875	915.900940
2005.650391	984.308655
2004.628906	1006.179382
2003.607422	925.238525
2002.585938	983.821533
2001.564453	1020.362854
2000.542969	993.282898
1999.519531	1042.041138
1998.498047	966.052368
1997.476563	990.345947
1996.453125	965.733582
1995.429688	1004.686035
1994.408203	975.191162
1993.384766	970.142883
1992.361328	940.663391
1991.337891	967.379761
1990.314453	952.565247
1989.291016	1003.691528
1988.267578	996.200806
1987.242188	956.976135
1986.218750	981.226807
1985.193359	1022.552612
1984.169922	976.022705
1983.144531	1073.447754
1982.119141	1026.924805
1981.095703	992.611328
1980.070313	1004.639648
1979.044922	1004.473755
1978.019531	962.868042
1976.992188	1023.640015
1975.966797	943.055359
1974.941406	1001.374023
1973.914063	950.052002
1972.888672	996.172058
1971.861328	966.784851
1970.833984	969.059998
1969.808594	1015.153931
1968.781250	978.476013
1967.753906	997.783325
1966.726563	968.419922
1965.699219	985.289673
1964.669922	936.478638
1963.642578	955.780029
1962.615234	960.485352
1961.585938	977.345154
1960.558594	994.199280
1959.529297	962.439819
1958.500000	913.680725
1957.470703	964.551392
1956.441406	940.100037
1955.412109	1066.242188
1954.382813	934.932617
1953.353516	971.198059
1952.324219	988.030701
1951.294922	910.197266
1950.263672	951.302307
1949.234375	960.850647
1948.203125	992.229736
1947.171875	996.916870
1946.140625	936.122437
1945.111328	945.666870
1944.080078	916.417908
1943.046875	991.409973
1942.015625	913.691406
1940.984375	942.618530
1939.953125	932.771606
1938.919922	956.841248
1937.888672	971.214905
1936.855469	879.034241
1935.824219	1007.211548
1934.791016	973.154053
1933.757813	922.165161
1932.724609	965.572327
1931.691406	924.279785
1930.658203	948.318787
1929.625000	984.443665
1928.591797	948.005188
1927.556641	943.012451
1926.523438	1027.471802
1925.488281	966.872375
1924.455078	969.129211
1923.419922	990.716370
1922.384766	1009.880371
1921.349609	896.180969
1920.314453	920.184570
1919.279297	992.475830
1918.244141	1011.626709
1917.208984	996.975464
1916.171875	967.847534
1915.136719	989.406067
1914.099609	991.655151
1913.064453	1042.151245
1912.027344	974.443115
1910.990234	969.458740
1909.955078	954.831177
1908.917969	1002.888977
1907.880859	966.567139
1906.841797	918.207336
1905.804688	920.465027
1904.767578	958.859802
1903.730469	968.336304
1902.691406	965.767639
1901.652344	890.959839
1900.615234	1006.377197
1899.576172	960.473755
1898.537109	974.755615
1897.498047	1001.064758
1896.458984	902.252747
1895.419922	921.348267
1894.380859	969.299927
1893.341797	947.496155
1892.300781	908.868652
1891.261719	1036.131104
1890.220703	968.658203
1889.181641	992.530029
1888.140625	1001.976990
1887.099609	944.152893
1886.058594	922.378296
1885.019531	929.430481
1883.976563	1010.918396
1882.935547	933.924316
1881.894531	986.579224
1880.853516	902.414490
1879.810547	1012.648560
1878.769531	930.906555
1877.726563	969.133911
1876.685547	949.785767
1875.642578	925.647949
1874.599609	949.471191
1873.556641	975.683716
1872.513672	920.394287
1871.470703	922.638306
1870.427734	893.732666
1869.382813	922.332642
1868.339844	936.551453
1867.294922	965.134766
1866.251953	897.929443
1865.207031	933.691895
1864.164063	888.057190
1863.119141	921.416077
1862.074219	902.120239
1861.029297	959.390625
1859.984375	916.173889
1858.937500	877.754761
1857.892578	915.870239
1856.847656	877.463867
1855.800781	906.004578
1854.755859	874.782898
1853.708984	920.042603
1852.664063	907.943481
1851.617188	898.237244
1850.570313	902.865417
1849.523438	933.761536
1848.476563	871.525452
1847.429688	866.606323
1846.380859	887.945190
1845.333984	916.436584
1844.287109	975.938599
1843.238281	899.432373
1842.189453	865.888123
1841.142578	887.209290
1840.093750	903.754150
1839.044922	884.530884
1837.996094	917.757202
1836.947266	948.589050
1835.898438	929.367737
1834.849609	931.596252
1833.798828	833.771362
1832.750000	847.923889
1831.701172	873.978821
1830.650391	890.500977
1829.599609	909.398254
1828.550781	887.825378
1827.500000	894.817566
1826.449219	894.669128
1825.398438	918.311157
1824.347656	891.993652
1823.294922	872.819641
1822.244141	841.762634
1821.193359	939.099060
1820.140625	872.385254
1819.089844	848.473694
1818.037109	872.095703
1816.984375	924.220581
1815.931641	855.177856
1814.878906	878.786926
1813.826172	845.395203
1812.773438	885.618225
1811.720703	840.366760
1810.667969	856.841980
1809.613281	863.819153
1808.560547	904.012268
1807.505859	865.904724
1806.453125	936.919434
1805.398438	877.475037
1804.343750	815.679199
1803.289063	893.779053
1802.234375	910.223328
1801.179688	891.112366
1800.125000	850.681458
1799.070313	883.708862
1798.013672	893.037354
1796.958984	895.257446
1795.904297	911.684875
1794.847656	925.739197
1793.791016	875.873718
1792.734375	894.662964
1791.677734	892.147888
1790.621094	875.437439
1789.564453	884.754639
1788.507813	860.955078
1787.451172	856.082336
1786.394531	858.304626
1785.335938	888.895081
1784.279297	862.746887
1783.220703	857.876953
1782.162109	890.815125
1781.105469	904.842163
1780.046875	852.725220
1778.988281	888.009460
1777.929688	913.836609
1776.869141	906.601929
1775.810547	868.682495
1774.751953	854.377197
1773.691406	901.430542
1772.632813	915.436951
1771.572266	882.259094
1770.513672	865.602356
1769.453125	881.965881
1768.392578	877.103699
1767.332031	928.820984
1766.271484	888.597229
1765.210938	886.092896
1764.150391	937.782898
1763.087891	859.884033
1762.027344	850.319275
1760.964844	798.366516
1759.904297	899.484680
1758.841797	932.295105
1757.779297	889.770081
1756.716797	880.208191
1755.654297	851.824524
1754.591797	919.911621
1753.529297	910.349365
1752.466797	910.197998
1751.404297	858.312744
1750.339844	898.139587
1749.277344	919.147034
1748.212891	923.694885
1747.148438	845.992004
1746.085938	845.851318
1745.021484	902.091370
1743.957031	899.592468
1742.892578	883.003967
1741.828125	854.680786
1740.761719	899.143677
1739.697266	884.910645
1738.632813	849.560608
1737.566406	889.309143
1736.501953	839.893677
1735.435547	886.667542
1734.369141	846.650085
1733.302734	820.715332
1732.236328	912.014648
1731.169922	864.980530
1730.103516	808.587036
1729.037109	883.439392
1727.970703	876.263489
1726.902344	869.089966
1725.835938	843.181458
1724.767578	906.269226
1723.699219	817.145508
1722.632813	819.350525
1721.564453	816.873535
1720.496094	842.479980
1719.427734	854.038940
1718.359375	853.896729
1717.289063	870.127991
1716.220703	869.983093
1715.152344	825.411072
1714.082031	890.734436
1713.013672	769.036316
1711.943359	848.369934
1710.873047	838.881775
1709.802734	848.087402
1708.732422	868.969666
1707.662109	833.791687
1706.591797	887.361572
1705.521484	838.183533
1704.449219	877.728516
1703.378906	805.228455
1702.308594	809.761536
1701.236328	825.959167
1700.164063	835.152954
1699.093750	809.356995
1698.021484	886.179871
1696.949219	818.414001
1695.876953	869.565735
1694.802734	825.134033
1693.730469	862.284546
1692.658203	850.490295
1691.583984	820.062195
1690.511719	798.961609
1689.437500	822.117920
1688.365234	814.995239
1687.291016	875.391846
1686.216797	849.640381
1685.142578	765.712646
1684.068359	819.106140
1682.994141	795.703430
1681.919922	800.223328
1680.843750	788.460693
1679.769531	792.980225
1678.693359	841.674438
1677.619141	820.612061
1676.542969	820.475220
1675.466797	787.803833
1674.390625	834.142822
1673.314453	787.541138
1672.238281	817.605530
1671.162109	854.626892
1670.085938	831.264709
1669.007813	819.518250
1667.931641	826.345154
1666.853516	870.302734
1665.777344	830.710449
1664.699219	856.092285
1663.621094	795.638733
1662.542969	890.595642
1661.464844	827.837585
1660.386719	864.795288
1659.308594	887.832031
1658.230469	894.637085
1657.152344	806.429504
1656.072266	845.682922
1654.994141	903.455688
1653.914063	819.922974
1652.833984	831.365112
1651.753906	852.064941
1650.673828	879.702881
1649.593750	874.926880
1648.513672	840.067383
1647.433594	853.810303
1646.353516	897.623657
1645.271484	874.343079
1644.191406	892.698730
1643.109375	811.619080
1642.029297	913.208069
1640.947266	889.940369
1639.865234	896.725281
1638.783203	926.615479
1637.701172	843.287292
1636.619141	850.076538
1635.537109	896.126709
1634.455078	842.865112
1633.371094	819.636047
1632.289063	879.518921
1631.205078	849.367249
1630.123047	844.610107
1629.039063	939.068115
1627.955078	828.179749
1626.871094	823.428406
1625.787109	876.332092
1624.703125	855.434021
1623.619141	906.009216
1622.533203	868.978210
1621.449219	878.051514
1620.363281	889.425903
1619.279297	886.973572
1618.193359	840.756592
1617.107422	914.314026
1616.021484	845.081116
1614.935547	877.171997
1613.849609	883.931152
1612.763672	846.959229
1611.677734	807.698425
1610.591797	816.766541
1609.503906	798.227112
1608.417969	825.693542
1607.330078	800.260010
1606.242188	795.527893
1605.156250	818.383301
1604.068359	836.634094
1602.980469	811.215637
1601.892578	817.973083
1600.802734	787.971619
1599.714844	741.901733
1598.626953	801.487427
1597.537109	819.722595
1596.449219	794.332275
1595.359375	739.110535
1594.269531	791.771790
1593.181641	803.112427
1592.091797	761.682190
1591.001953	800.550171
1589.910156	795.829407
1588.820313	786.524048
1587.730469	813.904846
1586.640625	822.937988
1585.548828	760.918518
1584.458984	769.957458
1583.367188	756.081726
1582.275391	808.643127
1581.183594	744.376953
1580.091797	833.562805
1579.000000	746.417664
1577.908203	824.127075
1576.816406	823.989197
1575.724609	771.216492
1574.630859	821.425537
1573.539063	748.081421
1572.445313	747.956299
1571.351563	791.283142
1570.259766	798.010437
1569.166016	759.011902
1568.072266	770.313904
1566.978516	793.039185
1565.882813	699.220154
1564.789063	799.627808
1563.695313	767.514282
1562.599609	730.843689
1561.505859	787.808960
1560.410156	821.924011
1559.314453	767.000671
1558.220703	782.848816
1557.125000	839.767212
1556.029297	889.821777
1554.933594	894.235291
1553.835938	846.188171
1552.740234	905.338196
1551.644531	747.862061
1550.546875	777.372742
1549.451172	802.315002
1548.353516	770.275757
1547.255859	817.996155
1546.158203	774.574219
1545.060547	785.833435
1543.962891	781.147034
1542.865234	778.739258
1541.767578	780.885498
1540.669922	753.439697
1539.570313	812.486206
1538.472656	728.157043
1537.373047	782.637695
1536.273438	725.638428
1535.175781	780.101257
1534.076172	768.600769
1532.976563	748.009766
1531.876953	784.255737
1530.775391	786.397217
1529.675781	761.268616
1528.576172	711.155701
1527.474609	792.817139
1526.375000	774.513916
1525.273438	790.280640
1524.171875	760.631165
1523.072266	792.286011
1521.970703	755.836792
1520.869141	737.554932
1519.767578	714.741150
1518.664063	737.307800
1517.562500	784.817688
1516.460938	703.042542
1515.357422	684.784729
1514.253906	752.683533
1513.152344	734.423462
1512.048828	709.370422
1510.945313	727.379333
1509.841797	715.929443
1508.738281	772.439941
1507.634766	690.776184
1506.531250	745.007446
1505.425781	695.072754
1504.322266	735.702881
1503.216797	735.579529
1502.113281	726.404419
1501.007813	735.332886
1499.902344	721.636536
1498.796875	692.112061
1497.691406	703.303101
1496.585938	721.273560
1495.480469	752.801941
1494.375000	707.469910
1493.267578	677.972473
1492.162109	691.415955
1491.054688	670.967651
1489.947266	700.219116
1488.841797	720.427185
1487.734375	648.049927
1486.626953	677.290466
1485.519531	704.263916
1484.412109	659.008240
1483.302734	699.514648
1482.195313	708.421753
1481.087891	660.932373
1479.978516	685.630432
1478.869141	622.375854
1477.761719	683.145752
1476.652344	707.827637
1475.542969	682.916504
1474.433594	644.492920
1473.324219	741.267761
1472.214844	696.089050
1471.103516	720.747925
1469.994141	734.138733
1468.882813	675.474365
1467.773438	691.119446
1466.662109	722.514954
1465.550781	684.136108
1464.441406	648.020142
1463.330078	663.659180
1462.218750	699.536804
1461.105469	724.157654
1459.994141	699.301941
1458.882813	683.447205
1457.769531	690.075867
1456.658203	631.526917
1455.544922	703.326416
1454.431641	712.195007
1453.320313	718.814331
1452.207031	725.431335
1451.093750	684.889771
1449.980469	678.039246
1448.865234	659.967102
1447.751953	664.345032
1446.638672	650.769287
1445.523438	655.147278
1444.410156	740.281799
1443.294922	717.728394
1442.179688	663.787231
1441.064453	748.877319
1439.949219	724.092041
1438.833984	730.694580
1437.718750	645.413086
1436.603516	692.358154
1435.486328	678.800171
1434.371094	660.767029
1433.253906	687.530151
1432.138672	712.045105
1431.021484	711.925415
1429.904297	727.474426
1428.787109	678.116028
1427.669922	720.517029
1426.552734	691.311584
1425.435547	682.247864
1424.316406	733.572754
1423.199219	715.560425
1422.080078	719.911621
1420.962891	704.143005
1419.843750	704.024597
1418.724609	659.213745
1417.605469	670.274170
1416.486328	683.564697
1415.367188	714.718689
1414.248047	687.801086
1413.128906	685.452637
1412.009766	694.266846
1410.888672	732.093994
1409.767578	689.570129
1408.648438	678.297913
1407.527344	733.955505
1406.406250	660.225830
1405.285156	713.637573
1404.164063	664.463196
1403.042969	697.791931
1401.921875	679.842590
1400.798828	679.728271
1399.677734	764.287109
1398.554688	663.904480
1397.433594	645.972839
1396.310547	643.637024
1395.187500	661.342651
1394.064453	670.136841
1392.941406	716.769958
1391.818359	692.167480
1390.695313	696.501526
1389.572266	671.910706
1388.447266	687.369080
1387.324219	665.012207
1386.199219	707.151428
1385.074219	702.585693
1383.951172	669.122437
1382.826172	646.783569
1381.701172	684.452942
1380.576172	648.787659
1379.449219	673.114990
1378.324219	699.655151
1377.199219	641.797791
1376.072266	683.876953
1374.947266	666.001709
1373.820313	716.941101
1372.693359	674.654480
1371.566406	707.824097
1370.439453	641.149597
1369.312500	654.350464
1368.185547	652.022461
1367.058594	660.782227
1365.931641	687.275085
1364.802734	649.476440
1363.675781	653.799561
1362.546875	675.848389
1361.417969	620.346436
1360.289063	631.317688
1359.160156	715.372803
1358.031250	664.321045
1356.902344	622.142517
1355.773438	701.729370
1354.644531	637.425842
1353.513672	661.660461
1352.384766	672.611694
1351.253906	623.830688
1350.123047	643.631653
1348.994141	663.425964
1347.863281	681.002563
1346.732422	672.045044
1345.601563	663.090576
1344.468750	651.929199
1343.337891	645.190613
1342.207031	642.872681
1341.074219	669.270020
1339.943359	693.450012
1338.810547	658.004028
1337.677734	679.970032
1336.544922	633.501648
1335.412109	662.085144
1334.279297	620.048523
1333.146484	613.325378
1332.013672	652.926941
1330.878906	610.913086
1329.746094	650.501648
1328.611328	542.360718
1327.478516	606.195313
1326.343750	610.501038
1325.208984	575.140381
1324.074219	683.001709
1322.939453	643.235046
1321.804688	640.924011
1320.669922	682.656128
1319.533203	581.260681
1318.398438	640.599731
1317.261719	671.305664
1316.126953	644.784851
1314.990234	591.869812
1313.853516	640.167480
1312.716797	604.867188
1311.580078	606.964233
1310.443359	637.644653
1309.306641	595.767395
1308.167969	580.280579
1307.031250	604.356934
1305.892578	584.479309
1304.755859	652.485168
1303.617188	630.409546
1302.478516	606.145142
1301.339844	628.000916
1300.201172	575.204407
1299.062500	612.423462
1297.923828	579.399597
1296.783203	570.524475
1295.644531	623.083069
1294.503906	585.686890
1293.365234	559.269470
1292.224609	567.946411
1291.083984	622.662292
1289.943359	530.488831
1288.802734	580.809082
1287.662109	589.476440
1286.521484	624.432739
1285.380859	650.614746
1284.238281	589.177795
1283.097656	626.306274
1281.955078	637.148010
1280.814453	560.420410
1279.671875	597.534851
1278.529297	628.071533
1277.386719	603.897095
1276.244141	595.044373
1275.101563	625.565979
1273.957031	592.656372
1272.814453	603.489014
1271.669922	592.456116
1270.527344	627.329041
1269.382813	561.659607
1268.238281	576.860229
1267.093750	568.023926
1265.949219	570.112244
1264.804688	589.671631
1263.660156	648.529114
1262.515625	591.655518
1261.369141	622.115540
1260.224609	622.010376
1259.078125	626.269470
1257.933594	595.619019
1256.787109	665.322632
1255.640625	599.779663
1254.494141	658.555725
1253.347656	597.396545
1252.201172	656.153137
1251.052734	592.835449
1249.906250	618.885254
1248.759766	603.528992
1247.611328	627.389709
1246.462891	629.461670
1245.316406	598.867371
1244.167969	607.475403
1243.019531	657.442810
1241.871094	631.212463
1240.720703	615.872070
1239.572266	617.943726
1238.423828	602.610779
1237.273438	643.836121
1236.125000	676.348511
1234.974609	641.443909
1233.824219	686.989746
1232.673828	615.143005
1231.525391	638.945068
1230.373047	664.911865
1229.222656	653.936646
1228.072266	666.859009
1226.921875	649.371643
1225.769531	694.862061
1224.619141	679.546936
1223.466797	649.041992
1222.314453	612.036316
1221.162109	629.292480
1220.009766	666.069275
1218.857422	672.464233
1217.705078	665.843750
1216.552734	665.731018
1215.398438	689.467773
1214.246094	687.183289
1213.091797	693.569153
1211.939453	647.943909
1210.785156	708.500916
1209.630859	758.205933
1208.476563	749.413757
1207.322266	755.783508
1206.167969	688.534241
1205.013672	755.527527
1203.857422	716.439148
1202.703125	744.451111
1201.546875	750.816162
1200.392578	729.055298
1199.236328	774.354858
1198.080078	754.759888
1196.923828	774.092468
1195.767578	776.123230
1194.611328	769.507080
1193.453125	782.343689
1192.296875	788.693542
1191.140625	812.324707
1189.982422	764.665466
1188.824219	814.209106
1187.667969	801.115051
1186.509766	785.866455
1185.351563	794.367676
1184.193359	781.283569
1183.033203	826.466553
1181.875000	763.758667
1180.716797	834.814941
1179.556641	862.711548
1178.398438	864.721680
1177.238281	888.291626
1176.078125	896.763733
1174.917969	892.301025
1173.757813	833.966064
1172.597656	900.616760
1171.437500	952.165344
1170.277344	954.157715
1169.117188	917.386597
1167.955078	938.762207
1166.792969	910.617126
1165.632813	912.615051
1164.470703	953.348816
1163.308594	979.007080
1162.146484	929.361084
1160.984375	995.882385
1159.822266	982.810059
1158.660156	976.192688
1157.496094	1025.473389
1156.333984	980.160400
1155.169922	1022.976257
1154.005859	1018.505188
1152.843750	1035.519409
1151.679688	973.051208
1150.515625	1123.221680
1149.351563	1024.255859
1148.185547	1030.522827
1147.021484	1060.399658
1145.857422	1066.658325
1144.691406	1128.706299
1143.527344	1195.024048
1142.361328	1055.389648
1141.195313	1179.605225
1140.029297	1136.517578
1138.863281	1110.596436
1137.697266	1189.722778
1136.531250	1176.661011
1135.363281	1200.033325
1134.197266	1144.123169
1133.029297	1242.469604
1131.863281	1278.669678
1130.695313	1229.198853
1129.527344	1228.990112
1128.359375	1260.892456
1127.191406	1305.625977
1126.023438	1322.524292
1124.855469	1288.065430
1123.687500	1337.050049
1122.517578	1366.767700
1121.349609	1364.396973
1120.179688	1338.506836
1119.009766	1406.689941
1117.839844	1425.688110
1116.671875	1461.776611
1115.500000	1459.391479
1114.330078	1486.916260
1113.160156	1518.703857
1111.990234	1533.395264
1110.818359	1513.917114
1109.648438	1637.485229
1108.476563	1622.265015
1107.304688	1581.439575
1106.132813	1615.312134
1104.962891	1649.173096
1103.789063	1674.489990
1102.617188	1701.931030
1101.445313	1727.230347
1100.273438	1799.425415
1099.099609	1786.329468
1097.927734	1854.227295
1096.753906	1838.995483
1095.580078	1913.252686
1094.406250	1861.802368
1093.232422	1897.693115
1092.058594	2016.621582
1090.884766	2071.635742
1089.710938	2056.382080
1088.535156	2207.148682
1087.361328	2155.700195
1086.185547	2229.802246
1085.011719	2233.677490
1083.835938	2309.867676
1082.660156	2307.348145
1081.484375	2268.683594
1080.308594	2281.052734
1079.132813	2374.186768
1077.955078	2465.164063
1076.779297	2468.994141
1075.601563	2455.827393
1074.425781	2519.131348
1073.248047	2491.094482
1072.070313	2552.247314
1070.892578	2536.952148
1069.714844	2538.642822
1068.537109	2584.900391
1067.359375	2607.801025
1066.179688	2641.301758
1065.001953	2664.184814
1063.822266	2714.630615
1062.644531	2599.664551
1061.464844	2660.704346
1060.285156	2719.603516
1059.105469	2693.708252
1057.925781	2722.915527
1056.746094	2692.791016
1055.566406	2738.934570
1054.384766	2636.808105
1053.205078	2754.942383
1052.023438	2686.722900
1050.843750	2798.457520
1049.662109	2757.767822
1048.480469	2748.833740
1047.298828	2763.175781
1046.117188	2735.204834
1044.935547	2747.429199
1043.751953	2810.401367
1042.570313	2809.922607
1041.388672	2726.999756
1040.205078	2751.898193
1039.021484	2721.843994
1037.837891	2776.314941
1036.656250	2634.303467
1035.472656	2811.275391
1034.287109	2810.796387
1033.103516	2713.191406
1031.919922	2712.729004
1030.734375	2691.159668
1029.550781	2726.576904
1028.365234	2698.682373
1027.179688	2649.700684
1025.996094	2634.484131
1024.810547	2642.470703
1023.625000	2616.717529
1022.439453	2609.946777
1021.251953	2645.334961
1020.066406	2644.884033
1018.878906	2568.576660
1017.693359	2574.458984
1016.505859	2485.551270
1015.318359	2501.975830
1014.132813	2556.296875
1012.945313	2440.068115
1011.755859	2469.121338
1010.568359	2561.302979
1009.380859	2478.800537
1008.193359	2394.222168
1007.003906	2515.818359
1005.814453	2462.810059
1004.626953	2458.184326
1003.437500	2382.076660
1002.248047	2430.018311
1001.058594	2347.636230
999.869141	2349.336914
998.679688	2298.511719
997.488281	2312.823975
996.298828	2312.429443
995.107422	2324.634521
993.917969	2326.337402
992.726563	2290.253418
991.535156	2178.622559
990.343750	2354.525391
989.152344	2209.351318
987.960938	2305.472412
986.769531	2248.448242
985.576172	2162.084473
984.384766	2165.908691
983.191406	2184.406250
982.000000	2119.057129
980.806641	2154.321289
979.613281	2164.429932
978.419922	2073.978271
977.226563	2161.596191
976.033203	2081.646973
974.837891	2102.229980
973.644531	2080.936035
972.449219	2030.345215
971.255859	1923.266602
970.060547	2107.071533
968.865234	2089.974854
967.669922	2058.242432
966.474609	1961.688477
965.279297	1946.716431
964.083984	1940.111938
962.886719	2021.301392
961.691406	1906.010254
960.494141	1976.729858
959.298828	2022.354614
958.101563	2022.009033
956.904297	1977.805176
955.707031	1985.819702
954.509766	1920.759033
953.312500	1932.955322
952.113281	1911.754272
950.916016	1948.988281
949.716797	1810.955811
948.519531	1866.968140
947.320313	1962.588501
946.121094	1910.120850
944.921875	1840.991699
943.722656	1919.890625
942.523438	1915.393921
941.324219	1929.653442
940.125000	1806.396851
938.923828	1851.917114
937.724609	1887.007935
936.523438	1767.986450
935.322266	1846.803101
934.121094	1850.650635
932.919922	1771.242188
931.718750	1802.154419
930.517578	1841.378540
929.316406	1747.450195
928.113281	1749.231201
926.912109	1738.533936
925.708984	1750.711914
924.505859	1764.964478
923.304688	1777.133667
922.101563	1762.282471
920.898438	1732.891602
919.695313	1676.503906
918.490234	1734.375610
917.287109	1667.623169
916.083984	1771.156982
914.878906	1698.192871
913.673828	1616.950806
912.470703	1678.933716
911.265625	1686.946167
910.060547	1634.792114
908.855469	1686.368652
907.648438	1549.202637
906.443359	1638.099731
905.238281	1664.770752
904.031250	1618.883423
902.826172	1647.620850
901.619141	1645.266602
900.412109	1560.042358
899.205078	1582.560791
897.998047	1532.584351
896.791016	1596.513672
895.583984	1525.848389
894.375000	1604.246826
893.167969	1527.395386
891.958984	1541.618652
890.751953	1516.527466
889.542969	1572.119263
888.333984	1557.372314
887.125000	1511.612427
885.916016	1554.771240
884.707031	1486.288574
883.496094	1541.837646
882.287109	1477.513428
881.076172	1539.243164
879.867188	1549.308105
878.656250	1530.454102
877.445313	1559.102295
876.234375	1546.447021
875.023438	1527.603027
873.812500	1450.974121
872.601563	1448.661743
871.388672	1510.311401
870.177734	1483.234619
868.964844	1476.792725
867.753906	1468.290649
866.541016	1486.595581
865.328125	1554.370239
864.115234	1496.391602
862.902344	1471.405518
861.687500	1471.153198
860.474609	1495.621948
859.261719	1518.022461
858.046875	1472.455811
856.832031	1463.967163
855.619141	1461.657349
854.404297	1479.931519
853.189453	1461.156006
851.974609	1434.156372
850.759766	1462.712036
849.542969	1476.859375
848.328125	1382.004517
847.111328	1424.947632
845.896484	1371.251099
844.679688	1486.123535
843.462891	1409.828247
842.246094	1337.668701
841.029297	1401.126709
839.812500	1390.615723
838.595703	1376.000977
837.378906	1412.725708
836.160156	1381.687744
834.941406	1383.503296
833.724609	1362.742554
832.505859	1294.793579
831.287109	1368.429565
830.068359	1339.476929
828.849609	1310.534180
827.630859	1347.219238
826.410156	1340.837280
825.191406	1350.856323
823.970703	1412.109497
822.751953	1360.638184
821.531250	1352.209351
820.310547	1364.267822
819.089844	1394.755005
817.869141	1367.894653
816.648438	1269.384766
815.427734	1369.471802
814.205078	1377.423340
812.984375	1346.491699
811.761719	1381.042114
810.539063	1366.485352
809.318359	1378.522339
808.095703	1404.869629
806.873047	1425.074097
805.648438	1408.475342
804.425781	1391.882202
803.203125	1420.252441
801.978516	1509.908203
800.755859	1450.406738
799.531250	1470.582153
798.306641	1439.697510
797.082031	1451.700684
795.857422	1443.285522
794.632813	1420.585571
793.408203	1428.504272
792.183594	1462.944946
790.957031	1481.053589
789.732422	1541.989014
788.505859	1447.915283
787.279297	1459.900146
786.052734	1510.614502
784.826172	1469.589355
783.599609	1467.298706
782.373047	1452.783447
781.146484	1495.315063
779.917969	1533.758301
778.691406	1529.421509
777.462891	1531.194580
776.234375	1555.360962
775.007813	1475.710327
773.779297	1479.526611
772.550781	1524.036865
771.320313	1507.499390
770.091797	1564.193726
768.863281	1482.576050
767.632813	1425.386841
766.404297	1543.056274
765.173828	1577.345947
763.943359	1558.783691
762.712891	1469.109131
761.482422	1572.468506
760.251953	1543.760132
759.021484	1565.834473
757.789063	1561.503784
756.558594	1593.718384
755.326172	1573.145386
754.095703	1546.490845
752.863281	1613.187134
751.630859	1562.188965
750.398438	1574.090820
749.166016	1604.241455
747.933594	1642.492798
746.699219	1664.511597
745.466797	1692.604004
744.232422	1653.804688
742.998047	1617.045166
741.765625	1711.989746
740.531250	1725.874634
739.296875	1701.273438
738.062500	1692.880493
736.826172	1720.933594
735.591797	1773.268433
734.357422	1785.106445
733.121094	1703.855591
731.886719	1804.723755
730.650391	1774.069458
729.414063	1791.966553
728.177734	1710.770264
726.941406	1783.261719
725.705078	1795.083252
724.466797	1837.217896
723.230469	1901.566650
721.992188	1842.645874
720.755859	1866.569458
719.517578	1797.576294
718.279297	1825.537964
717.041016	1895.890137
715.802734	1855.189209
714.564453	1907.346558
713.326172	1927.197754
712.085938	2043.889771
710.847656	1991.087158
709.607422	1996.794800
708.367188	2093.248047
707.128906	1973.927124
705.888672	2040.112061
704.648438	1999.448730
703.406250	2013.210449
702.166016	2105.547607
700.925781	2099.140869
699.683594	2072.594238
698.443359	2168.900879
697.201172	2075.906250
695.958984	2135.942383
694.716797	2095.317871
693.474609	2175.454102
692.232422	2213.308594
690.990234	2102.280518
689.746094	2218.579102
688.503906	2288.583252
687.259766	2284.166748
686.017578	2201.347656
684.773438	2227.097900
683.529297	2270.926270
682.285156	2228.338379
681.041016	2338.447510
679.794922	2416.380127
678.550781	2353.706299
677.306641	2337.236572
676.060547	2403.083252
674.814453	2380.588867
673.570313	2416.301758
672.324219	2435.949951
671.078125	2459.603760
669.830078	2360.892090
668.583984	2428.671631
667.337891	2478.381348
666.089844	2465.924316
664.843750	2501.578857
663.595703	2545.237549
662.347656	2442.605225
661.099609	2582.423340
659.851563	2563.949463
658.603516	2531.462646
657.355469	2569.070801
656.107422	2534.592041
654.857422	2672.271484
653.609375	2513.702637
652.359375	2651.337891
651.109375	2580.856445
649.859375	2610.415283
648.609375	2701.962646
647.359375	2555.522949
646.109375	2651.046631
644.859375	2676.574707
643.607422	2722.079590
642.357422	2621.696777
641.105469	2679.182617
639.853516	2654.748779
638.601563	2612.348389
637.349609	2707.746094
636.097656	2621.427490
634.845703	2668.882324
633.593750	2658.441650
632.339844	2697.891602
631.087891	2729.347168
629.833984	2682.994873
628.580078	2804.192139
627.326172	3029.040527
626.072266	2787.271973
624.818359	2804.730713
623.564453	2692.633545
622.310547	2684.197021
621.054688	2711.625732
619.800781	2709.164551
618.544922	2760.479736
617.289063	2732.123291
616.033203	2773.461426
614.777344	2786.916016
613.521484	2786.433838
612.265625	2877.489990
611.009766	2809.344727
609.751953	2840.687012
608.496094	2790.471924
607.238281	2879.475342
605.980469	2900.847656
604.722656	2900.345459
603.464844	2947.544678
602.207031	2853.635254
600.949219	2902.812988
599.689453	2852.647217
598.431641	3064.674561
597.171875	2992.653809
595.914063	3089.424561
594.654297	2983.676758
593.394531	2999.038330
592.134766	3010.425781
590.875000	3113.078369
589.615234	3082.782471
588.353516	3074.314697
587.093750	3048.002197
585.832031	3128.766357
584.572266	3066.770020
583.310547	3167.323486
582.048828	3299.549316
580.787109	3075.083008
579.525391	3137.943115
578.263672	3204.742432
577.000000	3190.324707
575.738281	3221.451660
574.474609	3307.998047
573.210938	3168.873047
571.949219	3294.977539
570.685547	3262.748535
569.421875	3226.573975
568.158203	3283.374756
566.892578	3249.186523
565.628906	3363.303711
564.365234	3325.159424
563.099609	3330.512451
561.833984	3387.245361
560.568359	3301.695313
559.302734	3330.755859
558.037109	3294.624512
556.771484	3270.354980
555.505859	3398.130859
554.240234	3480.456543
552.972656	3507.486328
551.707031	3341.105469
550.439453	3545.732422
549.171875	3509.606934
547.904297	3426.155029
546.636719	3492.612549
545.369141	3549.187744
544.101563	3737.829102
542.832031	3644.539551
541.564453	3602.521484
540.294922	3613.718750
539.025391	3705.684326
537.757813	3764.132813
536.488281	3728.030762
535.218750	3802.207031
533.947266	3709.018555
532.677734	3834.349121
531.408203	3873.043701
530.136719	3941.239746
528.867188	3966.130859
527.595703	4050.022461
526.324219	4216.483887
525.052734	4040.750977
523.781250	4138.347656
522.509766	4228.047363
521.236328	4300.028320
519.964844	4254.087891
518.691406	4274.959961
517.419922	4323.323730
516.146484	4355.958984
514.873047	4482.834961
513.599609	4497.761719
512.326172	4422.390625
511.052734	4545.263184
509.777344	4485.606934
508.503906	4527.988770
507.230469	4593.894043
505.955078	4706.844727
504.679688	4688.378906
503.404297	4746.379395
502.128906	4680.869141
500.853516	4605.582520
499.578125	4728.229492
498.300781	4766.590332
497.025391	4710.915527
495.748047	4821.728516
494.472656	4795.435059
493.195313	4810.263672
491.917969	4789.853027
490.640625	4908.403320
489.363281	4711.874023
488.085938	4713.011230
486.806641	4725.884277
485.529297	4738.752441
484.250000	4761.393066
482.970703	4703.868652
481.693359	4609.224121
480.414063	4799.951172
479.134766	4672.104004
477.853516	4694.735840
476.574219	4699.779297
475.294922	4573.968262
474.013672	4590.746582
472.734375	4490.378906
471.453125	4513.021484
470.171875	4574.689453
468.890625	4489.986816
467.609375	4409.215332
466.328125	4431.855469
465.044922	4528.599121
463.763672	4449.812500
462.482422	4456.836914
461.199219	4458.010254
459.916016	4373.429688
458.632813	4421.383789
457.349609	4406.976074
456.066406	4388.677734
454.783203	4448.288574
453.500000	4511.773438
452.214844	4310.456055
450.931641	4381.729004
449.646484	4340.095215
448.361328	4292.637695
447.076172	4352.202637
445.791016	4267.800293
444.505859	4265.112305
443.220703	4200.199707
441.933594	4150.862793
440.648438	4251.220703
439.361328	4262.141113
438.076172	4249.739746
436.789063	4283.970703
435.501953	4145.306152
434.214844	4041.649170
432.927734	4110.850586
431.638672	4187.793945
430.351563	4216.181641
429.062500	4201.861328
427.775391	4253.521973
426.486328	4217.857910
425.197266	4207.423828
423.908203	4179.538086
422.619141	4161.357422
421.330078	4162.570801
420.041016	4221.937012
418.750000	4112.666992
417.460938	4166.207520
416.169922	4115.107910
414.878906	4021.409912
413.587891	4144.661133
412.296875	4031.625977
411.005859	3998.009766
409.714844	4016.669922
408.421875	4135.964844
407.130859	4075.256104
405.837891	3983.613037
404.546875	3936.492676
403.253906	3964.816895
401.960938	4089.816895
400.667969	3996.301270
399.375000	3949.210938
398.080078	3998.772217
396.787109	3963.291992
395.492188	4028.289551
394.199219	3946.455322
392.904297	3872.375000
391.609375	3943.147217
390.314453	3930.874756
389.019531	3957.213623
387.724609	3873.532471
386.429688	3853.559570
385.132813	3876.039063
383.837891	3856.072510
382.541016	3961.475830
381.244141	3956.927490
379.947266	3911.893066
378.650391	3731.938232
377.353516	3977.983154
376.056641	3965.726563
374.759766	3847.508789
373.460938	3817.942383
372.162109	3902.018311
370.865234	3882.080566
369.566406	3927.609619
368.267578	3919.223877
366.968750	3974.353271
365.669922	3902.460449
364.369141	3955.649414
363.070313	3879.937256
361.769531	3933.111328
360.470703	3820.893311
359.169922	3920.201416
357.869141	3884.915527
356.568359	3934.207031
355.267578	3814.380127
353.966797	3898.249268
352.664063	3893.726074
351.363281	3918.013184
350.060547	3865.481445
348.759766	3941.602783
347.457031	3833.416748
346.154297	3984.367676
344.851563	3939.536133
343.548828	3923.498535
342.246094	3986.114746
340.941406	3862.671631
339.638672	3929.111328
338.333984	3903.500000
337.029297	3962.241455
335.724609	3898.301758
334.419922	3935.944824
333.115234	3860.536377
331.810547	3957.554688
330.505859	3866.846924
329.199219	3982.979004
327.894531	3892.297852
326.587891	3895.445557
325.281250	3772.275146
323.974609	3800.318359
322.667969	3824.525391
321.361328	3798.988525
320.054688	3746.685059
318.748047	3753.678223
317.439453	3791.259033
316.130859	3781.037598
314.824219	3732.595703
313.515625	3705.189941
312.207031	3824.905762
310.898438	3786.031982
309.589844	3678.416260
308.279297	3805.711426
306.970703	3795.499268
305.660156	3829.194336
304.351563	3796.078857
303.041016	3734.351563
301.730469	3674.553711
300.419922	3870.386230
299.109375	3774.348633
297.798828	3703.133545
296.486328	3826.409424
295.175781	3865.769531
293.863281	3891.774414
292.550781	3689.106445
291.238281	3804.677246
289.927734	3706.862793
288.613281	3715.735840
287.300781	3804.582031
285.988281	3794.396240
284.673828	3829.898438
283.361328	3724.551514
282.046875	3836.167725
280.732422	3727.051270
279.419922	3758.735596
278.105469	3790.408447
276.789063	3723.190430
275.474609	3711.130859
274.160156	3799.820801
272.843750	3842.866699
271.529297	3838.392578
270.212891	3776.924072
268.896484	3732.572754
267.580078	3802.188477
266.263672	3782.533203
264.947266	3783.768555
263.628906	3758.428467
262.312500	3822.296631
260.994141	3747.622559
259.677734	3739.376709
258.359375	3818.389160
257.041016	3762.719971
255.722656	3763.956055
254.404297	3765.191650
253.085938	3762.635498
251.765625	3906.010742
250.447266	3833.320313
249.126953	3775.811768
247.806641	3879.330322
246.486328	3810.470215
245.166016	3915.839844
243.845703	3896.220703
242.525391	3812.250244
241.205078	3923.241211
239.882813	3930.121582
238.562500	3919.972168
237.240234	3788.767334
235.917969	3914.813721
234.595703	3933.035156
233.273438	3805.677979
231.951172	3973.239258
230.628906	3964.981934
229.304688	3924.605225
227.982422	3889.909912
226.658203	3940.226807
225.335938	3896.098145
224.011719	3940.731201
222.687500	3960.805908
221.361328	3912.921143
220.037109	4000.933838
218.712891	3905.885986
217.386719	3952.364014
216.062500	3900.741211
214.736328	3950.975342
213.410156	4027.589844
212.083984	3925.079102
210.757813	3984.706543
209.431641	3967.045166
208.105469	4047.370850
206.777344	4091.873535
205.451172	4013.927246
204.123047	4146.933105
202.794922	4102.896973
201.466797	4075.819336
200.138672	4210.625977
198.810547	4089.441895
197.482422	4132.000000
196.154297	4198.999023
194.824219	4328.045898
193.494141	4182.478027
192.166016	4194.904297
190.835938	4263.724609
189.505859	4223.502930
188.175781	4217.122559
186.843750	4248.322754
185.513672	4247.575684
184.183594	4295.664551
182.851563	4231.057617
181.519531	4342.971680
180.187500	4293.397949
178.857422	4390.245117
177.523438	4318.160156
176.191406	4366.184570
174.859375	4339.152344
173.527344	4357.145508
172.193359	4348.877441
170.859375	4438.111816
169.527344	4414.834961
168.193359	4445.921387
166.859375	4441.391113
165.523438	4418.125000
164.189453	4460.434570
162.855469	4367.871582
161.519531	4481.336426
160.185547	4465.568359
158.849609	4524.687012
157.513672	4404.102051
156.177734	4489.409180
154.841797	4531.652344
153.505859	4476.604004
152.167969	4608.612305
150.832031	4491.857910
149.494141	4524.721680
148.158203	4606.177734
146.820313	4642.747559
145.482422	4681.173340
144.144531	4712.111328
142.804688	4771.059570
141.466797	4697.376953
140.128906	4786.185547
138.789063	4818.949707
137.449219	4842.368164
136.111328	4819.117676
134.771484	4917.171875
133.431641	4927.500000
132.091797	4934.093262
130.750000	4922.032715
129.410156	5036.781738
128.068359	5088.098633
126.728516	5144.989746
125.386719	5073.258301
124.044922	5273.618652
122.703125	5159.037598
121.361328	5186.069824
120.019531	5056.644043
118.675781	5243.830078
117.333984	5198.221680
115.990234	5132.152344
114.646484	5172.192871
113.304688	5122.898926
111.960938	5192.694824
110.615234	5268.046387
109.271484	5257.817871
107.927734	5320.114258
106.582031	5373.092773
105.238281	5269.906738
103.892578	5255.967285
102.546875	5295.920410
101.201172	5434.327637
99.855469	5431.511230
98.509766	5486.269531
97.164063	5407.311523
95.816406	5549.313477
94.470703	5591.027832
93.123047	5634.583496
91.775391	5672.556152
90.427734	5667.844238
89.080078	5642.729492
87.732422	5730.754883
86.384766	5709.345703
85.035156	5767.664551
83.687500	5846.352051
82.337891	5880.532715
80.988281	5707.167480
79.638672	5774.707520
78.289063	5668.104980
76.939453	5906.011230
75.589844	6030.881836
74.240234	5885.411621
72.888672	5782.566406
71.539063	5898.138184
70.187500	5884.143555
68.835938	5812.802734
67.484375	5874.666016
66.132813	5758.966309
64.781250	5658.100098
63.427734	5738.443848
62.076172	5702.310059
60.722656	5682.821777
59.369141	5582.039063
58.015625	5374.141602
56.662109	5216.188965
55.308594	5030.590332
53.955078	4857.981934
52.601563	4849.738770
51.246094	4682.760742
